# Wavelength Flux
# STATUS = PUBLIC
# OBJECT = 2018hpq
# TELESCOPE = Keck1
# INSTRUMENT =
# DATE-OBS = 2018.1204
# MJD =
# EXPTIME =
# SLIT =
# DISPERSER =
# SOURCE = 2023ApJ...943...41C
# FILTER =
# FLUX_STANDARD =
# EXTINCTION_CORRECTED = False
# PHOTOMETRY_CALIBRATED =
# FLUX_UNITS = erg/s/cm^2/Angstroms
# QUALITY =
# MIN_WAVE =
# MAX_WAVE =
# COMMENT =
3099.2693 1.18209e-16
3101.2307 -1.81482e-16
3103.1924 -2.15183e-17
3105.155 3.97426e-19
3107.1179 -1.27099e-16
3109.0815 8.74763e-17
3111.0457 8.50817e-17
3113.0103 4.11321e-17
3114.9756 -1.17441e-16
3116.9414 1.55727e-16
3118.9077 -9.90062e-17
3120.8745 -9.03473e-17
3122.8418 4.33338e-17
3124.8098 2.74014e-17
3126.7783 4.99823e-17
3128.7473 4.35227e-17
3130.7168 2.4078e-17
3132.687 3.6095e-17
3134.6577 1.97605e-17
3136.6289 -6.03032e-17
3138.6006 -3.49996e-17
3140.573 2.66201e-17
3142.5459 1.39167e-16
3144.5193 -1.06352e-16
3146.4932 1.17243e-16
3148.4678 6.59548e-17
3150.4426 -2.61083e-17
3152.4182 4.46577e-17
3154.3943 4.75303e-18
3156.3711 1.25992e-16
3158.3481 1.51043e-16
3160.3259 -1.05206e-17
3162.3042 7.39025e-17
3164.283 -8.2763e-18
3166.2622 6.22347e-17
3168.2422 -5.09619e-17
3170.2227 7.73786e-17
3172.2036 6.9073e-17
3174.1848 -8.95047e-17
3176.167 3.42895e-17
3178.1494 1.14313e-16
3180.1326 9.28956e-17
3182.1162 -2.53161e-18
3184.1001 5.43456e-17
3186.085 4.4324e-17
3188.0701 5.14836e-17
3190.0557 8.5749e-18
3192.042 3.33214e-17
3194.0288 -1.34415e-17
3196.0161 5.46923e-17
3198.0039 1.01201e-17
3199.9922 1.3169e-17
3201.981 -2.40602e-17
3203.9705 2.56968e-17
3205.9602 7.39705e-17
3207.9507 -3.5745e-17
3209.9417 2.01216e-17
3211.9331 1.24969e-16
3213.9253 3.6399e-17
3215.9177 5.14938e-17
3217.9106 1.10103e-17
3219.9043 6.4376e-17
3221.8982 8.47474e-17
3223.8928 6.80843e-17
3225.8879 -4.10576e-18
3227.8838 -2.57475e-17
3229.8799 5.72426e-17
3231.8765 3.54464e-17
3233.8735 1.73275e-17
3235.8713 -1.77672e-17
3237.8694 6.55337e-17
3239.8682 6.79141e-17
3241.8674 2.10327e-17
3243.8672 2.26949e-17
3245.8674 7.27969e-17
3247.8682 2.92541e-17
3249.8694 1.12714e-16
3251.8713 -1.47532e-17
3253.8735 7.48387e-17
3255.8762 6.42947e-17
3257.8796 -1.77513e-17
3259.8835 6.19203e-17
3261.8877 -2.51021e-17
3263.8926 5.79211e-17
3265.8979 3.53476e-17
3267.9038 1.95622e-17
3269.9102 4.19596e-18
3271.917 5.36256e-17
3273.9243 5.64529e-17
3275.9321 4.96896e-17
3277.9404 2.74915e-17
3279.9492 6.43817e-18
3281.9585 7.55235e-17
3283.9685 6.94122e-17
3285.9788 6.25572e-17
3287.9897 3.96333e-17
3290.001 2.46313e-17
3292.0127 2.65431e-17
3294.0251 3.72555e-17
3296.0381 5.3454e-17
3298.0513 6.4569e-17
3300.0652 2.85419e-17
3302.0793 2.29344e-17
3304.0942 4.5081e-17
3306.1096 -5.39729e-18
3308.1252 1.25059e-17
3310.1416 6.45546e-19
3312.1584 3.28203e-17
3314.1755 3.78241e-17
3316.1934 4.88516e-17
3318.2117 5.11448e-17
3320.2302 -7.25319e-18
3322.2495 -2.71846e-17
3324.2693 5.62354e-18
3326.2893 -2.38482e-17
3328.3101 6.12331e-18
3330.3313 3.81077e-17
3332.3528 -1.61768e-17
3334.375 -3.69867e-20
3336.3977 3.33572e-17
3338.4207 6.55299e-17
3340.4441 4.59099e-17
3342.4683 5.86376e-17
3344.4929 3.59425e-17
3346.5178 1.01949e-17
3348.5432 5.38314e-18
3350.5693 -1.44968e-17
3352.5957 4.04289e-17
3354.6226 1.5813e-17
3356.6499 2.62049e-17
3358.678 -5.84575e-18
3360.7063 -3.51324e-17
3362.7351 -4.83383e-18
3364.7644 3.02795e-17
3366.7942 8.03826e-18
3368.8242 3.63232e-17
3370.855 5.47106e-17
3372.8862 7.02163e-17
3374.918 3.00981e-17
3376.95 2.55067e-17
3378.9827 3.80066e-17
3381.0156 4.48391e-17
3383.0493 1.29097e-17
3385.0833 6.43251e-18
3387.1177 1.35519e-17
3389.1526 2.06825e-17
3391.188 9.9216e-17
3393.2239 3.69892e-17
3395.26 7.48899e-17
3397.2969 4.29742e-17
3399.334 1.94445e-17
3401.3718 3.85146e-17
3403.4099 4.24169e-17
3405.4485 4.10287e-17
3407.4878 2.38012e-17
3409.5273 5.11459e-17
3411.5674 3.87258e-17
3413.6077 6.46438e-17
3415.6487 3.25596e-17
3417.6899 3.81807e-17
3419.7319 5.01207e-17
3421.7742 5.31295e-17
3423.8169 2.63612e-17
3425.8601 5.59076e-17
3427.9038 3.49352e-17
3429.948 5.60116e-17
3431.9924 5.72102e-17
3434.0374 2.60154e-17
3436.083 5.58728e-17
3438.1289 -3.54394e-17
3440.1753 2.96981e-19
3442.2219 3.7563e-17
3444.2693 2.53184e-18
3446.3169 3.86509e-17
3448.365 -1.47008e-17
3450.4138 2.77572e-18
3452.4626 -1.4803e-17
3454.5122 2.86541e-17
3456.562 5.68878e-17
3458.6125 5.62367e-17
3460.6633 7.28568e-17
3462.7146 5.37545e-17
3464.7664 5.73041e-18
3466.8184 5.98773e-17
3468.8711 -9.9207e-18
3470.9241 3.94839e-17
3472.9773 2.99561e-17
3475.0312 1.09185e-17
3477.0857 -1.48326e-18
3479.1404 4.46789e-18
3481.1956 2.79071e-17
3483.2512 3.16338e-17
3485.3074 1.9577e-18
3487.364 9.63257e-18
3489.4209 4.20248e-17
3491.4783 1.09551e-17
3493.5359 4.97022e-17
3495.5942 2.21486e-17
3497.6528 1.68244e-17
3499.7119 2.44912e-17
3501.7715 4.56467e-17
3503.8315 1.09901e-17
3505.8918 2.61964e-17
3507.9526 4.71942e-17
3510.0139 2.77929e-17
3512.0757 5.34526e-17
3514.1377 3.7543e-17
3516.2002 5.5022e-17
3518.2632 6.69796e-18
3520.3264 4.64284e-17
3522.3901 4.28323e-17
3524.4543 2.61776e-17
3526.519 6.79075e-17
3528.584 2.20647e-17
3530.6497 5.37745e-17
3532.7156 4.5967e-17
3534.7817 5.7627e-17
3536.8484 4.28734e-17
3538.9155 4.35795e-17
3540.9832 4.43199e-17
3543.051 2.67937e-17
3545.1194 7.54124e-18
3547.1882 6.90577e-17
3549.2576 8.84706e-18
3551.3271 5.50121e-18
3553.3972 5.08305e-17
3555.4678 5.91988e-17
3557.5386 3.52473e-17
3559.6099 2.04716e-17
3561.6814 4.45091e-17
3563.7537 6.50366e-17
3565.8262 3.42446e-17
3567.8989 5.17241e-18
3569.9724 2.49043e-17
3572.0459 3.26763e-17
3574.1201 3.75914e-17
3576.1946 4.09049e-17
3578.2695 5.366e-17
3580.345 5.06337e-17
3582.4207 2.32606e-17
3584.4968 8.85721e-18
3586.5732 2.25301e-17
3588.6504 3.33718e-17
3590.7275 3.85758e-17
3592.8054 2.73384e-17
3594.8835 2.40943e-17
3596.9619 1.16523e-17
3599.041 3.93628e-17
3601.1204 3.34213e-17
3603.2 4.36673e-17
3605.2803 6.87323e-18
3607.3606 3.07685e-17
3609.4417 2.1716e-17
3611.5229 3.56281e-18
3613.6045 4.26427e-17
3615.6868 1.04697e-17
3617.7693 4.70238e-17
3619.8521 3.61987e-17
3621.9353 4.82994e-17
3624.019 3.87063e-17
3626.103 3.58204e-17
3628.1875 3.56017e-17
3630.2722 2.55081e-17
3632.3574 2.17525e-17
3634.4431 4.16033e-17
3636.5291 3.80583e-17
3638.6152 2.41611e-17
3640.7021 1.22521e-17
3642.7893 5.03431e-17
3644.8767 2.44723e-17
3646.9646 3.38317e-17
3649.053 5.45046e-17
3651.1416 6.34545e-17
3653.2305 3.1344e-17
3655.3198 5.44559e-17
3657.4097 5.29965e-17
3659.5 1.02725e-17
3661.5903 1.15582e-17
3663.6814 6.34068e-17
3665.7727 4.64761e-17
3667.8643 3.81601e-17
3669.9563 3.42946e-17
3672.0486 4.95263e-17
3674.1416 7.09101e-17
3676.2346 5.20606e-17
3678.3281 1.43055e-17
3680.4221 4.80309e-17
3682.5164 3.43205e-17
3684.6111 3.65797e-17
3686.7061 9.44784e-18
3688.8013 4.96691e-17
3690.8972 5.57229e-17
3692.9932 2.06897e-17
3695.0896 3.70569e-17
3697.1865 2.51969e-17
3699.2837 3.78177e-17
3701.3811 2.84924e-17
3703.4792 1.93776e-17
3705.5774 1.89529e-17
3707.676 4.69886e-17
3709.7751 2.12969e-17
3711.8745 3.91518e-17
3713.9741 2.99491e-17
3716.0742 4.18679e-17
3718.1748 3.45635e-17
3720.2754 2.01313e-17
3722.3767 3.33055e-17
3724.4783 2.56795e-17
3726.5801 2.73154e-17
3728.6824 5.40147e-17
3730.7849 3.64619e-17
3732.8877 4.42203e-17
3734.9912 3.38767e-17
3737.0947 4.63293e-17
3739.1987 6.36858e-17
3741.303 2.47787e-17
3743.4077 9.94569e-18
3745.5127 4.95712e-17
3747.6182 3.36745e-17
3749.7239 4.74585e-17
3751.8301 4.90013e-17
3753.9363 2.30738e-17
3756.0432 3.19551e-17
3758.1504 3.79831e-17
3760.2578 2.38483e-17
3762.3655 1.78692e-17
3764.4736 6.24245e-17
3766.5823 3.83886e-17
3768.6909 -1.03493e-18
3770.8003 4.83196e-17
3772.9097 5.74069e-17
3775.0195 6.5904e-17
3777.1296 2.48947e-17
3779.2402 4.78491e-17
3781.3511 7.28758e-17
3783.4624 5.50762e-17
3785.574 5.90462e-17
3787.6858 2.92842e-17
3789.7979 5.23805e-17
3791.9104 4.74572e-17
3794.0234 2.84331e-17
3796.1367 3.11547e-17
3798.25 4.19091e-17
3800.364 4.59317e-17
3802.4783 4.79526e-17
3804.5928 1.44094e-17
3806.7075 3.01506e-17
3808.8228 4.41703e-17
3810.9382 4.7191e-17
3813.0542 3.96858e-17
3815.1704 5.12657e-17
3817.2869 5.33088e-17
3819.4036 5.2541e-17
3821.5208 3.44549e-17
3823.6382 3.99704e-17
3825.7561 4.27524e-17
3827.874 6.76837e-17
3829.9924 3.19172e-17
3832.1113 3.54933e-17
3834.2302 3.83384e-17
3836.3496 2.45639e-17
3838.4695 1.87425e-17
3840.5896 3.78434e-17
3842.7097 4.65206e-17
3844.8306 4.79472e-17
3846.9514 3.81452e-17
3849.0728 4.38106e-17
3851.1943 3.29404e-17
3853.3164 5.0183e-17
3855.4385 4.97453e-17
3857.561 4.62355e-17
3859.6838 3.85563e-17
3861.8071 3.78247e-17
3863.9307 4.4712e-17
3866.0542 5.79554e-17
3868.1785 5.47345e-17
3870.3027 5.38398e-17
3872.4275 4.95185e-17
3874.5525 6.41023e-17
3876.678 2.8695e-17
3878.8035 5.6843e-17
3880.9294 4.13707e-17
3883.0557 3.03524e-17
3885.1824 3.64729e-17
3887.3091 4.26919e-17
3889.4363 4.89677e-17
3891.5637 4.13239e-17
3893.6914 5.23583e-17
3895.8196 4.35085e-17
3897.948 5.19515e-17
3900.0764 5.46831e-17
3902.2056 5.83165e-17
3904.3347 3.61392e-17
3906.4644 3.52225e-17
3908.594 4.68093e-17
3910.7241 4.09042e-17
3912.8547 6.57045e-17
3914.9854 5.59276e-17
3917.1165 4.14502e-17
3919.2478 5.00375e-17
3921.3794 5.64749e-17
3923.5112 4.40109e-17
3925.6433 3.72255e-17
3927.7759 5.95776e-17
3929.9087 3.719e-17
3932.0415 3.80322e-17
3934.175 5.64108e-17
3936.3086 5.11073e-17
3938.4424 4.10892e-17
3940.5767 5.58397e-17
3942.7112 5.47524e-17
3944.8459 5.0787e-17
3946.981 5.87681e-17
3949.1162 3.9143e-17
3951.252 5.00614e-17
3953.3877 6.16457e-17
3955.5239 5.2702e-17
3957.6604 4.58541e-17
3959.7971 6.7548e-17
3961.9341 4.45552e-17
3964.0715 5.62969e-17
3966.209 6.22249e-17
3968.3469 5.78911e-17
3970.4851 4.97733e-17
3972.6233 5.19911e-17
3974.7622 5.57334e-17
3976.9011 2.66756e-17
3979.0403 5.18035e-17
3981.1797 6.11645e-17
3983.3196 6.31697e-17
3985.4597 7.4565e-17
3987.5999 3.78186e-17
3989.7405 5.43493e-17
3991.8813 3.79994e-17
3994.0225 4.79187e-17
3996.1638 5.72053e-17
3998.3054 5.65687e-17
4000.4475 6.72501e-17
4002.5896 5.29129e-17
4004.7319 5.32544e-17
4006.8748 5.74321e-17
4009.0176 4.20907e-17
4011.1609 4.63155e-17
4013.3044 5.947e-17
4015.4482 4.82262e-17
4017.5923 5.18001e-17
4019.7366 5.95742e-17
4021.8811 4.83367e-17
4024.0259 5.32094e-17
4026.1709 7.20841e-17
4028.3162 6.84095e-17
4030.4619 5.66288e-17
4032.6077 6.80803e-17
4034.7537 8.3318e-17
4036.9001 4.26715e-17
4039.0466 4.38891e-17
4041.1936 4.38319e-17
4043.3406 4.75548e-17
4045.488 7.99579e-17
4047.6355 3.0558e-17
4049.7834 4.12537e-17
4051.9316 4.77513e-17
4054.0798 6.97787e-17
4056.2285 5.43586e-17
4058.3774 4.74063e-17
4060.5266 4.85867e-17
4062.6758 5.13604e-17
4064.8254 5.85885e-17
4066.9753 3.57216e-17
4069.1255 3.53041e-17
4071.2756 7.16195e-17
4073.4263 6.03549e-17
4075.5771 7.20618e-17
4077.7283 6.93822e-17
4079.8794 5.40908e-17
4082.031 7.49638e-17
4084.1829 6.97249e-17
4086.335 8.22543e-17
4088.4871 5.92836e-17
4090.6396 5.52148e-17
4092.7925 3.50978e-17
4094.9453 3.52733e-17
4097.0986 5.31444e-17
4099.252 5.63273e-17
4101.4058 4.98735e-17
4103.5596 6.44366e-17
4105.7139 6.2432e-17
4107.8682 4.27431e-17
4110.0229 4.09417e-17
4112.1777 7.16067e-17
4114.333 3.79108e-17
4116.4883 4.36034e-17
4118.6436 5.28382e-17
4120.7993 6.68946e-17
4122.9556 3.65332e-17
4125.1118 4.88739e-17
4127.2681 3.88862e-17
4129.4248 5.93734e-17
4131.5815 6.27618e-17
4133.7388 6.51721e-17
4135.896 6.05803e-17
4138.0537 5.27952e-17
4140.2114 4.52978e-17
4142.3696 6.03236e-17
4144.5278 4.96062e-17
4146.6865 5.53595e-17
4148.8452 6.00361e-17
4151.0039 6.5569e-17
4153.1631 5.73955e-17
4155.3223 6.27354e-17
4157.4819 4.96287e-17
4159.6416 5.43169e-17
4161.8018 4.57441e-17
4163.9619 5.27132e-17
4166.1226 6.40284e-17
4168.2832 4.56473e-17
4170.4438 5.31191e-17
4172.605 5.00096e-17
4174.7661 7.57312e-17
4176.9277 6.17911e-17
4179.0894 4.85416e-17
4181.2515 5.45932e-17
4183.4136 6.7758e-17
4185.5757 9.44719e-17
4187.7383 9.78205e-17
4189.9014 1.32276e-16
4192.064 1.53379e-16
4194.2275 8.50029e-17
4196.3906 8.98012e-17
4198.5542 7.12851e-17
4200.7183 6.44797e-17
4202.8823 5.55299e-17
4205.0464 4.82981e-17
4207.2109 4.10277e-17
4209.3755 4.91662e-17
4211.54 5.86921e-17
4213.7051 5.89593e-17
4215.8706 4.60995e-17
4218.0356 6.54445e-17
4220.2012 5.30858e-17
4222.3672 3.77917e-17
4224.5332 4.25072e-17
4226.6992 5.9937e-17
4228.8657 4.76004e-17
4231.0322 4.85471e-17
4233.1992 5.58371e-17
4235.3662 5.24348e-17
4237.5332 5.21157e-17
4239.7007 5.18438e-17
4241.8682 6.22537e-17
4244.0361 4.89265e-17
4246.2041 8.92107e-17
4248.3721 6.32768e-17
4250.5405 5.34327e-17
4252.709 5.2141e-17
4254.8779 6.04803e-17
4257.0464 4.62131e-17
4259.2158 6.22977e-17
4261.3848 5.97334e-17
4263.5547 5.10931e-17
4265.7241 5.05193e-17
4267.894 4.00611e-17
4270.064 5.44682e-17
4272.2344 4.89584e-17
4274.4048 4.17345e-17
4276.5752 5.479e-17
4278.7461 7.4583e-17
4280.917 4.94118e-17
4283.0879 6.83193e-17
4285.2593 5.22603e-17
4287.4307 4.33566e-17
4289.6025 5.98978e-17
4291.7744 6.23432e-17
4293.9463 4.78506e-17
4296.1182 4.63267e-17
4298.2905 5.6869e-17
4300.4634 5.4598e-17
4302.6362 5.04292e-17
4304.8091 4.63343e-17
4306.9819 3.99116e-17
4309.1553 4.7456e-17
4311.3286 6.20353e-17
4313.5024 6.09096e-17
4315.6758 7.68942e-17
4317.8496 4.59146e-17
4320.0239 4.87646e-17
4322.1982 5.13164e-17
4324.3726 6.34635e-17
4326.5474 5.10852e-17
4328.7222 4.73858e-17
4330.897 4.84396e-17
4333.0723 5.31762e-17
4335.2471 6.00105e-17
4337.4229 6.7887e-17
4339.5986 6.54448e-17
4341.7739 4.11287e-17
4343.9502 6.45734e-17
4346.126 6.27896e-17
4348.3022 7.69445e-17
4350.479 7.16626e-17
4352.6553 6.81342e-17
4354.832 4.57948e-17
4357.0088 5.88466e-17
4359.186 5.20124e-17
4361.3633 6.83036e-17
4363.5405 5.05713e-17
4365.7183 4.87139e-17
4367.896 4.8416e-17
4370.0737 6.28353e-17
4372.252 6.46904e-17
4374.4297 7.75713e-17
4376.6084 4.4363e-17
4378.7866 6.26273e-17
4380.9653 6.54171e-17
4383.144 6.08909e-17
4385.3232 6.20011e-17
4387.502 7.17976e-17
4389.6812 5.07395e-17
4391.8608 4.24439e-17
4394.04 5.41489e-17
4396.2197 7.44743e-17
4398.3999 5.98977e-17
4400.5796 5.86132e-17
4402.7598 7.24157e-17
4404.9399 6.99459e-17
4407.1206 7.91844e-17
4409.3013 5.75916e-17
4411.4819 5.51026e-17
4413.6626 5.43894e-17
4415.8438 6.10355e-17
4418.0249 5.99702e-17
4420.2061 6.44481e-17
4422.3877 6.00776e-17
4424.5693 5.7505e-17
4426.751 6.61245e-17
4428.9326 7.78814e-17
4431.1147 6.28109e-17
4433.2969 6.82687e-17
4435.479 6.78257e-17
4437.6616 6.96904e-17
4439.8442 6.03674e-17
4442.0264 7.39583e-17
4444.2095 4.46183e-17
4446.3926 5.00403e-17
4448.5757 6.01331e-17
4450.7588 8.84445e-17
4452.9419 6.51613e-17
4455.1255 6.96623e-17
4457.3091 7.65966e-17
4459.4932 6.90318e-17
4461.6768 7.00132e-17
4463.8608 7.24005e-17
4466.0449 6.42528e-17
4468.2295 6.00329e-17
4470.4136 6.04313e-17
4472.5981 6.6368e-17
4474.7827 6.02433e-17
4476.9678 5.93404e-17
4479.1528 6.96159e-17
4481.3379 6.96353e-17
4483.5229 7.46543e-17
4485.708 6.26832e-17
4487.8936 6.16297e-17
4490.0791 5.9234e-17
4492.2646 6.58184e-17
4494.4507 5.5344e-17
4496.6367 7.25151e-17
4498.8228 5.39496e-17
4501.0088 5.48392e-17
4503.1948 4.67867e-17
4505.3813 6.60859e-17
4507.5679 5.17287e-17
4509.7544 5.53653e-17
4511.9414 5.65965e-17
4514.1284 7.69977e-17
4516.3154 6.79467e-17
4518.5024 7.51681e-17
4520.6895 8.82407e-17
4522.877 6.17232e-17
4525.0645 7.48937e-17
4527.252 7.55658e-17
4529.4399 5.91516e-17
4531.6274 7.14608e-17
4533.8154 6.16667e-17
4536.0034 5.36147e-17
4538.1919 4.98358e-17
4540.3799 5.0293e-17
4542.5684 5.76914e-17
4544.7568 7.427e-17
4546.9453 5.65387e-17
4549.1343 7.57854e-17
4551.3228 6.18482e-17
4553.5117 6.95407e-17
4555.7007 6.18226e-17
4557.8901 6.05361e-17
4560.0791 6.07167e-17
4562.2686 6.90431e-17
4564.458 6.61809e-17
4566.6475 6.19648e-17
4568.8374 6.36422e-17
4571.0273 6.79923e-17
4573.2168 5.60271e-17
4575.4067 6.71724e-17
4577.5972 5.81148e-17
4579.7871 6.27051e-17
4581.9775 6.84227e-17
4584.168 6.29107e-17
4586.3584 6.02955e-17
4588.5488 5.01615e-17
4590.7397 7.21746e-17
4592.9302 6.7035e-17
4595.1211 5.66793e-17
4597.3125 4.96157e-17
4599.5034 5.45175e-17
4601.6948 5.62324e-17
4603.8857 7.13837e-17
4606.0771 5.37681e-17
4608.2686 6.97527e-17
4610.46 7.59664e-17
4612.6519 6.46513e-17
4614.8438 6.56717e-17
4617.0356 5.4527e-17
4619.2275 4.44759e-17
4621.4194 4.7982e-17
4623.6118 4.99017e-17
4625.8037 5.26209e-17
4627.9961 6.25903e-17
4630.1885 4.7697e-17
4632.3809 5.85834e-17
4634.5737 4.99465e-17
4636.7661 5.3889e-17
4638.959 5.7452e-17
4641.1519 5.65897e-17
4643.3447 6.22211e-17
4645.5376 5.53189e-17
4647.731 4.97886e-17
4649.9238 4.30604e-17
4652.1172 3.39951e-17
4654.3105 5.61639e-17
4656.5039 6.40886e-17
4658.6978 5.76707e-17
4660.8911 5.03277e-17
4663.085 7.22068e-17
4665.2788 6.69845e-17
4667.4727 5.09147e-17
4669.6665 5.1217e-17
4671.8604 4.91252e-17
4674.0547 7.10393e-17
4676.249 5.34931e-17
4678.4429 5.9156e-17
4680.6372 5.34279e-17
4682.832 7.41688e-17
4685.0264 4.42123e-17
4687.2207 3.99511e-17
4689.4155 5.67288e-17
4691.6104 6.13329e-17
4693.8052 5.70741e-17
4696.0 5.21575e-17
4698.1948 5.07198e-17
4700.3896 4.79858e-17
4702.585 7.8607e-17
4704.7803 4.18942e-17
4706.9756 4.44611e-17
4709.1709 7.84964e-17
4711.3662 6.44081e-17
4713.5615 6.90831e-17
4715.7573 6.30184e-17
4717.9526 7.12597e-17
4720.1484 5.60762e-17
4722.3442 5.12282e-17
4724.54 5.37162e-17
4726.7358 4.65516e-17
4728.9316 6.29863e-17
4731.1279 6.13231e-17
4733.3237 5.48157e-17
4735.52 5.09929e-17
4737.7163 6.93031e-17
4739.9126 6.45398e-17
4742.1089 6.14204e-17
4744.3052 6.51039e-17
4746.502 5.30817e-17
4748.6982 6.64266e-17
4750.895 6.26464e-17
4753.0918 5.55466e-17
4755.2886 6.3462e-17
4757.4854 6.13617e-17
4759.6821 4.96423e-17
4761.8789 5.31628e-17
4764.0757 4.46818e-17
4766.2729 4.83826e-17
4768.4702 5.36589e-17
4770.6675 5.89335e-17
4772.8643 6.81779e-17
4775.062 6.05024e-17
4777.2593 5.86274e-17
4779.4565 5.58321e-17
4781.6538 5.84685e-17
4783.8516 6.69339e-17
4786.0493 7.11362e-17
4788.2466 5.59591e-17
4790.4443 5.81901e-17
4792.6421 6.74483e-17
4794.8398 6.14431e-17
4797.0376 4.74238e-17
4799.2358 6.59032e-17
4801.4336 6.5335e-17
4803.6318 6.00916e-17
4805.8296 5.95999e-17
4808.0278 4.84562e-17
4810.2261 6.06656e-17
4812.4243 7.6661e-17
4814.6226 7.34821e-17
4816.8208 5.28194e-17
4819.0195 5.78449e-17
4821.2178 6.59551e-17
4823.416 4.52096e-17
4825.6147 5.33954e-17
4827.8135 5.05382e-17
4830.0117 6.90657e-17
4832.2104 5.9166e-17
4834.4092 4.61204e-17
4836.6079 5.79985e-17
4838.8071 6.43567e-17
4841.0059 4.72023e-17
4843.2046 6.99947e-17
4845.4038 7.63929e-17
4847.6025 6.00482e-17
4849.8018 4.6615e-17
4852.0005 6.65842e-17
4854.1997 5.82854e-17
4856.3989 5.37199e-17
4858.5981 6.71379e-17
4860.7974 6.44085e-17
4862.9966 6.29345e-17
4865.1963 5.3653e-17
4867.3955 7.16022e-17
4869.5947 6.94099e-17
4871.7944 5.33955e-17
4873.9941 5.76722e-17
4876.1934 6.16989e-17
4878.3931 7.6868e-17
4880.5928 7.81504e-17
4882.7925 7.31494e-17
4884.9922 4.88993e-17
4887.1919 4.80845e-17
4889.3916 5.36524e-17
4891.5913 6.07403e-17
4893.791 4.75477e-17
4895.9912 5.24201e-17
4898.1909 5.18629e-17
4900.3911 5.32919e-17
4902.5908 5.82896e-17
4904.791 8.03836e-17
4906.9912 6.3499e-17
4909.1914 5.64864e-17
4911.3911 5.81478e-17
4913.5913 3.83108e-17
4915.7915 5.56828e-17
4917.9917 5.25994e-17
4920.1924 6.30584e-17
4922.3926 4.33623e-17
4924.5928 4.29059e-17
4926.793 4.01645e-17
4928.9937 4.37403e-17
4931.1938 6.95956e-17
4933.3945 4.05333e-17
4935.5952 5.6938e-17
4937.7954 5.04128e-17
4939.9961 4.41662e-17
4942.1968 6.16957e-17
4944.397 5.67126e-17
4946.5977 4.83172e-17
4948.7983 5.72447e-17
4950.999 5.63267e-17
4953.1997 4.96609e-17
4955.4004 5.92983e-17
4957.6016 7.39003e-17
4959.8022 5.16879e-17
4962.0029 6.0221e-17
4964.2036 5.74416e-17
4966.4048 5.77025e-17
4968.6055 6.32441e-17
4970.8066 5.28649e-17
4973.0073 6.59866e-17
4975.2085 5.68603e-17
4977.4092 5.20123e-17
4979.6104 3.73785e-17
4981.8115 4.5429e-17
4984.0122 6.11255e-17
4986.2134 5.37051e-17
4988.4146 5.51394e-17
4990.6157 7.03133e-17
4992.8169 4.92564e-17
4995.0181 5.7136e-17
4997.2192 5.93104e-17
4999.4204 4.8704e-17
5001.6216 5.18981e-17
5003.8228 5.5988e-17
5006.0239 5.80686e-17
5008.2256 5.55652e-17
5010.4268 5.83319e-17
5012.6279 5.45094e-17
5014.8296 5.12249e-17
5017.0308 4.94787e-17
5019.2319 4.89671e-17
5021.4336 3.95474e-17
5023.6348 5.89534e-17
5025.8364 4.67989e-17
5028.0376 5.09062e-17
5030.2393 5.72225e-17
5032.4404 5.80704e-17
5034.6421 5.623e-17
5036.8438 5.98282e-17
5039.0449 5.79523e-17
5041.2466 6.38382e-17
5043.4482 5.5168e-17
5045.6499 6.66777e-17
5047.8511 6.75085e-17
5050.0527 6.51874e-17
5052.2544 5.40094e-17
5054.4561 7.44533e-17
5056.6577 5.49446e-17
5058.8594 6.42659e-17
5061.061 5.29599e-17
5063.2627 5.10159e-17
5065.4644 7.13511e-17
5067.666 5.2498e-17
5069.8677 4.813e-17
5072.0693 6.11083e-17
5074.271 5.52846e-17
5076.4727 6.60853e-17
5078.6743 6.08784e-17
5080.876 6.18658e-17
5083.0781 6.05718e-17
5085.2798 6.3045e-17
5087.4814 7.13067e-17
5089.6831 6.44461e-17
5091.8848 5.54785e-17
5094.0869 5.83386e-17
5096.2886 5.29681e-17
5098.4902 5.70085e-17
5100.6919 7.76606e-17
5102.894 5.6055e-17
5105.0957 5.18365e-17
5107.2974 7.91184e-17
5109.4995 6.15683e-17
5111.7012 6.07215e-17
5113.9028 7.02296e-17
5116.105 6.66762e-17
5118.3066 5.83679e-17
5120.5088 6.30583e-17
5122.7104 6.37916e-17
5124.9121 6.92449e-17
5127.1143 5.91101e-17
5129.3159 5.86313e-17
5131.5181 5.89311e-17
5133.7197 7.33347e-17
5135.9219 4.86777e-17
5138.1235 7.80632e-17
5140.3252 7.37399e-17
5142.5273 7.12122e-17
5144.729 8.39984e-17
5146.9312 7.55554e-17
5149.1328 7.65763e-17
5151.335 6.52596e-17
5153.5366 7.03866e-17
5155.7388 6.76511e-17
5157.9404 6.77575e-17
5160.1426 7.5883e-17
5162.3442 7.28815e-17
5164.5464 7.30072e-17
5166.748 8.11425e-17
5168.9502 6.94899e-17
5171.1519 7.98705e-17
5173.354 6.95706e-17
5175.5557 8.57108e-17
5177.7573 8.23295e-17
5179.9595 6.84968e-17
5182.1611 6.78603e-17
5184.3633 8.43742e-17
5186.5649 7.98734e-17
5188.7671 7.86481e-17
5190.9688 6.69188e-17
5193.1709 7.56029e-17
5195.3726 6.40312e-17
5197.5742 8.53451e-17
5199.7764 6.22553e-17
5201.978 6.75488e-17
5204.1802 7.88475e-17
5206.3818 8.18197e-17
5208.5835 6.3577e-17
5210.7856 6.46502e-17
5212.9873 7.40538e-17
5215.189 6.4106e-17
5217.3911 8.23222e-17
5219.5928 7.65244e-17
5221.7949 7.02965e-17
5223.9966 7.12132e-17
5226.1982 7.99457e-17
5228.3999 6.9859e-17
5230.6021 7.09318e-17
5232.8037 6.88826e-17
5235.0054 7.65568e-17
5237.2075 8.22391e-17
5239.4092 7.41257e-17
5241.6108 8.39515e-17
5243.8125 6.18969e-17
5246.0142 6.90907e-17
5248.2163 6.50652e-17
5250.418 6.31752e-17
5252.6196 5.99235e-17
5254.8213 7.58958e-17
5257.0229 6.91292e-17
5259.2246 6.226e-17
5261.4263 7.78082e-17
5263.6279 6.21596e-17
5265.8296 5.8825e-17
5268.0312 5.86774e-17
5270.2329 7.14955e-17
5272.4346 6.00097e-17
5274.6362 7.51193e-17
5276.8379 5.38646e-17
5279.0396 6.76925e-17
5281.2412 5.94994e-17
5283.4429 6.02642e-17
5285.6445 5.65572e-17
5287.8462 4.35378e-17
5290.0479 6.68222e-17
5292.249 7.31597e-17
5294.4507 5.75178e-17
5296.6523 5.77915e-17
5298.854 6.53021e-17
5301.0552 6.40222e-17
5303.2568 5.17546e-17
5305.4585 6.49803e-17
5307.6597 5.43694e-17
5309.8613 6.31494e-17
5312.063 5.83463e-17
5314.2642 6.00123e-17
5316.4658 5.47399e-17
5318.667 5.76131e-17
5320.8687 6.95333e-17
5323.0703 5.90175e-17
5325.2715 6.06579e-17
5327.4727 5.79663e-17
5329.6743 5.88782e-17
5331.8755 5.95783e-17
5334.0771 5.93995e-17
5336.2783 5.20557e-17
5338.4795 5.58439e-17
5340.6812 7.08952e-17
5342.8823 6.56228e-17
5345.0835 6.60528e-17
5347.2847 5.50733e-17
5349.4863 5.91179e-17
5351.6875 5.73327e-17
5353.8887 5.00573e-17
5356.0898 7.03769e-17
5358.291 5.40545e-17
5360.4922 5.88673e-17
5362.6934 6.26894e-17
5364.8945 6.42311e-17
5367.0957 6.36881e-17
5369.2969 6.79847e-17
5371.498 4.72906e-17
5373.6992 5.73694e-17
5375.9004 6.25406e-17
5378.1016 5.07703e-17
5380.3027 4.91095e-17
5382.5034 4.31392e-17
5384.7046 4.57378e-17
5386.9058 5.12819e-17
5389.1069 6.53446e-17
5391.3076 6.33624e-17
5393.5088 6.0298e-17
5395.7095 6.05688e-17
5397.9106 3.9456e-17
5400.1118 5.07256e-17
5402.3125 5.39542e-17
5404.5137 4.25456e-17
5406.7144 6.54201e-17
5408.9155 5.67787e-17
5411.1162 5.73754e-17
5413.3169 4.98222e-17
5415.5181 6.37142e-17
5417.7188 4.9728e-17
5419.9194 6.12751e-17
5422.1206 4.13485e-17
5424.3213 5.24216e-17
5426.522 5.33053e-17
5428.7227 4.70944e-17
5430.9233 4.52614e-17
5433.1245 5.744e-17
5435.3252 6.62432e-17
5437.5259 6.86018e-17
5439.7266 6.11631e-17
5441.9272 5.62405e-17
5444.1279 6.62695e-17
5446.3286 7.32371e-17
5448.5288 5.65969e-17
5450.7295 5.45105e-17
5452.9302 6.76034e-17
5455.1309 4.88361e-17
5457.3315 6.53859e-17
5459.5322 7.5342e-17
5461.7324 8.85218e-17
5463.9331 1.20915e-16
5466.1338 1.13936e-16
5468.334 5.65527e-17
5470.5347 6.79887e-17
5472.7349 5.59855e-17
5474.9355 5.7735e-17
5477.1357 5.12579e-17
5479.3364 6.58069e-17
5481.5366 6.35918e-17
5483.7373 5.06976e-17
5485.9375 6.80168e-17
5488.1377 4.47946e-17
5490.3384 6.32751e-17
5492.5386 5.15925e-17
5494.7388 6.07169e-17
5496.939 6.56267e-17
5499.1396 5.63911e-17
5501.3398 4.95594e-17
5503.54 5.82873e-17
5505.7402 5.62788e-17
5507.9404 4.63362e-17
5510.1406 5.38153e-17
5512.3408 6.60065e-17
5514.541 4.46824e-17
5516.7412 6.64283e-17
5518.9414 5.03215e-17
5521.1416 5.29753e-17
5523.3418 6.28713e-17
5525.542 5.8841e-17
5527.7422 6.35446e-17
5529.9424 6.47326e-17
5532.1421 5.60326e-17
5534.3423 5.64804e-17
5536.5425 5.83642e-17
5538.7422 5.10687e-17
5540.9424 5.23648e-17
5543.1426 5.82293e-17
5545.3423 5.50863e-17
5547.5425 5.77542e-17
5549.7422 5.99682e-17
5551.9424 4.07531e-17
5554.1421 4.9154e-17
5556.3423 6.12993e-17
5558.542 5.79992e-17
5560.7422 4.2899e-17
5562.9419 5.55202e-17
5565.1421 5.90953e-17
5567.3418 5.78633e-17
5569.5415 8.78943e-17
5571.7417 1.47744e-16
5573.9414 1.82886e-16
5576.1411 1.41272e-16
5578.3408 6.93009e-17
5580.5405 5.46157e-17
5582.7407 5.44987e-17
5584.9404 5.75303e-17
5587.1401 5.98648e-17
5589.3398 5.92229e-17
5591.5396 4.92045e-17
5593.7393 4.36262e-17
5595.939 5.65967e-17
5598.1387 5.54766e-17
5600.3384 5.91676e-17
5602.5381 4.00779e-17
5604.7378 7.16327e-17
5606.9375 5.21968e-17
5609.1372 6.3959e-17
5611.3369 6.42442e-17
5613.5361 4.88783e-17
5615.7358 5.89472e-17
5617.9355 5.59138e-17
5620.1353 4.6196e-17
5622.335 8.91954e-17
5624.5342 2.15019e-16
5626.7339 3.75465e-16
5628.9336 3.86174e-16
5631.1328 1.77093e-16
5633.3325 6.64735e-17
5635.5322 4.36197e-17
5637.7319 5.9785e-17
5639.9312 4.02389e-17
5642.1309 5.25418e-17
5644.3301 5.62682e-17
5646.5298 5.05715e-17
5648.729 4.63072e-17
5650.9287 4.46874e-17
5653.1279 5.89631e-17
5655.3276 4.09463e-17
5657.5273 4.74344e-17
5658.2158 6.72333e-17
5659.3638 5.06634e-17
5660.5112 6.55601e-17
5661.6592 6.15416e-17
5662.8071 4.35911e-17
5663.9546 5.82109e-17
5665.1025 6.3922e-17
5666.2505 5.79338e-17
5667.3984 4.96813e-17
5668.5464 5.79511e-17
5669.6943 4.99753e-17
5670.8423 4.29319e-17
5671.9902 6.45035e-17
5673.1382 4.83041e-17
5674.2866 4.80441e-17
5675.4346 5.81129e-17
5676.5825 4.776e-17
5677.731 5.86147e-17
5678.8789 4.95386e-17
5680.0273 4.44575e-17
5681.1753 4.06758e-17
5682.3237 4.36394e-17
5683.4717 4.83286e-17
5684.6201 5.12555e-17
5685.7686 3.28467e-17
5686.9165 4.94793e-17
5688.0649 5.36668e-17
5689.2134 3.66021e-17
5690.3618 4.47759e-17
5691.5103 4.92732e-17
5692.6587 5.06316e-17
5693.8071 4.16735e-17
5694.9556 4.8017e-17
5696.104 6.01047e-17
5697.2529 4.96445e-17
5698.4014 5.35941e-17
5699.5498 5.0898e-17
5700.6987 5.89602e-17
5701.8472 4.87555e-17
5702.9961 3.78492e-17
5704.1445 4.53752e-17
5705.2935 5.27781e-17
5706.4424 4.58902e-17
5707.5908 4.68071e-17
5708.7397 2.32344e-17
5709.8887 6.66198e-17
5711.0376 7.62348e-17
5712.1865 5.3864e-17
5713.3354 4.89706e-17
5714.4844 5.03453e-17
5715.6333 3.78208e-17
5716.7822 4.26776e-17
5717.9312 4.63314e-17
5719.0801 5.32292e-17
5720.2295 4.89041e-17
5721.3784 4.43918e-17
5722.5278 4.03192e-17
5723.6768 4.53152e-17
5724.8262 3.90362e-17
5725.9751 5.32074e-17
5727.1245 4.32008e-17
5728.2739 4.77753e-17
5729.4229 5.38846e-17
5730.5723 5.37639e-17
5731.7217 4.95205e-17
5732.8711 5.86555e-17
5734.0205 5.77338e-17
5735.1699 6.27511e-17
5736.3193 6.14521e-17
5737.4688 4.98052e-17
5738.6182 5.88505e-17
5739.7681 4.6746e-17
5740.9175 7.01483e-17
5742.0669 4.92938e-17
5743.2168 4.84505e-17
5744.3662 5.35352e-17
5745.5161 5.80226e-17
5746.6655 5.37181e-17
5747.8154 3.68781e-17
5748.9653 5.98785e-17
5750.1152 3.80091e-17
5751.2651 6.28126e-17
5752.4146 6.58967e-17
5753.5645 4.43339e-17
5754.7144 5.53324e-17
5755.8643 6.54153e-17
5757.0142 4.87014e-17
5758.1646 5.47633e-17
5759.3145 6.28579e-17
5760.4644 5.59509e-17
5761.6143 5.27573e-17
5762.7646 5.31939e-17
5763.915 4.58566e-17
5765.0649 3.86041e-17
5766.2153 4.45431e-17
5767.3652 4.75097e-17
5768.5156 5.18961e-17
5769.666 5.27155e-17
5770.8164 6.50485e-17
5771.9663 4.43757e-17
5773.1167 4.48163e-17
5774.2671 5.76808e-17
5775.4175 5.63153e-17
5776.5679 4.887e-17
5777.7188 5.54909e-17
5778.8691 4.75221e-17
5780.0195 6.03535e-17
5781.1704 4.63675e-17
5782.3208 5.45911e-17
5783.4712 5.57462e-17
5784.6221 6.33168e-17
5785.7729 6.02514e-17
5786.9233 4.68688e-17
5788.0742 4.90271e-17
5789.2251 5.90251e-17
5790.376 5.87216e-17
5791.5264 6.20033e-17
5792.6777 5.13354e-17
5793.8286 5.18449e-17
5794.9795 5.70793e-17
5796.1304 5.48476e-17
5797.2812 4.94401e-17
5798.4321 6.07658e-17
5799.5835 4.64026e-17
5800.7344 4.6613e-17
5801.8857 5.40387e-17
5803.0366 5.3246e-17
5804.188 4.15292e-17
5805.3389 4.6205e-17
5806.4902 5.39291e-17
5807.6416 5.90658e-17
5808.7925 6.16115e-17
5809.9438 3.88352e-17
5811.0952 4.02005e-17
5812.2466 5.05009e-17
5813.3979 6.71397e-17
5814.5498 4.33992e-17
5815.7012 4.90491e-17
5816.8525 6.16517e-17
5818.0039 5.64065e-17
5819.1558 5.24075e-17
5820.3071 6.53673e-17
5821.459 4.94577e-17
5822.6104 5.93348e-17
5823.7622 5.4618e-17
5824.9136 5.48619e-17
5826.0654 4.69568e-17
5827.2173 7.10313e-17
5828.3691 5.37887e-17
5829.521 4.73661e-17
5830.6729 4.77786e-17
5831.8247 5.55823e-17
5832.9766 5.51056e-17
5834.1284 4.80585e-17
5835.2808 6.713e-17
5836.4326 5.17914e-17
5837.5845 5.50363e-17
5838.7368 5.27261e-17
5839.8887 5.86907e-17
5841.041 5.18117e-17
5842.1934 5.75387e-17
5843.3452 4.39963e-17
5844.4976 6.00056e-17
5845.6499 5.87243e-17
5846.8022 5.91328e-17
5847.9546 5.82992e-17
5849.1069 5.30829e-17
5850.2593 6.16403e-17
5851.4116 6.33816e-17
5852.564 5.49156e-17
5853.7168 5.58435e-17
5854.8691 5.05037e-17
5856.0215 5.03828e-17
5857.1743 7.62672e-17
5858.3267 5.71956e-17
5859.4795 5.85916e-17
5860.6323 6.26409e-17
5861.7852 6.28205e-17
5862.9375 5.32497e-17
5864.0903 6.55787e-17
5865.2432 5.85923e-17
5866.396 6.9428e-17
5867.5488 4.97965e-17
5868.7017 6.52941e-17
5869.855 6.70439e-17
5871.0078 6.46562e-17
5872.1606 6.84776e-17
5873.314 5.98626e-17
5874.4668 6.27371e-17
5875.6201 5.50987e-17
5876.7729 7.57069e-17
5877.9263 5.79579e-17
5879.0796 5.22398e-17
5880.2329 6.85243e-17
5881.3862 6.75832e-17
5882.5391 5.68984e-17
5883.6924 6.53141e-17
5884.8457 5.47029e-17
5885.9995 7.01071e-17
5887.1528 6.74957e-17
5888.3062 5.30595e-17
5889.4595 4.90585e-17
5890.6133 7.9607e-17
5891.7666 5.65153e-17
5892.9204 4.90096e-17
5894.0742 6.89418e-17
5895.2275 4.82428e-17
5896.3813 5.95731e-17
5897.5352 5.4345e-17
5898.689 5.25802e-17
5899.8423 5.95449e-17
5900.9961 7.26666e-17
5902.1504 6.02213e-17
5903.3042 5.87937e-17
5904.458 5.65096e-17
5905.6118 5.16858e-17
5906.7661 7.19455e-17
5907.9199 6.31336e-17
5909.0742 6.15586e-17
5910.228 5.57516e-17
5911.3823 7.33173e-17
5912.5361 5.8834e-17
5913.6904 5.15994e-17
5914.8447 7.13634e-17
5915.999 5.89979e-17
5917.1533 7.51577e-17
5918.3076 5.08485e-17
5919.4619 4.24994e-17
5920.6162 6.29039e-17
5921.7705 5.81736e-17
5922.9253 7.7607e-17
5924.0796 5.66156e-17
5925.2339 5.84091e-17
5926.3887 6.99133e-17
5927.543 5.20534e-17
5928.6978 6.46197e-17
5929.8525 6.23911e-17
5931.0073 5.83915e-17
5932.1616 6.11078e-17
5933.3164 5.73858e-17
5934.4712 7.11809e-17
5935.626 7.41005e-17
5936.7808 6.35353e-17
5937.936 6.96764e-17
5939.0908 5.89482e-17
5940.2456 6.13225e-17
5941.4009 7.48521e-17
5942.5557 6.5355e-17
5943.7109 6.80874e-17
5944.8657 5.54721e-17
5946.021 7.09869e-17
5947.1763 5.68796e-17
5948.3315 6.41663e-17
5949.4868 7.2356e-17
5950.6416 6.22427e-17
5951.7969 6.09801e-17
5952.9526 6.47003e-17
5954.1079 6.39023e-17
5955.2632 6.49605e-17
5956.4185 6.07203e-17
5957.5742 6.84661e-17
5958.7295 6.47634e-17
5959.8848 5.95281e-17
5961.0405 7.42451e-17
5962.1963 4.78013e-17
5963.3516 5.37929e-17
5964.5073 7.25547e-17
5965.6631 6.2723e-17
5966.8188 7.53213e-17
5967.9746 6.46622e-17
5969.1304 7.35227e-17
5970.2861 6.1683e-17
5971.4424 5.98694e-17
5972.5981 5.22296e-17
5973.7539 7.40088e-17
5974.9102 5.50811e-17
5976.0659 7.68511e-17
5977.2222 5.7763e-17
5978.3779 6.71089e-17
5979.5342 6.05169e-17
5980.6904 6.559e-17
5981.8467 5.74546e-17
5983.0029 7.14896e-17
5984.1592 5.15096e-17
5985.3154 6.32896e-17
5986.4717 4.95731e-17
5987.6279 6.96672e-17
5988.7842 6.01155e-17
5989.9409 5.55695e-17
5991.0972 5.96993e-17
5992.2539 5.64571e-17
5993.4102 6.38966e-17
5994.5669 6.05261e-17
5995.7231 6.22672e-17
5996.8799 6.15862e-17
5998.0366 5.22327e-17
5999.1934 7.40297e-17
6000.3501 5.79488e-17
6001.5068 5.91887e-17
6002.6636 6.20089e-17
6003.8203 7.03569e-17
6004.9775 6.4282e-17
6006.1343 6.18446e-17
6007.291 7.43507e-17
6008.4482 7.33368e-17
6009.605 6.40484e-17
6010.7622 6.11691e-17
6011.9194 6.23539e-17
6013.0762 5.62643e-17
6014.2334 6.16602e-17
6015.3906 7.15165e-17
6016.5479 6.28006e-17
6017.7051 6.06383e-17
6018.8623 6.95036e-17
6020.02 5.58804e-17
6021.1772 5.95859e-17
6022.3345 6.64068e-17
6023.4922 5.81288e-17
6024.6494 7.37687e-17
6025.8071 6.72333e-17
6026.9644 6.61477e-17
6028.1221 7.29242e-17
6029.2798 6.45799e-17
6030.4375 6.71172e-17
6031.5952 6.25574e-17
6032.7529 7.71296e-17
6033.9102 6.71031e-17
6035.0684 5.07071e-17
6036.2261 6.33912e-17
6037.3838 6.24115e-17
6038.542 6.30258e-17
6039.6997 6.05896e-17
6040.8574 7.26915e-17
6042.0156 6.15055e-17
6043.1738 6.34716e-17
6044.3315 5.43539e-17
6045.4897 7.03723e-17
6046.6479 6.45004e-17
6047.8062 5.49911e-17
6048.9644 5.19163e-17
6050.1226 7.02326e-17
6051.2808 6.46728e-17
6052.439 6.52876e-17
6053.5977 5.56529e-17
6054.7559 5.92765e-17
6055.9141 5.93834e-17
6057.0728 4.54459e-17
6058.231 5.34662e-17
6059.3896 5.78418e-17
6060.5483 6.89504e-17
6061.707 6.5167e-17
6062.8657 5.38436e-17
6064.0244 5.95036e-17
6065.1831 5.57458e-17
6066.3418 6.54246e-17
6067.5005 5.77856e-17
6068.6592 6.85606e-17
6069.8179 6.99379e-17
6070.9771 6.83465e-17
6072.1357 5.1831e-17
6073.2949 6.61761e-17
6074.4536 6.69895e-17
6075.6128 6.53397e-17
6076.772 5.91558e-17
6077.9312 6.20823e-17
6079.0903 6.25938e-17
6080.2495 5.38828e-17
6081.4087 5.0514e-17
6082.5679 6.52133e-17
6083.7271 6.52816e-17
6084.8862 4.92474e-17
6086.0454 6.79577e-17
6087.2051 5.62018e-17
6088.3643 5.75162e-17
6089.5239 6.6292e-17
6090.6836 7.21669e-17
6091.8428 5.33728e-17
6093.0024 6.09761e-17
6094.1621 5.67244e-17
6095.3218 7.77673e-17
6096.4814 7.19571e-17
6097.6411 7.28847e-17
6098.8008 7.85246e-17
6099.9604 7.23188e-17
6101.1201 6.65764e-17
6102.2803 5.86214e-17
6103.4399 5.95039e-17
6104.6001 6.88532e-17
6105.7598 6.14602e-17
6106.9199 5.53326e-17
6108.0801 6.39222e-17
6109.2402 6.87699e-17
6110.3999 6.22224e-17
6111.5601 5.69147e-17
6112.7202 6.88542e-17
6113.8804 6.14754e-17
6115.041 6.49413e-17
6116.2012 6.90586e-17
6117.3613 6.75226e-17
6118.5215 5.73832e-17
6119.6821 6.65061e-17
6120.8423 6.73506e-17
6122.0029 5.6601e-17
6123.1636 6.793e-17
6124.3242 6.12679e-17
6125.4844 7.14127e-17
6126.645 7.04438e-17
6127.8057 5.39245e-17
6128.9663 6.12486e-17
6130.1274 6.70116e-17
6131.2881 7.23946e-17
6132.4487 5.86934e-17
6133.6094 6.7301e-17
6134.7705 5.45801e-17
6135.9312 6.65528e-17
6137.0923 7.65281e-17
6138.2529 6.24086e-17
6139.4141 5.091e-17
6140.5752 6.56782e-17
6141.7363 5.37563e-17
6142.8975 7.20068e-17
6144.0586 6.72018e-17
6145.2197 6.11563e-17
6146.3809 6.14169e-17
6147.542 6.4192e-17
6148.7036 6.08307e-17
6149.8647 6.13664e-17
6151.0259 7.16313e-17
6152.1875 5.206e-17
6153.3491 6.77453e-17
6154.5103 7.03556e-17
6155.6719 5.51524e-17
6156.8335 6.5571e-17
6157.9951 7.57853e-17
6159.1567 6.66686e-17
6160.3184 7.01565e-17
6161.48 6.50855e-17
6162.6416 6.36459e-17
6163.8032 7.3872e-17
6164.9653 7.03855e-17
6166.127 6.83426e-17
6167.2886 5.97548e-17
6168.4507 6.01271e-17
6169.6128 6.11985e-17
6170.7744 5.37128e-17
6171.9365 5.4888e-17
6173.0986 5.9178e-17
6174.2607 5.63438e-17
6175.4229 6.32564e-17
6176.585 6.10833e-17
6177.7471 5.73775e-17
6178.9092 6.35198e-17
6180.0718 6.3738e-17
6181.2339 6.67695e-17
6182.396 5.2996e-17
6183.5586 5.41501e-17
6184.7212 6.71064e-17
6185.8833 5.78148e-17
6187.0459 7.68666e-17
6188.2085 6.56515e-17
6189.3711 5.55975e-17
6190.5337 7.60567e-17
6191.6963 6.11936e-17
6192.8589 5.8403e-17
6194.0215 6.31383e-17
6195.1841 5.37494e-17
6196.3472 5.57724e-17
6197.5098 6.53708e-17
6198.6729 5.8724e-17
6199.8354 5.6108e-17
6200.9985 5.79447e-17
6202.1616 6.50235e-17
6203.3242 6.4671e-17
6204.4873 6.82927e-17
6205.6504 6.81864e-17
6206.8135 7.54983e-17
6207.9766 5.96372e-17
6209.1396 6.74458e-17
6210.3032 5.00669e-17
6211.4663 6.32452e-17
6212.6294 6.59214e-17
6213.793 6.67605e-17
6214.9561 6.63794e-17
6216.1196 6.52849e-17
6217.2827 6.99583e-17
6218.4463 5.40497e-17
6219.6099 6.30834e-17
6220.7734 6.14751e-17
6221.937 6.50785e-17
6223.1006 5.99153e-17
6224.2642 5.76401e-17
6225.4277 6.57156e-17
6226.5918 5.64455e-17
6227.7554 5.81862e-17
6228.9189 6.63914e-17
6230.083 6.35606e-17
6231.2466 6.61437e-17
6232.4106 4.97289e-17
6233.5747 5.42792e-17
6234.7383 5.40359e-17
6235.9023 7.24955e-17
6237.0664 6.83697e-17
6238.2305 5.0056e-17
6239.3945 5.43171e-17
6240.5586 6.04235e-17
6241.7231 6.10469e-17
6242.8872 5.97301e-17
6244.0513 5.71317e-17
6245.2158 6.82505e-17
6246.3799 6.45427e-17
6247.5444 6.91424e-17
6248.709 6.44632e-17
6249.873 5.28021e-17
6251.0376 7.73924e-17
6252.2021 7.01274e-17
6253.3667 6.00728e-17
6254.5312 5.60947e-17
6255.6958 6.49683e-17
6256.8604 4.59532e-17
6258.0254 6.69787e-17
6259.1899 5.55533e-17
6260.3545 5.60936e-17
6261.5195 4.71058e-17
6262.6841 6.66176e-17
6263.8491 6.55704e-17
6265.0142 5.78092e-17
6266.1792 5.59492e-17
6267.3438 6.21248e-17
6268.5088 6.88198e-17
6269.6738 6.23624e-17
6270.8389 4.43509e-17
6272.0044 5.17443e-17
6273.1694 5.61661e-17
6274.3345 5.72426e-17
6275.4995 6.62172e-17
6276.665 4.99462e-17
6277.8301 5.36176e-17
6278.9956 6.09572e-17
6280.1611 5.14181e-17
6281.3262 5.30699e-17
6282.4917 6.43674e-17
6283.6572 5.37023e-17
6284.8228 5.73863e-17
6285.9883 5.59766e-17
6287.1538 5.7435e-17
6288.3193 5.14777e-17
6289.4854 6.63091e-17
6290.6509 5.68623e-17
6291.8164 5.88098e-17
6292.9824 5.44275e-17
6294.1479 5.43462e-17
6295.314 7.0191e-17
6296.48 5.94736e-17
6297.646 5.44629e-17
6298.8115 6.34542e-17
6299.9775 6.8077e-17
6301.1436 7.69324e-17
6302.3096 3.82865e-17
6303.4756 6.50975e-17
6304.6421 8.38535e-17
6305.8081 5.73269e-17
6306.9741 4.58053e-17
6308.1406 7.1262e-17
6309.3066 5.72684e-17
6310.4731 6.11621e-17
6311.6392 6.60628e-17
6312.8057 6.1165e-17
6313.9722 6.27128e-17
6315.1387 5.67637e-17
6316.3052 5.37322e-17
6317.4717 5.64866e-17
6318.6382 5.55932e-17
6319.8047 5.22596e-17
6320.9712 4.67394e-17
6322.1382 6.2524e-17
6323.3047 5.59502e-17
6324.4717 6.72183e-17
6325.6382 6.79278e-17
6326.8052 4.86049e-17
6327.9717 5.11824e-17
6329.1387 7.14027e-17
6330.3057 6.69575e-17
6331.4727 4.23954e-17
6332.6396 6.39675e-17
6333.8066 5.31506e-17
6334.9736 5.95003e-17
6336.1406 5.42588e-17
6337.3081 6.86521e-17
6338.4751 5.0535e-17
6339.6421 4.86319e-17
6340.8096 5.08358e-17
6341.9766 4.67236e-17
6343.144 4.47747e-17
6344.3115 5.62696e-17
6345.4785 5.49913e-17
6346.646 5.94395e-17
6347.8135 5.42568e-17
6348.981 6.03189e-17
6350.1484 5.91776e-17
6351.3159 5.20584e-17
6352.4839 6.13588e-17
6353.6514 5.23106e-17
6354.8188 4.89885e-17
6355.9868 5.44091e-17
6357.1543 6.17316e-17
6358.3223 5.24352e-17
6359.4902 6.34717e-17
6360.6577 6.56794e-17
6361.8257 6.58645e-17
6362.9937 5.59299e-17
6364.1616 4.60961e-17
6365.3296 4.81297e-17
6366.4976 5.54395e-17
6367.6655 5.12977e-17
6368.8335 5.31451e-17
6370.002 4.40327e-17
6371.1699 5.70357e-17
6372.3384 5.06684e-17
6373.5063 4.73071e-17
6374.6748 5.23362e-17
6375.8428 6.43315e-17
6377.0112 5.91966e-17
6378.1797 4.88558e-17
6379.3481 5.17575e-17
6380.5166 5.647e-17
6381.6851 5.36601e-17
6382.8535 5.42888e-17
6384.022 5.16597e-17
6385.1909 5.12388e-17
6386.3594 4.28131e-17
6387.5278 5.19668e-17
6388.6968 5.00344e-17
6389.8652 5.72207e-17
6391.0342 4.77484e-17
6392.2031 5.52216e-17
6393.3716 5.04711e-17
6394.5405 5.07793e-17
6395.7095 5.27123e-17
6396.8784 4.9831e-17
6398.0474 5.00732e-17
6399.2163 5.4347e-17
6400.3857 5.20011e-17
6401.5547 5.17723e-17
6402.7236 4.88986e-17
6403.8926 5.15238e-17
6405.062 4.99488e-17
6406.231 4.80048e-17
6407.4004 5.12605e-17
6408.5698 5.53787e-17
6409.7393 4.72728e-17
6410.9087 4.97368e-17
6412.0781 4.48242e-17
6413.2471 5.11622e-17
6414.4165 4.97644e-17
6415.5864 4.61894e-17
6416.7559 5.25964e-17
6417.9253 5.00025e-17
6419.0952 5.05043e-17
6420.2646 4.40395e-17
6421.4341 4.99904e-17
6422.604 5.28644e-17
6423.7739 4.8837e-17
6424.9434 4.6263e-17
6426.1133 3.96882e-17
6427.2832 4.36416e-17
6428.4531 3.71576e-17
6429.623 6.91398e-17
6430.793 4.23522e-17
6431.9629 4.34443e-17
6433.1328 4.92503e-17
6434.3032 4.40228e-17
6435.4731 4.65514e-17
6436.6431 5.29237e-17
6437.8135 4.64421e-17
6438.9839 4.88613e-17
6440.1538 4.37711e-17
6441.3242 4.08081e-17
6442.4946 5.31068e-17
6443.665 4.37626e-17
6444.835 5.04476e-17
6446.0054 4.7362e-17
6447.1763 5.53729e-17
6448.3467 4.68032e-17
6449.5171 5.26511e-17
6450.6875 4.8271e-17
6451.8584 5.55957e-17
6453.0288 4.28579e-17
6454.1997 5.20616e-17
6455.3701 5.27877e-17
6456.541 4.73732e-17
6457.7119 4.90025e-17
6458.8823 4.62162e-17
6460.0532 4.99544e-17
6461.2241 4.77374e-17
6462.395 5.24702e-17
6463.5659 4.71201e-17
6464.7368 5.23006e-17
6465.9082 6.40845e-17
6467.0791 6.54293e-17
6468.25 5.3365e-17
6469.4214 4.88642e-17
6470.5923 3.49989e-17
6471.7637 3.99596e-17
6472.9346 4.53821e-17
6474.106 5.03197e-17
6475.2773 4.4834e-17
6476.4487 4.83952e-17
6477.6201 5.07485e-17
6478.7915 5.04194e-17
6479.9629 5.2662e-17
6481.1343 5.33581e-17
6482.3057 4.45849e-17
6483.4771 6.15033e-17
6484.6489 4.51454e-17
6485.8203 5.78278e-17
6486.9922 3.14006e-17
6488.1636 4.75023e-17
6489.3354 5.4962e-17
6490.5073 6.6086e-17
6491.6787 6.40804e-17
6492.8506 4.64797e-17
6494.0225 5.28562e-17
6495.1943 5.00944e-17
6496.3662 5.82151e-17
6497.5381 4.74605e-17
6498.71 5.21836e-17
6499.8823 6.52106e-17
6501.0542 5.29496e-17
6502.2261 4.31636e-17
6503.3984 4.77452e-17
6504.5703 4.916e-17
6505.7427 4.76081e-17
6506.915 4.64473e-17
6508.0869 3.76185e-17
6509.2593 5.54649e-17
6510.4316 4.72628e-17
6511.604 5.24309e-17
6512.7764 5.15831e-17
6513.9487 4.76664e-17
6515.1211 4.83839e-17
6516.2939 4.35058e-17
6517.4663 5.07524e-17
6518.6387 5.06347e-17
6519.8115 5.94932e-17
6520.9839 3.8922e-17
6522.1567 4.99545e-17
6523.3296 5.209e-17
6524.5024 5.35192e-17
6525.6748 5.20671e-17
6526.8477 4.73448e-17
6528.0205 4.03417e-17
6529.1934 4.36443e-17
6530.3662 6.08287e-17
6531.5391 5.48387e-17
6532.7124 4.00132e-17
6533.8853 4.79903e-17
6535.0581 5.99984e-17
6536.2314 5.27264e-17
6537.4043 4.61206e-17
6538.5776 5.35584e-17
6539.7505 5.35071e-17
6540.9238 5.44688e-17
6542.0972 4.83332e-17
6543.2705 4.41022e-17
6544.4438 4.16563e-17
6545.6172 4.47294e-17
6546.7905 6.37094e-17
6547.9639 4.9399e-17
6549.1372 5.27725e-17
6550.3105 5.49555e-17
6551.4844 5.20316e-17
6552.6577 3.59296e-17
6553.8315 4.59458e-17
6555.0049 4.33881e-17
6556.1787 4.94573e-17
6557.3521 4.97733e-17
6558.5259 4.48588e-17
6559.6997 5.17633e-17
6560.8735 4.81867e-17
6562.0474 5.44134e-17
6563.2212 5.30079e-17
6564.395 4.2656e-17
6565.5688 5.1906e-17
6566.7427 4.80509e-17
6567.9165 5.4135e-17
6569.0908 4.69035e-17
6570.2646 6.29651e-17
6571.439 6.35195e-17
6572.6128 3.49391e-17
6573.7871 4.86084e-17
6574.9614 5.8509e-17
6576.1357 3.98956e-17
6577.3096 3.41614e-17
6578.4839 3.28893e-17
6579.6582 5.88167e-17
6580.8325 5.50995e-17
6582.0068 4.73253e-17
6583.1816 4.48626e-17
6584.356 4.36938e-17
6585.5303 4.35308e-17
6586.7051 4.8363e-17
6587.8794 5.98654e-17
6589.0542 4.96455e-17
6590.2285 5.05478e-17
6591.4033 5.31287e-17
6592.5781 5.72716e-17
6593.7524 5.43995e-17
6594.9272 4.66968e-17
6596.1021 3.99669e-17
6597.2769 6.01633e-17
6598.4517 5.60497e-17
6599.6265 6.11005e-17
6600.8013 5.92342e-17
6601.9766 6.28389e-17
6603.1514 4.87663e-17
6604.3267 6.34484e-17
6605.5015 5.32336e-17
6606.6768 4.26212e-17
6607.8516 4.45698e-17
6609.0269 6.22336e-17
6610.2021 5.97877e-17
6611.3774 4.79116e-17
6612.5522 5.16e-17
6613.7275 4.86372e-17
6614.9028 6.2429e-17
6616.0781 5.18086e-17
6617.2539 5.6587e-17
6618.4292 3.98952e-17
6619.6045 4.8709e-17
6620.7798 5.11728e-17
6621.9556 4.77616e-17
6623.1309 6.02462e-17
6624.3066 6.28528e-17
6625.4824 4.59071e-17
6626.6577 4.65856e-17
6627.8335 5.31283e-17
6629.0093 3.55888e-17
6630.1851 4.21076e-17
6631.3608 4.24212e-17
6632.5366 4.40576e-17
6633.7124 3.45518e-17
6634.8882 4.88374e-17
6636.064 5.12323e-17
6637.2402 5.61056e-17
6638.416 5.80578e-17
6639.5918 5.36124e-17
6640.7681 5.24035e-17
6641.9438 4.5834e-17
6643.1201 4.80104e-17
6644.2964 4.8938e-17
6645.4722 4.89315e-17
6646.6484 3.95375e-17
6647.8247 5.69124e-17
6649.001 5.03164e-17
6650.1772 5.12825e-17
6651.3535 5.03518e-17
6652.5298 4.20712e-17
6653.7065 4.80214e-17
6654.8828 4.51776e-17
6656.0591 4.30331e-17
6657.2358 3.68235e-17
6658.4121 2.78842e-17
6659.5889 5.09404e-17
6660.7651 4.44105e-17
6661.9419 4.23934e-17
6663.1187 4.43237e-17
6664.2954 5.41635e-17
6665.4717 3.80703e-17
6666.6484 4.23774e-17
6667.8252 5.34913e-17
6669.0024 4.29802e-17
6670.1792 5.47026e-17
6671.356 4.81248e-17
6672.5327 3.90651e-17
6673.7095 5.09588e-17
6674.8867 5.59912e-17
6676.0635 4.29301e-17
6677.2407 3.9412e-17
6678.4175 4.52239e-17
6679.5947 5.60053e-17
6680.772 4.51386e-17
6681.9492 5.00891e-17
6683.126 4.52211e-17
6684.3032 5.98899e-17
6685.4805 4.34916e-17
6686.6582 5.02624e-17
6687.8354 5.18468e-17
6689.0127 4.38903e-17
6690.1899 3.45002e-17
6691.3672 4.48443e-17
6692.5449 4.92126e-17
6693.7222 4.37481e-17
6694.8999 4.56766e-17
6696.0771 5.27747e-17
6697.2549 4.61475e-17
6698.4326 6.00662e-17
6699.6099 4.69919e-17
6700.7876 4.46584e-17
6701.9653 5.54613e-17
6703.1431 4.75553e-17
6704.3208 4.82436e-17
6705.4985 5.03064e-17
6706.6768 5.00072e-17
6707.8545 5.25338e-17
6709.0322 4.84299e-17
6710.21 4.62224e-17
6711.3882 5.92579e-17
6712.5659 5.26057e-17
6713.7441 4.29721e-17
6714.9224 5.02255e-17
6716.1001 3.57402e-17
6717.2783 3.86043e-17
6718.4565 4.38669e-17
6719.6348 4.77434e-17
6720.813 4.04483e-17
6721.9912 2.82516e-17
6723.1694 4.91229e-17
6724.3477 3.89117e-17
6725.5259 4.93468e-17
6726.7041 4.82421e-17
6727.8828 3.25908e-17
6729.061 4.34161e-17
6730.2393 4.77819e-17
6731.418 4.147e-17
6732.5967 5.41423e-17
6733.7749 5.27397e-17
6734.9536 4.49604e-17
6736.1323 3.47863e-17
6737.311 5.3733e-17
6738.4893 4.70417e-17
6739.668 3.88617e-17
6740.8467 4.84922e-17
6742.0259 3.76757e-17
6743.2046 5.03287e-17
6744.3833 3.33347e-17
6745.562 4.08692e-17
6746.7412 4.83586e-17
6747.9199 4.02907e-17
6749.0991 4.26597e-17
6750.2778 4.12663e-17
6751.457 3.85727e-17
6752.6357 4.42059e-17
6753.8149 4.56132e-17
6754.9941 4.55341e-17
6756.1733 5.74867e-17
6757.3525 4.44537e-17
6758.5317 5.31668e-17
6759.7109 4.49595e-17
6760.8901 3.94135e-17
6762.0693 3.97068e-17
6763.2485 3.9037e-17
6764.4277 4.82476e-17
6765.6074 4.45883e-17
6766.7866 4.38578e-17
6767.9663 3.89855e-17
6769.1455 4.16971e-17
6770.3252 4.58081e-17
6771.5044 4.32905e-17
6772.6841 5.05845e-17
6773.8638 4.00396e-17
6775.0435 5.21118e-17
6776.2231 4.61097e-17
6777.4028 4.85461e-17
6778.5825 4.50346e-17
6779.7622 3.63706e-17
6780.9419 5.79025e-17
6782.1216 6.06289e-17
6783.3018 4.41998e-17
6784.4814 4.10259e-17
6785.6616 4.89123e-17
6786.8413 4.72213e-17
6788.021 5.32412e-17
6789.2012 4.4083e-17
6790.3813 4.75551e-17
6791.5615 5.16257e-17
6792.7412 5.05706e-17
6793.9214 4.29801e-17
6795.1016 5.26979e-17
6796.2817 5.2465e-17
6797.4619 5.01954e-17
6798.6421 4.46358e-17
6799.8223 5.24751e-17
6801.0029 4.48116e-17
6802.1831 5.77017e-17
6803.3633 5.28087e-17
6804.5439 3.27699e-17
6805.7241 5.79869e-17
6806.9048 4.20438e-17
6808.085 5.02273e-17
6809.2656 4.63237e-17
6810.4463 5.18803e-17
6811.6265 4.73756e-17
6812.8071 3.79844e-17
6813.9878 3.58208e-17
6815.1685 4.37308e-17
6816.3491 4.50873e-17
6817.5298 4.14778e-17
6818.7104 4.35556e-17
6819.8916 4.30577e-17
6821.0723 3.72678e-17
6822.2529 4.72309e-17
6823.4341 3.56002e-17
6824.6147 4.68484e-17
6825.7959 4.91806e-17
6826.9766 5.5914e-17
6828.1577 4.1999e-17
6829.3384 5.67946e-17
6830.5195 5.02342e-17
6831.7007 5.74165e-17
6832.8818 3.78593e-17
6834.063 5.57382e-17
6835.2441 3.79107e-17
6836.4253 4.10274e-17
6837.6064 5.11856e-17
6838.7876 5.3023e-17
6839.9692 4.29448e-17
6841.1504 3.68123e-17
6842.3315 4.46975e-17
6843.5132 4.55352e-17
6844.6943 4.27789e-17
6845.876 4.9502e-17
6847.0571 4.19578e-17
6848.2388 5.96393e-17
6849.4204 3.80911e-17
6850.6016 4.3009e-17
6851.7832 6.13343e-17
6852.9648 4.29972e-17
6854.1465 4.4056e-17
6855.3281 4.76458e-17
6856.5098 4.95315e-17
6857.6914 5.04171e-17
6858.8735 4.93645e-17
6860.0552 5.93715e-17
6861.2368 5.18349e-17
6862.4185 4.79721e-17
6863.6006 4.56303e-17
6864.7822 5.3684e-17
6865.9644 5.22208e-17
6867.1465 6.20305e-17
6868.3281 6.83774e-17
6869.5103 6.45228e-17
6870.6924 5.08412e-17
6871.8745 5.61907e-17
6873.0566 6.2333e-17
6874.2388 6.15314e-17
6875.4209 5.82093e-17
6876.603 4.1963e-17
6877.7852 5.61947e-17
6878.9673 6.14384e-17
6880.1494 5.59267e-17
6881.332 5.51953e-17
6882.5142 4.45085e-17
6883.6968 5.40404e-17
6884.8789 4.46605e-17
6886.0615 4.93808e-17
6887.2437 5.64427e-17
6888.4263 5.77905e-17
6889.6089 6.76704e-17
6890.7915 6.45955e-17
6891.9736 4.67202e-17
6893.1562 4.49105e-17
6894.3389 6.04616e-17
6895.5215 5.08752e-17
6896.7041 6.07313e-17
6897.8872 5.34594e-17
6899.0698 4.99719e-17
6900.2524 5.35026e-17
6901.4351 5.10398e-17
6902.6182 4.90586e-17
6903.8008 4.91542e-17
6904.9839 3.87766e-17
6906.1665 4.91679e-17
6907.3496 4.78737e-17
6908.5327 3.98783e-17
6909.7153 5.07535e-17
6910.8984 4.63812e-17
6912.0815 4.69692e-17
6913.2646 5.17998e-17
6914.4478 4.57254e-17
6915.6309 4.85644e-17
6916.814 5.01654e-17
6917.9971 5.07633e-17
6919.1802 4.86881e-17
6920.3638 4.18053e-17
6921.5469 4.59939e-17
6922.73 6.33022e-17
6923.9136 4.15708e-17
6925.0967 4.30508e-17
6926.2803 4.76955e-17
6927.4634 5.18951e-17
6928.647 4.38062e-17
6929.8306 4.21322e-17
6931.0137 4.74007e-17
6932.1973 5.02689e-17
6933.3809 4.53151e-17
6934.5645 5.15327e-17
6935.748 5.30783e-17
6936.9316 4.19157e-17
6938.1152 4.25723e-17
6939.2993 4.05331e-17
6940.4829 4.93662e-17
6941.6665 3.57525e-17
6942.8501 4.20116e-17
6944.0342 3.60229e-17
6945.2178 5.15817e-17
6946.4019 5.00705e-17
6947.5859 4.60704e-17
6948.7695 5.15246e-17
6949.9536 3.2939e-17
6951.1377 5.19832e-17
6952.3213 4.34931e-17
6953.5054 3.91972e-17
6954.6895 4.43023e-17
6955.8735 4.98244e-17
6957.0576 4.41644e-17
6958.2417 3.73303e-17
6959.4258 4.84377e-17
6960.6099 5.32712e-17
6961.7944 4.69802e-17
6962.9785 3.22783e-17
6964.1631 4.31389e-17
6965.3472 3.60748e-17
6966.5317 4.94096e-17
6967.7158 3.61087e-17
6968.9004 5.2592e-17
6970.0845 5.2483e-17
6971.269 3.83503e-17
6972.4536 4.75128e-17
6973.6377 3.84104e-17
6974.8223 3.36436e-17
6976.0068 4.12642e-17
6977.1914 5.29861e-17
6978.376 6.38052e-17
6979.561 4.03726e-17
6980.7456 4.25161e-17
6981.9302 4.77802e-17
6983.1147 5.35982e-17
6984.2993 3.32846e-17
6985.4844 3.87505e-17
6986.6689 5.39218e-17
6987.854 3.97977e-17
6989.0386 4.30372e-17
6990.2236 4.39845e-17
6991.4082 3.66929e-17
6992.5933 4.28774e-17
6993.7783 5.00924e-17
6994.9634 4.43386e-17
6996.1484 4.15319e-17
6997.3335 5.17712e-17
6998.5181 3.45401e-17
6999.7036 4.29104e-17
7000.8887 5.08767e-17
7002.0737 5.71093e-17
7003.2588 3.3629e-17
7004.4438 4.25155e-17
7005.6294 4.63734e-17
7006.8145 4.44891e-17
7007.9995 4.83583e-17
7009.1851 4.8461e-17
7010.3701 4.46421e-17
7011.5557 4.66465e-17
7012.7412 5.06366e-17
7013.9263 4.12812e-17
7015.1118 3.90538e-17
7016.2974 4.24569e-17
7017.4829 3.63411e-17
7018.6685 4.75213e-17
7019.854 4.00402e-17
7021.0396 4.30274e-17
7022.2251 4.74777e-17
7023.4106 3.77661e-17
7024.5962 3.39297e-17
7025.7817 3.98324e-17
7026.9678 4.18566e-17
7028.1533 3.95068e-17
7029.3389 3.11489e-17
7030.5249 4.24562e-17
7031.7104 5.25865e-17
7032.8965 4.15411e-17
7034.0825 3.61125e-17
7035.2681 3.66744e-17
7036.4541 3.84329e-17
7037.6401 3.80103e-17
7038.8262 4.50577e-17
7040.0117 4.84762e-17
7041.1982 5.24247e-17
7042.3838 4.95966e-17
7043.5698 3.81361e-17
7044.7559 3.57761e-17
7045.9424 4.13745e-17
7047.1284 2.96622e-17
7048.3145 4.62976e-17
7049.5005 4.346e-17
7050.687 4.00898e-17
7051.873 4.39932e-17
7053.0596 4.46822e-17
7054.2456 4.79531e-17
7055.4321 4.30066e-17
7056.6182 4.47079e-17
7057.8047 3.67037e-17
7058.9912 4.451e-17
7060.1777 4.17461e-17
7061.3643 4.62563e-17
7062.5503 4.79104e-17
7063.7368 4.55233e-17
7064.9238 3.61977e-17
7066.1099 5.0525e-17
7067.2969 3.68137e-17
7068.4834 4.21612e-17
7069.6699 4.75759e-17
7070.8564 4.87612e-17
7072.0435 4.95621e-17
7073.23 4.66272e-17
7074.4165 3.90609e-17
7075.6035 4.2343e-17
7076.7905 5.59036e-17
7077.9771 3.99402e-17
7079.1641 4.49037e-17
7080.3506 4.05609e-17
7081.5376 4.32324e-17
7082.7246 5.63595e-17
7083.9116 3.66422e-17
7085.0986 3.96805e-17
7086.2852 5.07934e-17
7087.4727 4.34243e-17
7088.6597 4.78303e-17
7089.8467 3.44287e-17
7091.0337 4.60155e-17
7092.2207 4.25836e-17
7093.4077 4.74855e-17
7094.5952 5.50451e-17
7095.7822 4.5149e-17
7096.9697 5.25107e-17
7098.1567 4.73619e-17
7099.3442 4.15065e-17
7100.5312 4.55393e-17
7101.7188 5.56534e-17
7102.9058 5.30283e-17
7104.0933 4.69691e-17
7105.2808 4.68311e-17
7106.4683 3.64316e-17
7107.6558 3.88679e-17
7108.8428 5.16567e-17
7110.0303 4.87957e-17
7111.2178 3.97144e-17
7112.4058 4.45622e-17
7113.5933 4.46042e-17
7114.7808 4.6579e-17
7115.9683 5.95831e-17
7117.1558 5.00703e-17
7118.3438 5.42579e-17
7119.5312 3.72071e-17
7120.7192 4.59107e-17
7121.9067 3.83564e-17
7123.0947 3.94753e-17
7124.2822 3.63576e-17
7125.4702 3.80691e-17
7126.6582 4.86999e-17
7127.8457 4.50354e-17
7129.0337 4.14727e-17
7130.2217 4.50221e-17
7131.4097 5.20845e-17
7132.5977 5.34872e-17
7133.7856 3.92693e-17
7134.9736 4.8804e-17
7136.1616 5.63886e-17
7137.3496 5.09897e-17
7138.5376 5.26878e-17
7139.7261 4.26079e-17
7140.9141 5.35811e-17
7142.1021 5.36601e-17
7143.2905 4.4128e-17
7144.4785 3.41319e-17
7145.667 4.31141e-17
7146.855 4.67779e-17
7148.0435 4.95226e-17
7149.2319 4.58752e-17
7150.4199 4.35008e-17
7151.6084 4.69323e-17
7152.7969 6.02124e-17
7153.9854 5.13509e-17
7155.1738 5.50075e-17
7156.3618 5.0203e-17
7157.5503 5.00456e-17
7158.7388 4.353e-17
7159.9277 4.98837e-17
7161.1162 4.64561e-17
7162.3047 5.2831e-17
7163.4932 6.81272e-17
7164.6821 3.98661e-17
7165.8706 4.80819e-17
7167.0591 5.21959e-17
7168.248 4.11588e-17
7169.4365 4.2867e-17
7170.6255 4.94133e-17
7171.814 4.20325e-17
7173.0029 4.90637e-17
7174.1919 4.94661e-17
7175.3804 4.51558e-17
7176.5693 5.03621e-17
7177.7583 4.24475e-17
7178.9473 5.11004e-17
7180.1362 3.97044e-17
7181.3252 5.10782e-17
7182.5142 5.59421e-17
7183.7031 4.8815e-17
7184.8921 4.90606e-17
7186.0811 4.10667e-17
7187.2705 5.03751e-17
7188.4595 4.5834e-17
7189.6484 4.22634e-17
7190.8379 5.35521e-17
7192.0269 4.84799e-17
7193.2158 5.34846e-17
7194.4053 5.03337e-17
7195.5947 4.19251e-17
7196.7837 4.74057e-17
7197.9731 4.86736e-17
7199.1626 4.67335e-17
7200.3516 4.59312e-17
7201.541 5.15728e-17
7202.7305 4.72221e-17
7203.9199 5.63777e-17
7205.1094 5.28181e-17
7206.2988 5.25888e-17
7207.4883 4.68793e-17
7208.6777 4.3999e-17
7209.8672 4.60023e-17
7211.0566 5.39119e-17
7212.2466 4.83639e-17
7213.436 6.07304e-17
7214.6255 5.17786e-17
7215.8154 4.80512e-17
7217.0049 4.42228e-17
7218.1948 4.76247e-17
7219.3843 4.12887e-17
7220.5742 4.74822e-17
7221.7637 5.7604e-17
7222.9536 5.42328e-17
7224.1436 4.32653e-17
7225.333 3.78067e-17
7226.5229 3.96632e-17
7227.7129 3.36832e-17
7228.9028 4.6619e-17
7230.0928 4.01308e-17
7231.2827 4.66966e-17
7232.4727 4.51705e-17
7233.6626 4.74795e-17
7234.8525 3.90799e-17
7236.0425 5.82302e-17
7237.2329 4.60303e-17
7238.4229 5.29221e-17
7239.6128 5.37659e-17
7240.8032 3.84078e-17
7241.9932 5.2677e-17
7243.1836 4.39697e-17
7244.3735 5.61587e-17
7245.564 4.83698e-17
7246.7539 4.17436e-17
7247.9443 5.35312e-17
7249.1348 5.27236e-17
7250.3247 5.41544e-17
7251.5151 4.13275e-17
7252.7056 5.74472e-17
7253.896 4.34361e-17
7255.0864 4.25401e-17
7256.2769 4.7398e-17
7257.4673 4.55906e-17
7258.6577 4.72597e-17
7259.8481 6.01281e-17
7261.0386 5.3992e-17
7262.229 4.94298e-17
7263.4199 5.5442e-17
7264.6104 5.38481e-17
7265.8008 5.03373e-17
7266.9917 5.1479e-17
7268.1821 5.9553e-17
7269.373 4.44212e-17
7270.5635 5.67164e-17
7271.7544 5.10727e-17
7272.9448 4.93283e-17
7274.1357 5.5612e-17
7275.3267 4.10904e-17
7276.5176 4.1967e-17
7277.708 5.23564e-17
7278.8989 4.77504e-17
7280.0898 4.7049e-17
7281.2808 4.7868e-17
7282.4717 5.36083e-17
7283.6626 3.64465e-17
7284.8535 5.25602e-17
7286.0444 5.23538e-17
7287.2358 5.61731e-17
7288.4268 5.72175e-17
7289.6177 4.56941e-17
7290.8086 4.44056e-17
7292.0 6.10411e-17
7293.1909 5.05721e-17
7294.3823 4.95043e-17
7295.5732 4.92077e-17
7296.7642 4.69446e-17
7297.9556 4.19511e-17
7299.147 5.46397e-17
7300.3379 5.69218e-17
7301.5293 5.65594e-17
7302.7207 4.43402e-17
7303.9121 5.31279e-17
7305.1035 4.49648e-17
7306.2944 6.04294e-17
7307.4858 4.50069e-17
7308.6772 4.60422e-17
7309.8687 5.20084e-17
7311.0601 5.28903e-17
7312.2515 5.19486e-17
7313.4434 4.96437e-17
7314.6348 5.07083e-17
7315.8262 5.33572e-17
7317.0176 5.95136e-17
7318.2095 4.93889e-17
7319.4009 5.57767e-17
7320.5923 4.90164e-17
7321.7842 4.52856e-17
7322.9756 5.71584e-17
7324.1675 5.31863e-17
7325.3594 4.17492e-17
7326.5508 4.87699e-17
7327.7427 4.97869e-17
7328.9346 4.67865e-17
7330.126 4.15396e-17
7331.3179 6.27976e-17
7332.5098 4.80448e-17
7333.7017 5.79266e-17
7334.8936 5.24788e-17
7336.0854 5.18549e-17
7337.2773 4.84181e-17
7338.4692 4.64319e-17
7339.6611 4.24294e-17
7340.853 5.13835e-17
7342.0454 3.72512e-17
7343.2373 3.88824e-17
7344.4292 5.71197e-17
7345.6211 4.74834e-17
7346.8135 4.48022e-17
7348.0054 4.55594e-17
7349.1978 4.06101e-17
7350.3896 4.07275e-17
7351.582 4.84357e-17
7352.7739 4.51604e-17
7353.9663 4.83458e-17
7355.1587 4.66592e-17
7356.3506 5.45428e-17
7357.543 4.97457e-17
7358.7354 5.27172e-17
7359.9277 5.40763e-17
7361.1201 4.81876e-17
7362.3125 4.89186e-17
7363.5049 5.28562e-17
7364.6973 5.67917e-17
7365.8896 5.91499e-17
7367.082 4.86561e-17
7368.2744 7.64434e-17
7369.4668 7.67479e-17
7370.6592 1.21662e-16
7371.8521 1.73563e-16
7373.0444 2.39607e-16
7374.2373 2.89155e-16
7375.4297 2.64252e-16
7376.6221 2.02826e-16
7377.8149 1.46234e-16
7379.0073 9.42736e-17
7380.2002 6.51905e-17
7381.3931 6.16681e-17
7382.5854 4.6526e-17
7383.7783 6.34155e-17
7384.9712 4.81709e-17
7386.1636 5.09499e-17
7387.3564 4.53996e-17
7388.5493 4.14613e-17
7389.7422 4.35168e-17
7390.9351 5.64013e-17
7392.1279 5.00599e-17
7393.3208 5.16785e-17
7394.5137 5.76701e-17
7395.7065 4.52611e-17
7396.8994 5.36065e-17
7398.0928 6.35576e-17
7399.2856 5.50445e-17
7400.4785 4.64683e-17
7401.6714 4.49827e-17
7402.8647 4.55925e-17
7404.0576 5.07317e-17
7405.251 4.93853e-17
7406.4438 4.96081e-17
7407.6372 4.72376e-17
7408.8301 4.9801e-17
7410.0234 4.87994e-17
7411.2168 4.84396e-17
7412.4097 5.17713e-17
7413.603 3.86141e-17
7414.7964 5.09926e-17
7415.9897 4.43061e-17
7417.1826 4.59511e-17
7418.376 3.52393e-17
7419.5693 5.28232e-17
7420.7627 4.54011e-17
7421.9561 4.56132e-17
7423.1494 4.88869e-17
7424.3428 4.2385e-17
7425.5366 4.71323e-17
7426.73 4.635e-17
7427.9233 4.82879e-17
7429.1167 4.4601e-17
7430.3105 4.27644e-17
7431.5039 4.19799e-17
7432.6973 5.76851e-17
7433.8911 4.20969e-17
7435.0845 4.60977e-17
7436.2783 4.73377e-17
7437.4717 4.24751e-17
7438.6655 4.67634e-17
7439.8589 5.06121e-17
7441.0527 4.02625e-17
7442.2466 3.99768e-17
7443.4404 5.40542e-17
7444.6338 4.24043e-17
7445.8276 5.36367e-17
7447.0215 4.32037e-17
7448.2153 4.90096e-17
7449.4092 6.08299e-17
7450.603 4.88312e-17
7451.7969 5.3573e-17
7452.9907 4.67225e-17
7454.1846 5.68002e-17
7455.3784 3.86099e-17
7456.5723 4.49752e-17
7457.7666 5.22372e-17
7458.9604 4.5927e-17
7460.1543 5.25832e-17
7461.3486 4.54791e-17
7462.5425 3.95888e-17
7463.7363 4.04784e-17
7464.9307 4.95078e-17
7466.1245 4.18684e-17
7467.3188 3.99803e-17
7468.5127 4.1903e-17
7469.707 5.15603e-17
7470.9014 5.06897e-17
7472.0952 4.30885e-17
7473.2896 3.60641e-17
7474.4839 3.80966e-17
7475.6782 4.62498e-17
7476.8726 2.81006e-17
7478.0669 3.74673e-17
7479.2612 3.91345e-17
7480.4551 4.93525e-17
7481.6494 4.19941e-17
7482.8442 4.58848e-17
7484.0386 4.55103e-17
7485.2329 4.56002e-17
7486.4272 5.314e-17
7487.6216 3.28788e-17
7488.8159 3.57994e-17
7490.0107 4.25128e-17
7491.2051 4.33743e-17
7492.3994 3.40103e-17
7493.5942 4.66487e-17
7494.7886 3.85199e-17
7495.9834 4.2129e-17
7497.1777 4.37828e-17
7498.3721 4.17572e-17
7499.5669 3.9414e-17
7500.7617 4.3756e-17
7501.9565 4.12258e-17
7503.1509 3.63949e-17
7504.3457 4.22283e-17
7505.5405 4.1998e-17
7506.7349 4.5454e-17
7507.9297 3.80892e-17
7509.1245 5.39306e-17
7510.3193 5.00063e-17
7511.5142 3.85097e-17
7512.709 4.59749e-17
7513.9038 2.46045e-17
7515.0986 4.16507e-17
7516.2935 3.66132e-17
7517.4883 3.98646e-17
7518.6836 3.8567e-17
7519.8784 2.9821e-17
7521.0732 5.69015e-17
7522.2681 3.01065e-17
7523.4634 4.67774e-17
7524.6582 3.91524e-17
7525.8535 3.64159e-17
7527.0483 4.38898e-17
7528.2432 4.36959e-17
7529.4385 4.40295e-17
7530.6333 4.14271e-17
7531.8286 4.08695e-17
7533.0239 3.25171e-17
7534.2188 4.0128e-17
7535.4141 2.94538e-17
7536.6094 4.71236e-17
7537.8047 4.49327e-17
7538.9995 4.35677e-17
7540.1948 3.26325e-17
7541.3901 5.0232e-17
7542.5854 5.34462e-17
7543.7808 5.33484e-17
7544.9761 4.97665e-17
7546.1714 6.15885e-17
7547.3667 6.06765e-17
7548.562 4.65232e-17
7549.7573 4.65034e-17
7550.9531 4.63194e-17
7552.1484 4.41492e-17
7553.3438 4.40589e-17
7554.5391 3.90979e-17
7555.7349 3.28862e-17
7556.9302 3.70901e-17
7558.1255 4.97714e-17
7559.3213 3.89942e-17
7560.5166 5.33567e-17
7561.7124 5.06768e-17
7562.9077 5.7758e-17
7564.1035 5.58949e-17
7565.2993 4.78278e-17
7566.4946 5.31316e-17
7567.6904 5.03394e-17
7568.8862 3.44416e-17
7570.0815 4.61711e-17
7571.2773 4.66339e-17
7572.4731 3.9002e-17
7573.6689 3.44218e-17
7574.8647 4.3385e-17
7576.0605 3.52062e-17
7577.2563 4.42584e-17
7578.4521 4.02806e-17
7579.6479 3.79615e-17
7580.8438 4.44988e-17
7582.0396 2.76007e-17
7583.2354 4.59103e-17
7584.4312 3.98587e-17
7585.6274 3.82713e-17
7586.8232 3.95091e-17
7588.019 3.85996e-17
7589.2148 3.9795e-17
7590.4111 4.07329e-17
7591.6069 4.58162e-17
7592.8032 5.16154e-17
7593.999 5.7111e-17
7595.1948 7.76545e-17
7596.3911 6.74647e-17
7597.5874 9.39196e-17
7598.7832 9.58485e-17
7599.9795 9.14299e-17
7601.1753 3.9282e-17
7602.3716 1.32993e-16
7603.5679 6.43765e-17
7604.7642 4.18697e-17
7605.96 7.93162e-17
7607.1562 7.93937e-17
7608.3525 6.26312e-17
7609.5488 6.01307e-17
7610.7451 5.88648e-17
7611.9414 5.54351e-17
7613.1377 5.74712e-17
7614.334 4.82121e-17
7615.5303 3.88478e-17
7616.7266 4.53533e-17
7617.9233 3.60984e-17
7619.1196 4.88853e-17
7620.3159 4.1086e-17
7621.5122 5.6975e-17
7622.7085 5.67738e-17
7623.9053 4.78298e-17
7625.1016 4.88511e-17
7626.2983 4.92307e-17
7627.4946 5.30676e-17
7628.6909 5.58027e-17
7629.8877 5.02984e-17
7631.084 5.00466e-17
7632.2808 4.07563e-17
7633.4775 5.61446e-17
7634.6738 5.28236e-17
7635.8706 5.24686e-17
7637.0669 4.32196e-17
7638.2637 4.72863e-17
7639.4604 6.19489e-17
7640.6572 4.85902e-17
7641.854 4.84776e-17
7643.0503 5.9245e-17
7644.2471 4.31631e-17
7645.4438 5.44136e-17
7646.6406 4.14165e-17
7647.8374 4.92046e-17
7649.0342 5.73715e-17
7650.231 4.60709e-17
7651.4277 4.1645e-17
7652.625 4.23531e-17
7653.8218 4.26082e-17
7655.0186 4.77405e-17
7656.2153 4.20402e-17
7657.4121 4.02729e-17
7658.6094 3.57508e-17
7659.8062 4.69549e-17
7661.0029 3.88241e-17
7662.2002 4.02743e-17
7663.397 4.69998e-17
7664.5942 3.83713e-17
7665.791 3.69559e-17
7666.9883 3.78069e-17
7668.1851 4.34284e-17
7669.3823 4.75634e-17
7670.5791 4.0198e-17
7671.7764 3.66757e-17
7672.9736 4.04294e-17
7674.1704 4.35688e-17
7675.3677 3.79803e-17
7676.5649 4.09466e-17
7677.7622 4.13331e-17
7678.959 3.61983e-17
7680.1562 3.90573e-17
7681.3535 4.98223e-17
7682.5508 3.429e-17
7683.748 3.88085e-17
7684.9453 4.90145e-17
7686.1426 3.79367e-17
7687.3398 4.63129e-17
7688.5371 3.84743e-17
7689.7344 3.53746e-17
7690.9321 4.26103e-17
7692.1294 4.38191e-17
7693.3267 3.52355e-17
7694.5239 3.46284e-17
7695.7217 3.44473e-17
7696.9189 3.61213e-17
7698.1162 3.96996e-17
7699.314 3.46282e-17
7700.5112 3.53883e-17
7701.7085 2.93585e-17
7702.9062 3.73005e-17
7704.104 3.26775e-17
7705.3013 3.85025e-17
7706.499 4.03737e-17
7707.6963 4.41925e-17
7708.894 3.08132e-17
7710.0913 3.80295e-17
7711.2891 2.91314e-17
7712.4868 3.77063e-17
7713.6846 3.28821e-17
7714.8818 3.17166e-17
7716.0796 3.48884e-17
7717.2773 2.59742e-17
7718.4751 3.16214e-17
7719.6729 3.79552e-17
7720.8706 4.30044e-17
7722.0684 3.8419e-17
7723.2661 3.9783e-17
7724.4639 3.88077e-17
7725.6616 3.97477e-17
7726.8594 4.25081e-17
7728.0571 4.43658e-17
7729.2549 3.30953e-17
7730.4526 2.97722e-17
7731.6509 3.94703e-17
7732.8486 3.71045e-17
7734.0464 3.88495e-17
7735.2441 4.06922e-17
7736.4424 3.44904e-17
7737.6401 3.84131e-17
7738.8379 3.80431e-17
7740.0361 4.44602e-17
7741.2339 3.64847e-17
7742.4321 3.94094e-17
7743.6299 3.83977e-17
7744.8281 3.54672e-17
7746.0259 2.15963e-17
7747.2241 2.63374e-17
7748.4224 4.35455e-17
7749.6201 3.72755e-17
7750.8184 3.84596e-17
7752.0166 2.91413e-17
7753.2148 2.99e-17
7754.4126 3.89819e-17
7755.6108 3.67311e-17
7756.8091 3.45964e-17
7758.0073 4.84146e-17
7759.2056 2.91722e-17
7760.4038 2.93721e-17
7761.6021 3.83236e-17
7762.8003 3.19671e-17
7763.9985 3.88113e-17
7765.1968 3.67626e-17
7766.395 2.84245e-17
7767.5933 4.03201e-17
7768.7915 3.27858e-17
7769.9897 3.94548e-17
7771.188 3.24658e-17
7772.3867 3.21896e-17
7773.585 4.01704e-17
7774.7832 3.88436e-17
7775.9814 3.86241e-17
7777.1802 3.40578e-17
7778.3784 4.50536e-17
7779.5767 4.39162e-17
7780.7754 4.0073e-17
7781.9736 4.23354e-17
7783.1724 3.48768e-17
7784.3706 3.04415e-17
7785.5693 4.67132e-17
7786.7676 2.73012e-17
7787.9663 3.17071e-17
7789.165 3.35871e-17
7790.3633 3.28869e-17
7791.562 4.21428e-17
7792.7607 3.72013e-17
7793.959 3.60858e-17
7795.1577 3.74091e-17
7796.3564 3.49268e-17
7797.5552 3.87321e-17
7798.7539 3.96612e-17
7799.9526 3.39696e-17
7801.1509 3.93542e-17
7802.3496 2.30847e-17
7803.5483 3.01182e-17
7804.7471 3.71601e-17
7805.9458 3.69256e-17
7807.1445 4.88078e-17
7808.3433 2.48978e-17
7809.542 4.0289e-17
7810.7412 3.79618e-17
7811.9399 3.47688e-17
7813.1387 3.21152e-17
7814.3374 3.8259e-17
7815.5361 3.81038e-17
7816.7349 3.86363e-17
7817.9341 3.79665e-17
7819.1328 3.62112e-17
7820.332 3.30572e-17
7821.5308 3.98407e-17
7822.7295 3.51867e-17
7823.9287 4.18206e-17
7825.1274 3.46097e-17
7826.3267 3.58822e-17
7827.5254 3.1212e-17
7828.7246 4.37889e-17
7829.9233 4.18395e-17
7831.1226 3.28741e-17
7832.3213 3.33833e-17
7833.5205 3.23599e-17
7834.7197 3.21884e-17
7835.9185 5.11295e-17
7837.1177 3.46175e-17
7838.3169 2.95853e-17
7839.5161 4.57997e-17
7840.7153 3.18602e-17
7841.9141 3.73117e-17
7843.1133 3.92153e-17
7844.3125 4.16845e-17
7845.5117 3.86101e-17
7846.7109 3.52163e-17
7847.9102 3.66773e-17
7849.1094 3.07565e-17
7850.3086 4.19088e-17
7851.5078 3.30111e-17
7852.707 3.72624e-17
7853.9062 3.40983e-17
7855.1055 4.21892e-17
7856.3047 3.3992e-17
7857.5044 2.99719e-17
7858.7036 4.13629e-17
7859.9028 3.88993e-17
7861.1021 4.14566e-17
7862.3013 4.86014e-17
7863.501 2.71955e-17
7864.7002 4.70632e-17
7865.8994 3.2173e-17
7867.0991 2.6453e-17
7868.2983 3.56803e-17
7869.498 3.49506e-17
7870.6973 4.07756e-17
7871.897 2.4701e-17
7873.0962 3.82873e-17
7874.2959 3.37805e-17
7875.4951 4.16782e-17
7876.6948 2.63318e-17
7877.894 3.23554e-17
7879.0938 4.15819e-17
7880.2935 3.50199e-17
7881.4927 3.62096e-17
7882.6924 2.71708e-17
7883.8921 3.89244e-17
7885.0918 3.85226e-17
7886.291 3.8278e-17
7887.4907 3.44544e-17
7888.6904 3.13256e-17
7889.8901 2.69638e-17
7891.0898 3.08975e-17
7892.2896 3.38949e-17
7893.4888 4.05375e-17
7894.6885 2.88147e-17
7895.8882 4.14007e-17
7897.0879 4.29367e-17
7898.2876 3.45642e-17
7899.4878 3.42405e-17
7900.6875 2.26715e-17
7901.8872 3.6698e-17
7903.0869 2.90888e-17
7904.2866 2.95764e-17
7905.4863 3.60245e-17
7906.686 3.67181e-17
7907.8862 3.0786e-17
7909.0859 3.16867e-17
7910.2856 3.29712e-17
7911.4858 3.63323e-17
7912.6855 4.30185e-17
7913.8853 4.21858e-17
7915.085 3.42715e-17
7916.2852 4.04778e-17
7917.4849 4.23855e-17
7918.6851 4.23523e-17
7919.8848 4.1203e-17
7921.085 3.88812e-17
7922.2847 2.93609e-17
7923.4849 4.4073e-17
7924.6846 4.04317e-17
7925.8848 4.10156e-17
7927.085 3.9593e-17
7928.2847 3.83765e-17
7929.4849 2.7154e-17
7930.6846 2.48266e-17
7931.8848 3.12456e-17
7933.085 3.95056e-17
7934.2852 2.53072e-17
7935.4849 3.03798e-17
7936.6851 3.76856e-17
7937.8853 3.6898e-17
7939.0854 3.41634e-17
7940.2856 3.19034e-17
7941.4858 2.93432e-17
7942.686 2.93949e-17
7943.8862 2.90628e-17
7945.0864 3.5118e-17
7946.2866 4.11856e-17
7947.4868 3.66906e-17
7948.687 4.1422e-17
7949.8872 4.17505e-17
7951.0874 3.64804e-17
7952.2876 2.26891e-17
7953.4878 2.99663e-17
7954.688 3.49864e-17
7955.8882 3.08957e-17
7957.0884 4.16958e-17
7958.2891 3.32383e-17
7959.4893 3.26094e-17
7960.6895 3.21551e-17
7961.8901 3.80917e-17
7963.0903 3.73871e-17
7964.2905 3.56844e-17
7965.4907 3.55322e-17
7966.6914 3.04275e-17
7967.8916 2.03527e-17
7969.0923 4.13848e-17
7970.2925 2.73028e-17
7971.4927 2.92796e-17
7972.6934 3.40552e-17
7973.894 4.2601e-17
7975.0942 3.42699e-17
7976.2949 4.30004e-17
7977.4951 3.9592e-17
7978.6958 3.44726e-17
7979.896 3.07094e-17
7981.0967 3.76149e-17
7982.2974 3.49442e-17
7983.4976 3.71673e-17
7984.6982 2.91258e-17
7985.8989 3.87334e-17
7987.0996 4.13234e-17
7988.2998 3.00705e-17
7989.5005 2.20338e-17
7990.7012 4.02875e-17
7991.9019 3.54322e-17
7993.1025 2.48325e-17
7994.3027 3.42132e-17
7995.5034 3.46116e-17
7996.7041 2.91557e-17
7997.9048 3.79333e-17
7999.1055 3.00865e-17
8000.3062 4.19032e-17
8001.5068 3.57885e-17
8002.7075 3.85783e-17
8003.9082 3.65636e-17
8005.1089 3.97744e-17
8006.3096 3.63215e-17
8007.5107 3.67348e-17
8008.7114 3.96888e-17
8009.9121 4.18564e-17
8011.1128 2.97179e-17
8012.3135 4.26677e-17
8013.5142 3.43761e-17
8014.7153 3.15933e-17
8015.916 3.36872e-17
8017.1167 4.27035e-17
8018.3174 4.09963e-17
8019.5186 3.88612e-17
8020.7192 4.10923e-17
8021.9199 4.84055e-17
8023.1211 4.27913e-17
8024.3218 3.198e-17
8025.5225 3.43379e-17
8026.7236 3.74681e-17
8027.9243 4.17528e-17
8029.1255 3.47982e-17
8030.3262 3.03858e-17
8031.5273 3.12319e-17
8032.728 2.81017e-17
8033.9292 3.69885e-17
8035.1299 2.85547e-17
8036.3311 3.44358e-17
8037.5322 3.59165e-17
8038.7329 3.5247e-17
8039.9341 3.7704e-17
8041.1353 4.30447e-17
8042.3359 3.63088e-17
8043.5371 3.60141e-17
8044.7383 4.40375e-17
8045.9395 3.55391e-17
8047.1401 4.24278e-17
8048.3413 3.9707e-17
8049.5425 3.6191e-17
8050.7437 3.37831e-17
8051.9448 3.74705e-17
8053.146 4.0973e-17
8054.3467 4.28099e-17
8055.5479 2.3374e-17
8056.749 4.60354e-17
8057.9502 3.42317e-17
8059.1514 4.251e-17
8060.3525 4.20437e-17
8061.5537 4.52814e-17
8062.7549 3.83716e-17
8063.9561 4.6233e-17
8065.1572 3.99329e-17
8066.3584 3.64191e-17
8067.5596 3.67286e-17
8068.7612 3.51057e-17
8069.9624 4.10248e-17
8071.1636 3.15852e-17
8072.3647 4.05102e-17
8073.5659 4.16134e-17
8074.7671 2.23034e-17
8075.9688 4.14855e-17
8077.1699 3.8032e-17
8078.3711 3.45039e-17
8079.5723 3.03112e-17
8080.7739 3.63692e-17
8081.9751 3.76301e-17
8083.1763 3.43003e-17
8084.3779 4.33524e-17
8085.5791 4.67735e-17
8086.7803 3.10831e-17
8087.9819 3.53494e-17
8089.1831 3.79081e-17
8090.3848 2.98409e-17
8091.5859 3.94627e-17
8092.7876 4.98768e-17
8093.9888 4.35497e-17
8095.1904 3.93699e-17
8096.3916 4.16549e-17
8097.5933 3.98861e-17
8098.7944 4.09613e-17
8099.9961 4.46176e-17
8101.1978 4.32003e-17
8102.3989 4.67638e-17
8103.6006 3.44183e-17
8104.8018 4.21046e-17
8106.0034 3.96842e-17
8107.2051 3.21779e-17
8108.4067 4.28418e-17
8109.6079 3.61726e-17
8110.8096 3.81578e-17
8112.0112 3.58433e-17
8113.2129 4.13509e-17
8114.4141 3.31626e-17
8115.6157 4.45499e-17
8116.8174 3.72356e-17
8118.019 4.41982e-17
8119.2207 3.79858e-17
8120.4224 3.48701e-17
8121.624 3.86127e-17
8122.8252 3.50028e-17
8124.0269 4.19711e-17
8125.2285 3.62711e-17
8126.4302 4.52592e-17
8127.6318 3.28225e-17
8128.8335 3.45931e-17
8130.0352 3.59379e-17
8131.2368 4.10108e-17
8132.4385 4.02273e-17
8133.6406 4.51937e-17
8134.8418 4.36182e-17
8136.0439 3.78767e-17
8137.2456 3.85752e-17
8138.4473 4.20687e-17
8139.6489 3.91017e-17
8140.8506 4.07421e-17
8142.0522 3.05299e-17
8143.2544 4.24653e-17
8144.4561 4.24091e-17
8145.6577 4.1992e-17
8146.8594 4.22e-17
8148.0615 4.10354e-17
8149.2632 3.82939e-17
8150.4648 3.6847e-17
8151.6665 4.22604e-17
8152.8687 4.2199e-17
8154.0703 3.97429e-17
8155.272 3.71707e-17
8156.4741 3.59549e-17
8157.6758 3.2404e-17
8158.8779 3.41415e-17
8160.0796 4.09339e-17
8161.2812 3.78477e-17
8162.4834 3.6771e-17
8163.6851 3.7748e-17
8164.8872 4.01528e-17
8166.0889 3.50626e-17
8167.291 3.69599e-17
8168.4927 3.70021e-17
8169.6948 3.95302e-17
8170.8965 3.95119e-17
8172.0986 3.78059e-17
8173.3003 3.95777e-17
8174.5024 3.47592e-17
8175.7046 3.61121e-17
8176.9062 3.5506e-17
8178.1084 3.30022e-17
8179.3105 3.71351e-17
8180.5122 4.64037e-17
8181.7144 3.91856e-17
8182.9165 3.42184e-17
8184.1182 3.67203e-17
8185.3203 3.53692e-17
8186.5225 3.95099e-17
8187.7246 3.67474e-17
8188.9263 3.9583e-17
8190.1284 4.08393e-17
8191.3306 3.45245e-17
8192.5322 4.05327e-17
8193.7344 3.31184e-17
8194.9365 3.27576e-17
8196.1387 3.81664e-17
8197.3408 4.51135e-17
8198.543 3.45432e-17
8199.7451 2.99256e-17
8200.9473 4.52254e-17
8202.1494 3.98806e-17
8203.3516 3.30916e-17
8204.5537 3.87519e-17
8205.7559 3.94862e-17
8206.958 3.66548e-17
8208.1602 4.04901e-17
8209.3623 3.92977e-17
8210.5645 3.66704e-17
8211.7666 3.51089e-17
8212.9688 3.38647e-17
8214.1709 3.91266e-17
8215.373 3.58326e-17
8216.5752 2.6344e-17
8217.7773 3.80143e-17
8218.9795 3.30614e-17
8220.1816 3.01397e-17
8221.3838 3.40566e-17
8222.5859 2.45975e-17
8223.7881 3.80635e-17
8224.9902 3.74102e-17
8226.1934 3.54667e-17
8227.3955 3.5489e-17
8228.5977 3.1453e-17
8229.7998 3.72188e-17
8231.002 3.89917e-17
8232.2041 3.5656e-17
8233.4062 3.90181e-17
8234.6094 3.88567e-17
8235.8115 4.17748e-17
8237.0137 4.13148e-17
8238.2158 3.54757e-17
8239.418 3.61499e-17
8240.6201 3.29177e-17
8241.8223 4.18843e-17
8243.0254 3.57884e-17
8244.2275 3.08905e-17
8245.4297 3.44126e-17
8246.6318 3.82884e-17
8247.835 3.67174e-17
8249.0371 2.97217e-17
8250.2393 4.31034e-17
8251.4414 3.06899e-17
8252.6436 3.19983e-17
8253.8467 4.38843e-17
8255.0488 3.08103e-17
8256.251 3.62457e-17
8257.4531 3.78129e-17
8258.6562 3.41863e-17
8259.8584 3.40797e-17
8261.0605 3.52398e-17
8262.2637 4.22521e-17
8263.4658 3.39042e-17
8264.668 3.99766e-17
8265.8701 3.31581e-17
8267.0732 3.93145e-17
8268.2754 3.30871e-17
8269.4775 3.39417e-17
8270.6807 3.19011e-17
8271.8828 3.37858e-17
8273.085 3.59149e-17
8274.2881 2.96325e-17
8275.4902 3.23968e-17
8276.6924 3.89772e-17
8277.8955 3.64832e-17
8279.0977 3.51346e-17
8280.2998 3.08628e-17
8281.5029 3.00229e-17
8282.7051 3.40474e-17
8283.9082 3.5294e-17
8285.1104 4.06133e-17
8286.3125 4.45832e-17
8287.5156 3.75648e-17
8288.7178 4.5846e-17
8289.9209 2.71496e-17
8291.123 4.47017e-17
8292.3252 3.94141e-17
8293.5283 4.03798e-17
8294.7305 3.50322e-17
8295.9336 3.948e-17
8297.1357 2.5102e-17
8298.3389 4.23827e-17
8299.541 3.51392e-17
8300.7441 5.68177e-17
8301.9463 4.84204e-17
8303.1484 3.58758e-17
8304.3516 4.09104e-17
8305.5537 3.79464e-17
8306.7568 3.96738e-17
8307.959 3.87379e-17
8309.1621 4.02287e-17
8310.3643 3.30113e-17
8311.5674 3.00233e-17
8312.7695 4.42243e-17
8313.9727 3.37623e-17
8315.1748 3.95083e-17
8316.3779 3.63371e-17
8317.5801 3.88763e-17
8318.7832 3.02211e-17
8319.9863 3.6915e-17
8321.1885 3.82796e-17
8322.3916 3.59637e-17
8323.5938 3.49413e-17
8324.7969 4.24388e-17
8325.999 4.22729e-17
8327.2021 4.64297e-17
8328.4043 3.10126e-17
8329.6074 3.80966e-17
8330.8105 3.59879e-17
8332.0127 4.40588e-17
8333.2158 4.08045e-17
8334.418 3.41754e-17
8335.6211 3.58889e-17
8336.8242 3.55345e-17
8338.0264 4.29459e-17
8339.2295 3.46675e-17
8340.4316 4.08401e-17
8341.6348 2.59261e-17
8342.8379 3.34738e-17
8344.04 5.9736e-17
8345.2432 5.54675e-17
8346.4453 3.18525e-17
8347.6484 3.29502e-17
8348.8516 2.76383e-17
8350.0537 3.75881e-17
8351.2568 4.31853e-17
8352.46 3.52089e-17
8353.6621 4.39154e-17
8354.8652 3.67036e-17
8356.0684 4.04034e-17
8357.2705 3.36971e-17
8358.4736 3.10666e-17
8359.6768 4.17713e-17
8360.8799 3.40879e-17
8362.082 3.64706e-17
8363.2852 2.46906e-17
8364.4883 4.56261e-17
8365.6904 3.89386e-17
8366.8936 3.65885e-17
8368.0967 2.91273e-17
8369.2988 3.82972e-17
8370.502 3.67407e-17
8371.7051 3.68482e-17
8372.9082 3.58335e-17
8374.1104 3.55871e-17
8375.3135 4.00975e-17
8376.5166 4.76114e-17
8377.7188 3.22793e-17
8378.9219 3.55835e-17
8380.125 3.49325e-17
8381.3281 3.18093e-17
8382.5303 2.63238e-17
8383.7334 4.29444e-17
8384.9365 3.56107e-17
8386.1396 3.7368e-17
8387.3428 3.66493e-17
8388.5449 2.77285e-17
8389.748 3.41602e-17
8390.9512 4.22293e-17
8392.1543 3.38774e-17
8393.3564 2.64206e-17
8394.5596 3.35535e-17
8395.7627 3.49721e-17
8396.9658 4.71769e-17
8398.1689 2.87541e-17
8399.3711 3.92493e-17
8400.5742 3.74699e-17
8401.7773 3.26517e-17
8402.9805 3.37935e-17
8404.1836 2.86425e-17
8405.3857 3.54488e-17
8406.5889 4.44535e-17
8407.792 4.0635e-17
8408.9951 3.0283e-17
8410.1982 3.44031e-17
8411.4014 3.45962e-17
8412.6035 3.48405e-17
8413.8066 3.74034e-17
8415.0098 3.48586e-17
8416.2129 3.25848e-17
8417.416 4.29405e-17
8418.6191 3.35569e-17
8419.8213 3.18195e-17
8421.0244 3.62422e-17
8422.2275 2.03223e-17
8423.4307 2.94997e-17
8424.6338 2.48832e-17
8425.8369 3.63643e-17
8427.04 2.26113e-17
8428.2422 3.20647e-17
8429.4453 3.67157e-17
8430.6484 3.36241e-17
8431.8516 3.57997e-17
8433.0547 3.69936e-17
8434.2578 2.24049e-17
8435.4609 2.18698e-17
8436.6641 3.49445e-17
8437.8672 3.03334e-17
8439.0693 3.58939e-17
8440.2725 3.74025e-17
8441.4756 3.2963e-17
8442.6787 3.17561e-17
8443.8818 3.02974e-17
8445.085 3.11409e-17
8446.2881 3.07522e-17
8447.4912 3.40122e-17
8448.6943 2.6045e-17
8449.8975 2.25203e-17
8451.1006 1.53383e-17
8452.3027 2.61462e-17
8453.5059 2.88997e-17
8454.709 2.78742e-17
8455.9121 2.84388e-17
8457.1152 1.9213e-17
8458.3184 2.08893e-17
8459.5215 2.57954e-17
8460.7246 3.72892e-17
8461.9277 2.7315e-17
8463.1309 1.88299e-17
8464.334 2.63916e-17
8465.5371 2.5046e-17
8466.7402 1.00944e-17
8467.9434 2.58476e-17
8469.1465 2.36352e-17
8470.3486 2.7745e-17
8471.5518 3.03481e-17
8472.7549 2.76607e-17
8473.958 2.19472e-17
8475.1611 1.7556e-17
8476.3643 2.54288e-17
8477.5674 3.25965e-17
8478.7705 2.13263e-17
8479.9736 2.32464e-17
8481.1768 2.7866e-17
8482.3799 2.58833e-17
8483.583 2.42832e-17
8484.7861 2.6814e-17
8485.9893 2.18824e-17
8487.1924 2.06277e-17
8488.3955 2.46823e-17
8489.5986 2.71868e-17
8490.8018 1.83803e-17
8492.0049 2.12792e-17
8493.208 2.80464e-17
8494.4111 3.00192e-17
8495.6143 2.6735e-17
8496.8174 2.4013e-17
8498.0205 2.78335e-17
8499.2236 1.79509e-17
8500.4268 2.30486e-17
8501.6299 1.78679e-17
8502.833 2.65095e-17
8504.0361 3.49801e-17
8505.2393 1.56838e-17
8506.4424 3.14426e-17
8507.6455 2.55755e-17
8508.8486 3.30933e-17
8510.0518 2.84287e-17
8511.2549 2.13898e-17
8512.458 2.52437e-17
8513.6611 2.58244e-17
8514.8643 2.84872e-17
8516.0674 2.42144e-17
8517.2705 2.62994e-17
8518.4736 1.88585e-17
8519.6768 2.14608e-17
8520.8799 2.76067e-17
8522.083 2.91283e-17
8523.2861 2.53828e-17
8524.4893 3.31229e-17
8525.6924 2.64244e-17
8526.8955 2.98013e-17
8528.0986 2.17919e-17
8529.3018 2.76666e-17
8530.5049 2.68474e-17
8531.708 2.71231e-17
8532.9111 2.92085e-17
8534.1143 3.20409e-17
8535.3174 2.72082e-17
8536.5205 2.49181e-17
8537.7236 2.61452e-17
8538.9268 2.66268e-17
8540.1299 2.33901e-17
8541.333 2.82199e-17
8542.5361 1.98998e-17
8543.7393 2.87047e-17
8544.9424 2.40905e-17
8546.1455 1.92358e-17
8547.3486 3.17396e-17
8548.5518 2.47611e-17
8549.7549 2.14606e-17
8550.958 3.52314e-17
8552.1611 2.65e-17
8553.3643 3.05877e-17
8554.5674 3.06157e-17
8555.7705 2.94549e-17
8556.9736 3.48746e-17
8558.1768 2.43499e-17
8559.3799 2.87214e-17
8560.583 3.58503e-17
8561.7861 3.20885e-17
8562.9893 3.21014e-17
8564.1924 3.14918e-17
8565.3955 3.01328e-17
8566.5986 2.5429e-17
8567.8018 3.15442e-17
8569.0049 2.97109e-17
8570.208 3.58667e-17
8571.4111 2.76405e-17
8572.6143 2.11138e-17
8573.8174 3.58488e-17
8575.0205 3.59816e-17
8576.2236 2.72112e-17
8577.4268 2.5718e-17
8578.6299 3.4336e-17
8579.833 4.06378e-17
8581.0361 3.5777e-17
8582.2393 3.17031e-17
8583.4424 3.08069e-17
8584.6455 3.05532e-17
8585.8486 2.73494e-17
8587.0518 2.82587e-17
8588.2549 3.72791e-17
8589.458 3.20162e-17
8590.6611 3.5424e-17
8591.8643 3.05762e-17
8593.0674 3.46835e-17
8594.2705 2.50639e-17
8595.4736 3.29085e-17
8596.6768 4.12933e-17
8597.8799 3.14269e-17
8599.083 3.44081e-17
8600.2861 2.49548e-17
8601.4893 2.93357e-17
8602.6924 3.26822e-17
8603.8955 3.49574e-17
8605.0986 3.13375e-17
8606.3018 3.95578e-17
8607.5049 3.23184e-17
8608.708 2.69394e-17
8609.9111 3.3227e-17
8611.1143 3.58243e-17
8612.3174 3.52323e-17
8613.5205 3.34131e-17
8614.7236 2.67424e-17
8615.9268 3.9258e-17
8617.1299 3.06833e-17
8618.333 3.60946e-17
8619.5361 4.39402e-17
8620.7393 3.05101e-17
8621.9424 3.39475e-17
8623.1455 3.06998e-17
8624.3486 4.93537e-17
8625.5518 3.48781e-17
8626.7549 2.93475e-17
8627.958 3.88839e-17
8629.1611 1.90143e-17
8630.3643 4.55135e-17
8631.5674 4.28656e-17
8632.7705 2.98456e-17
8633.9736 2.6187e-17
8635.1768 4.28992e-17
8636.3799 3.12248e-17
8637.583 3.80214e-17
8638.7861 3.3393e-17
8639.9893 3.82108e-17
8641.1924 4.2006e-17
8642.3955 3.00592e-17
8643.5986 3.18896e-17
8644.8018 2.87438e-17
8646.0049 3.72508e-17
8647.208 2.96839e-17
8648.4111 3.89069e-17
8649.6143 4.06238e-17
8650.8174 2.876e-17
8652.0195 3.03114e-17
8653.2227 3.44422e-17
8654.4258 2.57896e-17
8655.6289 3.69207e-17
8656.832 3.36163e-17
8658.0352 3.29215e-17
8659.2383 3.35475e-17
8660.4414 3.50591e-17
8661.6445 3.86593e-17
8662.8477 3.77548e-17
8664.0508 3.69976e-17
8665.2539 3.77696e-17
8666.457 3.59727e-17
8667.6602 3.48267e-17
8668.8633 2.63592e-17
8670.0654 3.47095e-17
8671.2686 3.96376e-17
8672.4717 3.42953e-17
8673.6748 4.14655e-17
8674.8779 4.27787e-17
8676.0811 4.1264e-17
8677.2842 3.48317e-17
8678.4873 2.79535e-17
8679.6904 3.8875e-17
8680.8936 3.64978e-17
8682.0957 3.57034e-17
8683.2988 4.18664e-17
8684.502 3.4731e-17
8685.7051 3.6607e-17
8686.9082 3.43551e-17
8688.1113 3.94628e-17
8689.3145 3.67931e-17
8690.5176 3.01148e-17
8691.7197 3.62769e-17
8692.9229 3.82694e-17
8694.126 3.13911e-17
8695.3291 4.40823e-17
8696.5322 3.00128e-17
8697.7354 3.46881e-17
8698.9385 2.99202e-17
8700.1406 3.6897e-17
8701.3438 3.40837e-17
8702.5469 3.82356e-17
8703.75 3.3364e-17
8704.9531 3.55424e-17
8706.1562 3.69066e-17
8707.3594 4.22529e-17
8708.5615 3.76181e-17
8709.7646 4.506e-17
8710.9678 3.7447e-17
8712.1709 4.02643e-17
8713.374 4.11128e-17
8714.5762 4.01679e-17
8715.7793 3.99539e-17
8716.9824 3.98794e-17
8718.1855 3.63573e-17
8719.3887 3.62046e-17
8720.5908 3.83723e-17
8721.7939 4.35314e-17
8722.9971 3.86025e-17
8724.2002 4.27641e-17
8725.4033 3.64349e-17
8726.6055 4.13182e-17
8727.8086 3.37009e-17
8729.0117 3.97562e-17
8730.2148 3.36939e-17
8731.418 4.46392e-17
8732.6201 3.79029e-17
8733.8232 4.23975e-17
8735.0264 4.12575e-17
8736.2295 3.84713e-17
8737.4316 3.54338e-17
8738.6348 3.94269e-17
8739.8379 4.1352e-17
8741.041 4.45531e-17
8742.2432 3.89398e-17
8743.4463 3.99717e-17
8744.6494 3.62002e-17
8745.8525 3.87871e-17
8747.0547 3.90412e-17
8748.2578 3.70661e-17
8749.4609 3.95966e-17
8750.6631 3.35705e-17
8751.8662 3.71431e-17
8753.0693 2.97741e-17
8754.2725 4.37737e-17
8755.4746 3.76541e-17
8756.6777 3.82094e-17
8757.8809 4.07862e-17
8759.083 3.9957e-17
8760.2861 4.19935e-17
8761.4893 3.40415e-17
8762.6914 3.47261e-17
8763.8945 2.50223e-17
8765.0977 3.78276e-17
8766.2998 3.71193e-17
8767.5029 4.61051e-17
8768.7061 4.0891e-17
8769.9082 3.17087e-17
8771.1113 3.75064e-17
8772.3145 4.43933e-17
8773.5166 4.78037e-17
8774.7197 3.55225e-17
8775.9219 3.18027e-17
8777.125 4.3904e-17
8778.3281 2.88258e-17
8779.5303 3.57657e-17
8780.7334 3.65694e-17
8781.9355 3.50863e-17
8783.1387 4.07519e-17
8784.3418 4.01413e-17
8785.5439 3.96495e-17
8786.7471 4.06347e-17
8787.9492 3.49161e-17
8789.1523 4.64834e-17
8790.3555 3.39885e-17
8791.5576 3.8256e-17
8792.7607 4.67756e-17
8793.9629 4.11446e-17
8795.166 3.21948e-17
8796.3682 3.60867e-17
8797.5713 3.24287e-17
8798.7734 4.2289e-17
8799.9766 3.9252e-17
8801.1797 3.53045e-17
8802.3818 3.72715e-17
8803.585 3.65854e-17
8804.7871 3.60467e-17
8805.9902 4.35993e-17
8807.1924 3.46783e-17
8808.3955 3.94178e-17
8809.5977 4.6151e-17
8810.8008 4.24425e-17
8812.0029 4.4355e-17
8813.2051 3.492e-17
8814.4082 3.28622e-17
8815.6104 4.15392e-17
8816.8135 4.18004e-17
8818.0156 3.98945e-17
8819.2188 3.55845e-17
8820.4209 4.26011e-17
8821.624 3.47844e-17
8822.8262 3.68783e-17
8824.0283 3.91295e-17
8825.2314 4.17827e-17
8826.4336 2.97587e-17
8827.6367 2.4989e-17
8828.8389 3.51478e-17
8830.042 5.41615e-17
8831.2441 3.34131e-17
8832.4463 3.94183e-17
8833.6494 3.40796e-17
8834.8516 3.86538e-17
8836.0547 3.47773e-17
8837.2568 3.35703e-17
8838.459 3.29972e-17
8839.6621 4.10584e-17
8840.8643 4.06122e-17
8842.0664 3.15442e-17
8843.2695 4.02858e-17
8844.4717 4.62499e-17
8845.6738 2.9077e-17
8846.877 3.43535e-17
8848.0791 4.51076e-17
8849.2812 4.0627e-17
8850.4844 2.84986e-17
8851.6865 3.45952e-17
8852.8887 3.79915e-17
8854.0908 4.18396e-17
8855.2939 4.26659e-17
8856.4961 3.04009e-17
8857.6982 3.81875e-17
8858.9014 3.77556e-17
8860.1035 3.92681e-17
8861.3057 3.9087e-17
8862.5078 3.48974e-17
8863.7109 3.0395e-17
8864.9131 3.66091e-17
8866.1152 2.88846e-17
8867.3174 3.44376e-17
8868.5195 3.12015e-17
8869.7227 3.89989e-17
8870.9248 3.52111e-17
8872.127 3.59485e-17
8873.3291 3.62145e-17
8874.5312 3.5244e-17
8875.7344 4.00403e-17
8876.9365 3.73162e-17
8878.1387 3.55077e-17
8879.3408 3.71492e-17
8880.543 3.20042e-17
8881.7451 3.55948e-17
8882.9473 2.96118e-17
8884.1504 3.71696e-17
8885.3525 1.24257e-17
8886.5547 3.68972e-17
8887.7568 3.53902e-17
8888.959 2.33367e-17
8890.1611 4.71478e-17
8891.3633 3.94135e-17
8892.5654 3.33952e-17
8893.7676 3.3334e-17
8894.9697 3.79449e-17
8896.1729 3.84122e-17
8897.375 3.38113e-17
8898.5771 3.8794e-17
8899.7793 3.79103e-17
8900.9814 3.25933e-17
8902.1836 3.56651e-17
8903.3857 3.13103e-17
8904.5879 3.67909e-17
8905.79 2.72155e-17
8906.9922 3.44692e-17
8908.1943 3.56377e-17
8909.3965 3.29962e-17
8910.5986 2.88399e-17
8911.8008 2.64254e-17
8913.0029 4.02356e-17
8914.2051 3.35895e-17
8915.4072 3.69366e-17
8916.6094 3.61927e-17
8917.8105 2.74232e-17
8919.0127 4.72449e-17
8920.2148 3.59143e-17
8921.417 4.16524e-17
8922.6191 4.48511e-17
8923.8213 3.37902e-17
8925.0234 3.81357e-17
8926.2256 3.51108e-17
8927.4277 3.76156e-17
8928.6299 4.19098e-17
8929.8311 3.76004e-17
8931.0332 3.29971e-17
8932.2354 3.0657e-17
8933.4375 3.15438e-17
8934.6396 3.3128e-17
8935.8418 3.52182e-17
8937.043 3.10345e-17
8938.2451 2.98985e-17
8939.4473 4.06296e-17
8940.6494 2.78632e-17
8941.8516 2.33848e-17
8943.0527 2.74773e-17
8944.2549 3.93986e-17
8945.457 2.36061e-17
8946.6592 3.67028e-17
8947.8604 2.80073e-17
8949.0625 3.46817e-17
8950.2646 2.81083e-17
8951.4668 3.01416e-17
8952.668 3.62018e-17
8953.8701 3.20061e-17
8955.0723 4.02787e-17
8956.2734 2.31253e-17
8957.4756 3.67854e-17
8958.6777 3.54509e-17
8959.8799 3.36882e-17
8961.0811 2.53169e-17
8962.2832 3.42118e-17
8963.4844 3.63869e-17
8964.6865 3.21447e-17
8965.8887 2.68572e-17
8967.0898 3.66165e-17
8968.292 3.49601e-17
8969.4941 3.37552e-17
8970.6953 2.95333e-17
8971.8975 3.2092e-17
8973.0986 3.11118e-17
8974.3008 3.42062e-17
8975.502 3.58466e-17
8976.7041 3.10595e-17
8977.9062 3.042e-17
8979.1074 3.39575e-17
8980.3096 3.44457e-17
8981.5107 3.03415e-17
8982.7129 3.26314e-17
8983.9141 3.43175e-17
8985.1162 2.52116e-17
8986.3174 3.17714e-17
8987.5195 3.41166e-17
8988.7207 3.37874e-17
8989.9219 4.28031e-17
8991.124 2.99223e-17
8992.3252 3.7621e-17
8993.5273 2.54487e-17
8994.7285 3.23755e-17
8995.9307 3.40938e-17
8997.1318 2.80508e-17
8998.333 2.61016e-17
8999.5352 3.43568e-17
9000.7363 2.48271e-17
9001.9385 3.07434e-17
9003.1396 3.64468e-17
9004.3408 3.1813e-17
9005.543 2.75601e-17
9006.7441 3.25126e-17
9007.9453 3.1357e-17
9009.1475 3.8804e-17
9010.3486 3.39907e-17
9011.5498 3.41003e-17
9012.751 3.50659e-17
9013.9531 2.79343e-17
9015.1543 2.67591e-17
9016.3555 3.13992e-17
9017.5576 2.41524e-17
9018.7588 3.07599e-17
9019.96 3.03812e-17
9021.1611 2.85675e-17
9022.3623 3.03818e-17
9023.5645 2.85986e-17
9024.7656 2.91559e-17
9025.9668 3.15509e-17
9027.168 3.0177e-17
9028.3691 2.68547e-17
9029.5703 3.03287e-17
9030.7725 2.86454e-17
9031.9736 3.00896e-17
9033.1748 2.63905e-17
9034.376 2.37343e-17
9035.5771 3.28224e-17
9036.7783 3.31839e-17
9037.9795 2.94949e-17
9039.1807 3.3471e-17
9040.3828 2.85894e-17
9041.584 2.63735e-17
9042.7852 2.64258e-17
9043.9863 2.99863e-17
9045.1875 2.48269e-17
9046.3887 2.91437e-17
9047.5898 3.08178e-17
9048.791 2.7126e-17
9049.9922 2.92776e-17
9051.1934 3.13076e-17
9052.3945 2.651e-17
9053.5957 2.54533e-17
9054.7969 3.00078e-17
9055.998 2.86293e-17
9057.1992 2.39676e-17
9058.3994 3.06999e-17
9059.6006 2.89512e-17
9060.8018 2.5855e-17
9062.0029 3.08488e-17
9063.2041 2.71273e-17
9064.4053 3.0644e-17
9065.6064 2.93434e-17
9066.8076 3.32588e-17
9068.0078 3.44535e-17
9069.209 2.57743e-17
9070.4102 3.12137e-17
9071.6113 2.88512e-17
9072.8125 2.73722e-17
9074.0137 2.29582e-17
9075.2139 3.20381e-17
9076.415 2.69884e-17
9077.6162 2.37037e-17
9078.8174 2.6752e-17
9080.0176 2.86559e-17
9081.2188 2.84086e-17
9082.4199 3.37996e-17
9083.6211 3.03602e-17
9084.8213 2.93404e-17
9086.0225 2.60801e-17
9087.2236 2.95236e-17
9088.4238 2.63829e-17
9089.625 2.74633e-17
9090.8262 2.59266e-17
9092.0264 2.68236e-17
9093.2275 2.50452e-17
9094.4287 2.11097e-17
9095.6289 2.87462e-17
9096.8301 2.40211e-17
9098.0303 3.22041e-17
9099.2314 2.13098e-17
9100.4316 2.68252e-17
9101.6328 2.58929e-17
9102.834 2.28868e-17
9104.0342 2.79463e-17
9105.2354 3.20561e-17
9106.4355 3.0577e-17
9107.6367 2.58314e-17
9108.8369 2.72545e-17
9110.0381 2.49585e-17
9111.2383 2.68968e-17
9112.4395 2.72776e-17
9113.6396 2.71298e-17
9114.8398 3.08055e-17
9116.041 2.9708e-17
9117.2412 2.71485e-17
9118.4424 3.01606e-17
9119.6426 2.74913e-17
9120.8428 2.76044e-17
9122.0439 2.75623e-17
9123.2441 2.57069e-17
9124.4443 2.35824e-17
9125.6455 2.90387e-17
9126.8457 3.24549e-17
9128.0469 3.34568e-17
9129.2471 2.33739e-17
9130.4473 2.4351e-17
9131.6475 2.23399e-17
9132.8486 2.67082e-17
9134.0488 2.55605e-17
9135.249 2.45171e-17
9136.4492 2.39729e-17
9137.6504 2.74932e-17
9138.8506 3.04617e-17
9140.0508 2.61537e-17
9141.251 2.67103e-17
9142.4512 3.3545e-17
9143.6523 2.7792e-17
9144.8525 2.10337e-17
9146.0527 2.93234e-17
9147.2529 3.01271e-17
9148.4531 2.75702e-17
9149.6533 2.23366e-17
9150.8535 2.8913e-17
9152.0537 2.51643e-17
9153.2539 3.00267e-17
9154.4551 3.18743e-17
9155.6553 2.98366e-17
9156.8555 3.116e-17
9158.0557 2.30345e-17
9159.2559 2.88001e-17
9160.4561 2.79853e-17
9161.6562 2.41402e-17
9162.8564 3.10906e-17
9164.0566 2.4785e-17
9165.2568 3.2364e-17
9166.4561 2.72471e-17
9167.6562 3.04017e-17
9168.8564 2.59489e-17
9170.0566 2.73569e-17
9171.2568 2.52859e-17
9172.457 2.75703e-17
9173.6572 2.75236e-17
9174.8574 2.4905e-17
9176.0576 2.98274e-17
9177.2568 2.27409e-17
9178.457 3.38947e-17
9179.6572 2.32886e-17
9180.8574 2.42057e-17
9182.0576 2.42556e-17
9183.2568 2.26806e-17
9184.457 2.78553e-17
9185.6572 3.08117e-17
9186.8574 2.7953e-17
9188.0566 2.733e-17
9189.2568 3.60502e-17
9190.457 1.83161e-17
9191.6572 3.02171e-17
9192.8564 2.5622e-17
9194.0566 2.46374e-17
9195.2568 2.67324e-17
9196.4561 2.72183e-17
9197.6562 2.4037e-17
9198.8555 2.94121e-17
9200.0557 2.46477e-17
9201.2559 2.23845e-17
9202.4551 2.67495e-17
9203.6553 2.75137e-17
9204.8545 2.25574e-17
9206.0547 2.31735e-17
9207.2539 2.81012e-17
9208.4541 2.99206e-17
9209.6533 2.5255e-17
9210.8535 2.2314e-17
9212.0527 2.56975e-17
9213.2529 2.42425e-17
9214.4521 2.13214e-17
9215.6523 2.20271e-17
9216.8516 2.56691e-17
9218.0518 2.77241e-17
9219.251 1.85498e-17
9220.4502 2.44038e-17
9221.6504 2.39787e-17
9222.8496 2.72645e-17
9224.0498 2.75815e-17
9225.249 2.79136e-17
9226.4482 2.33124e-17
9227.6484 2.53052e-17
9228.8477 2.44716e-17
9230.0469 2.49269e-17
9231.2461 2.31597e-17
9232.4463 2.30245e-17
9233.6455 2.75375e-17
9234.8447 2.32888e-17
9236.0439 2.24937e-17
9237.2441 2.79116e-17
9238.4434 2.335e-17
9239.6426 1.94115e-17
9240.8418 2.48029e-17
9242.041 2.52263e-17
9243.2402 2.20498e-17
9244.4404 2.30832e-17
9245.6396 2.30505e-17
9246.8389 1.94265e-17
9248.0381 2.42824e-17
9249.2373 2.11279e-17
9250.4365 2.11195e-17
9251.6357 2.10095e-17
9252.835 2.70636e-17
9254.0342 2.57951e-17
9255.2334 2.31357e-17
9256.4326 2.24337e-17
9257.6318 2.63096e-17
9258.8311 2.48398e-17
9260.0303 2.54023e-17
9261.2295 2.1185e-17
9262.4287 2.24929e-17
9263.6279 2.65714e-17
9264.8271 2.27984e-17
9266.0264 2.31337e-17
9267.2256 2.60342e-17
9268.4248 2.43367e-17
9269.623 2.34429e-17
9270.8223 2.15909e-17
9272.0215 2.45587e-17
9273.2207 1.81208e-17
9274.4199 2.12417e-17
9275.6191 1.61176e-17
9276.8174 2.27317e-17
9278.0166 2.49967e-17
9279.2158 2.23453e-17
9280.415 2.31788e-17
9281.6133 2.1551e-17
9282.8125 2.05365e-17
9284.0117 2.47361e-17
9285.21 1.98645e-17
9286.4092 2.15586e-17
9287.6084 2.33812e-17
9288.8066 1.84504e-17
9290.0059 2.53615e-17
9291.2051 2.46813e-17
9292.4033 1.77951e-17
9293.6025 2.09687e-17
9294.8008 2.28132e-17
9296.0 2.58874e-17
9297.1982 2.42568e-17
9298.3975 2.67155e-17
9299.5967 2.43366e-17
9300.7949 2.53384e-17
9301.9941 1.83774e-17
9303.1924 2.80456e-17
9304.3906 2.57489e-17
9305.5898 2.77037e-17
9306.7881 1.37709e-17
9307.9873 3.46536e-17
9309.1855 2.48248e-17
9310.3848 4.80835e-17
9311.583 2.89043e-17
9312.7812 1.824e-17
9313.9805 7.82706e-18
9315.1787 3.36102e-17
9316.377 3.71261e-17
9317.5762 2.00334e-17
9318.7744 2.14601e-17
9319.9727 2.61233e-17
9321.1719 1.64222e-17
9322.3701 2.69149e-17
9323.5684 1.29318e-17
9324.7666 3.50726e-17
9325.9648 3.29944e-17
9327.1641 2.83639e-17
9328.3623 2.73501e-17
9329.5605 2.53237e-17
9330.7588 2.37365e-17
9331.957 3.02854e-17
9333.1553 2.11944e-17
9334.3545 2.29062e-17
9335.5527 3.63174e-17
9336.751 3.54432e-17
9337.9492 2.85326e-17
9339.1475 2.67834e-17
9340.3457 1.78568e-17
9341.5439 1.64261e-17
9342.7422 2.86138e-17
9343.9404 2.54093e-17
9345.1387 3.84829e-17
9346.3369 2.74404e-17
9347.5352 2.56269e-17
9348.7334 2.68065e-17
9349.9316 2.39193e-17
9351.1299 3.0239e-17
9352.3281 2.26723e-17
9353.5264 2.91658e-17
9354.7236 2.50346e-17
9355.9219 2.37194e-17
9357.1201 2.34918e-17
9358.3184 2.9719e-17
9359.5166 2.52305e-17
9360.7148 2.13928e-17
9361.9121 2.26245e-17
9363.1104 2.89283e-17
9364.3086 2.02115e-17
9365.5068 2.83989e-17
9366.7041 2.93212e-17
9367.9023 2.29032e-17
9369.1006 2.85597e-17
9370.2979 2.60018e-17
9371.4961 1.93683e-17
9372.6943 4.00721e-17
9373.8916 3.02968e-17
9375.0898 1.89654e-17
9376.2881 3.14588e-17
9377.4854 4.48416e-17
9378.6836 3.87486e-17
9379.8809 2.25211e-17
9381.0791 2.95263e-17
9382.2764 3.96202e-17
9383.4746 4.02409e-17
9384.6719 2.77117e-17
9385.8701 2.46113e-17
9387.0674 2.21551e-17
9388.2656 3.51654e-17
9389.4629 2.37042e-17
9390.6611 1.93869e-17
9391.8584 2.72845e-17
9393.0566 2.39108e-17
9394.2539 2.28163e-17
9395.4512 2.22336e-17
9396.6494 2.25377e-17
9397.8467 3.02831e-17
9399.0439 2.77089e-17
9400.2422 2.77459e-17
9401.4395 3.50065e-17
9402.6367 2.49393e-17
9403.835 3.01979e-17
9405.0322 2.79339e-17
9406.2295 2.53521e-17
9407.4268 2.78252e-17
9408.625 3.12526e-17
9409.8223 2.62267e-17
9411.0195 2.96126e-17
9412.2168 2.42084e-17
9413.4141 2.75421e-17
9414.6113 2.3182e-17
9415.8096 3.2559e-17
9417.0068 2.38182e-17
9418.2041 1.16411e-17
9419.4014 2.91237e-17
9420.5986 2.08963e-17
9421.7959 2.04533e-17
9422.9932 2.71489e-17
9424.1904 2.71322e-17
9425.3877 3.05483e-17
9426.585 3.43575e-17
9427.7822 2.9693e-17
9428.9795 2.55094e-17
9430.1768 2.93185e-17
9431.374 2.54711e-17
9432.5713 2.96565e-17
9433.7686 2.64471e-17
9434.9648 2.76186e-17
9436.1621 3.222e-17
9437.3594 2.88153e-17
9438.5566 2.461e-17
9439.7539 1.78737e-17
9440.9512 2.60751e-17
9442.1475 1.35507e-17
9443.3447 4.56921e-17
9444.542 3.24435e-17
9445.7393 3.56446e-17
9446.9355 2.93463e-17
9448.1328 3.16131e-17
9449.3301 3.10474e-17
9450.5273 3.16698e-17
9451.7236 2.48018e-17
9452.9209 2.78639e-17
9454.1182 2.53345e-17
9455.3145 3.09886e-17
9456.5117 2.53911e-17
9457.708 1.78519e-17
9458.9053 2.75221e-17
9460.1025 2.48685e-17
9461.2988 3.15173e-17
9462.4961 2.77417e-17
9463.6924 2.45748e-17
9464.8896 2.45287e-17
9466.0859 2.65471e-17
9467.2832 3.02918e-17
9468.4795 2.9781e-17
9469.6768 2.5994e-17
9470.873 2.19095e-17
9472.0693 2.35911e-17
9473.2666 3.32229e-17
9474.4629 4.10762e-17
9475.6602 2.67827e-17
9476.8564 2.03351e-17
9478.0527 1.13856e-17
9479.249 4.13622e-17
9480.4463 2.73855e-17
9481.6426 3.25859e-17
9482.8389 3.35338e-17
9484.0361 2.94887e-17
9485.2324 3.3697e-17
9486.4287 3.02921e-17
9487.625 2.38161e-17
9488.8223 3.19242e-17
9490.0186 2.67723e-17
9491.2148 3.14693e-17
9492.4111 3.31488e-17
9493.6074 3.6853e-17
9494.8037 2.83536e-17
9496.0 2.59862e-17
9497.1973 2.9427e-17
9498.3936 3.01077e-17
9499.5898 4.1055e-17
9500.7861 3.95736e-17
9501.9824 1.76805e-17
9503.1787 1.86546e-17
9504.375 2.37825e-17
9505.5713 2.18387e-17
9506.7676 1.88991e-17
9507.9639 2.75e-17
9509.1602 2.8197e-17
9510.3555 3.29688e-17
9511.5518 2.57776e-17
9512.748 3.08095e-17
9513.9443 2.63285e-17
9515.1406 3.86327e-17
9516.3369 3.28719e-17
9517.5332 3.11773e-17
9518.7285 3.66236e-17
9519.9248 1.19453e-17
9521.1211 2.45859e-17
9522.3174 3.58072e-17
9523.5137 2.55985e-17
9524.709 2.95556e-17
9525.9053 3.18354e-17
9527.1016 3.50844e-17
9528.2969 3.58618e-17
9529.4932 3.27357e-17
9530.6895 2.88052e-17
9531.8848 2.40592e-17
9533.0811 2.84344e-17
9534.2773 3.03253e-17
9535.4727 2.5652e-17
9536.6689 2.94351e-17
9537.8643 2.50877e-17
9539.0605 2.69743e-17
9540.2559 2.98893e-17
9541.4521 2.90516e-17
9542.6475 2.79833e-17
9543.8438 3.4277e-17
9545.0391 3.63207e-17
9546.2354 2.9438e-17
9547.4307 2.92962e-17
9548.627 2.76208e-17
9549.8223 3.42942e-17
9551.0186 1.24188e-17
9552.2139 1.86274e-17
9553.4092 5.00096e-17
9554.6055 3.92297e-17
9555.8008 3.04706e-17
9556.9961 3.47239e-17
9558.1924 3.8817e-17
9559.3877 2.89885e-17
9560.583 3.0599e-17
9561.7783 3.08712e-17
9562.9746 3.13841e-17
9564.1699 3.32782e-17
9565.3652 1.84888e-17
9566.5605 3.1206e-17
9567.7559 3.48991e-17
9568.9521 2.92623e-17
9570.1475 3.93066e-17
9571.3428 2.86486e-17
9572.5381 3.02208e-17
9573.7334 3.16621e-17
9574.9287 3.3592e-17
9576.124 2.23191e-17
9577.3193 2.7931e-17
9578.5146 3.2991e-17
9579.71 2.79301e-17
9580.9053 2.80042e-17
9582.1006 2.52006e-17
9583.2959 2.71623e-17
9584.4912 3.1578e-17
9585.6865 3.25042e-17
9586.8818 3.29216e-17
9588.0771 3.15502e-17
9589.2725 2.38667e-17
9590.4678 3.43198e-17
9591.6631 2.81099e-17
9592.8584 2.88413e-17
9594.0527 3.19199e-17
9595.248 2.76484e-17
9596.4434 3.04235e-17
9597.6387 2.88375e-17
9598.834 2.82153e-17
9600.0283 2.79885e-17
9601.2236 3.02923e-17
9602.4189 2.83197e-17
9603.6143 2.7035e-17
9604.8086 3.17151e-17
9606.0039 1.61558e-17
9607.1992 3.72004e-17
9608.3936 3.38763e-17
9609.5889 2.79352e-17
9610.7842 2.7457e-17
9611.9785 2.41759e-17
9613.1738 3.2707e-17
9614.3682 2.69012e-17
9615.5635 2.85075e-17
9616.7578 2.35698e-17
9617.9531 2.23743e-17
9619.1475 3.32936e-17
9620.3428 2.59763e-17
9621.5371 2.71949e-17
9622.7324 2.93779e-17
9623.9268 3.05499e-17
9625.1221 2.47699e-17
9626.3164 3.55199e-17
9627.5107 2.8878e-17
9628.7061 3.16794e-17
9629.9004 3.20224e-17
9631.0957 2.91133e-17
9632.29 3.04914e-17
9633.4844 3.56377e-17
9634.6797 3.27162e-17
9635.874 2.64857e-17
9637.0684 2.44361e-17
9638.2627 3.18681e-17
9639.458 3.05968e-17
9640.6523 3.37944e-17
9641.8467 2.59351e-17
9643.041 2.74056e-17
9644.2363 2.78272e-17
9645.4307 3.21682e-17
9646.625 2.77253e-17
9647.8193 3.16689e-17
9649.0137 2.86101e-17
9650.208 2.55892e-17
9651.4023 3.05819e-17
9652.5967 3.64079e-17
9653.791 3.11257e-17
9654.9863 2.77261e-17
9656.1807 3.0182e-17
9657.375 3.12686e-17
9658.5693 3.27052e-17
9659.7637 3.02556e-17
9660.958 2.64633e-17
9662.1523 2.76433e-17
9663.3467 2.75421e-17
9664.54 3.01133e-17
9665.7344 2.94028e-17
9666.9287 3.50116e-17
9668.123 2.62229e-17
9669.3174 1.99331e-17
9670.5117 2.81821e-17
9671.7061 3.54421e-17
9672.8994 2.35018e-17
9674.0938 3.27691e-17
9675.2881 2.82091e-17
9676.4824 2.89218e-17
9677.6768 3.00123e-17
9678.8701 2.24679e-17
9680.0645 2.87713e-17
9681.2588 3.73734e-17
9682.4531 2.76195e-17
9683.6465 3.06251e-17
9684.8408 3.01148e-17
9686.0352 2.78688e-17
9687.2285 2.78482e-17
9688.4229 3.29551e-17
9689.6172 3.82711e-17
9690.8105 2.97254e-17
9692.0049 2.90689e-17
9693.1982 2.44826e-17
9694.3926 3.39156e-17
9695.5859 3.22396e-17
9696.7803 4.26919e-17
9697.9736 2.08043e-17
9699.168 2.27167e-17
9700.3613 1.99054e-17
9701.5557 2.751e-17
9702.749 2.15259e-17
9703.9434 3.02548e-17
9705.1367 2.90391e-17
9706.3311 3.49558e-17
9707.5244 3.08013e-17
9708.7178 3.68769e-17
9709.9121 2.43377e-17
9711.1055 3.04795e-17
9712.2988 2.97282e-17
9713.4932 2.97193e-17
9714.6865 1.66796e-17
9715.8799 3.73249e-17
9717.0742 2.49073e-17
9718.2676 2.04284e-17
9719.4609 1.93128e-17
9720.6543 2.67123e-17
9721.8486 3.41983e-17
9723.042 1.93904e-17
9724.2354 3.34493e-17
9725.4287 2.92055e-17
9726.6221 2.95223e-17
9727.8154 3.03069e-17
9729.0098 2.89578e-17
9730.2031 2.7414e-17
9731.3965 2.88387e-17
9732.5898 3.08058e-17
9733.7832 3.18336e-17
9734.9766 3.50228e-17
9736.1699 2.7385e-17
9737.3633 2.03774e-17
9738.5566 2.29947e-17
9739.75 3.06682e-17
9740.9434 1.68658e-17
9742.1367 2.06203e-17
9743.3301 3.27992e-17
9744.5234 2.74944e-17
9745.7168 2.85099e-17
9746.9102 1.9148e-17
9748.1035 2.79822e-17
9749.2969 3.07223e-17
9750.4893 2.91247e-17
9751.6826 2.67206e-17
9752.876 2.79088e-17
9754.0693 2.83259e-17
9755.2627 2.64842e-17
9756.4561 3.07137e-17
9757.6484 3.59497e-17
9758.8418 3.09103e-17
9760.0352 3.01041e-17
9761.2285 2.61237e-17
9762.4209 3.12502e-17
9763.6143 3.57973e-17
9764.8076 2.65193e-17
9766.001 3.00448e-17
9767.1934 2.78689e-17
9768.3867 2.72881e-17
9769.5801 2.34901e-17
9770.7725 2.72254e-17
9771.9658 3.08145e-17
9773.1582 2.20154e-17
9774.3516 2.97888e-17
9775.5449 2.18714e-17
9776.7373 3.08044e-17
9777.9307 3.38721e-17
9779.123 3.02958e-17
9780.3164 2.86732e-17
9781.5088 2.324e-17
9782.7021 3.62906e-17
9783.8945 2.7136e-17
9785.0879 3.12251e-17
9786.2803 2.64665e-17
9787.4736 3.77139e-17
9788.666 4.56222e-18
9789.8584 1.6056e-17
9791.0518 -4.45495e-18
9792.2441 2.83209e-17
9793.4375 3.71229e-17
9794.6299 3.48363e-17
9795.8223 4.75619e-17
9797.0156 3.01445e-17
9798.208 2.52888e-17
9799.4004 2.78109e-17
9800.5938 3.50249e-17
9801.7861 2.85574e-17
9802.9785 2.74127e-17
9804.1709 2.78221e-17
9805.3643 3.58246e-17
9806.5566 2.53198e-17
9807.749 3.96251e-17
9808.9414 3.9882e-17
9810.1348 1.65205e-17
9811.3271 1.86468e-17
9812.5195 3.27372e-17
9813.7119 2.85752e-17
9814.9043 3.13101e-17
9816.0967 2.80203e-17
9817.2891 2.62521e-17
9818.4814 2.90762e-17
9819.6748 1.67189e-17
9820.8672 3.68357e-17
9822.0596 2.52841e-17
9823.252 2.93719e-17
9824.4443 2.19132e-17
9825.6367 2.07127e-17
9826.8291 3.37489e-17
9828.0215 2.11116e-17
9829.2139 2.91095e-17
9830.4062 3.03343e-17
9831.5986 2.65887e-17
9832.791 2.28983e-17
9833.9834 3.48701e-17
9835.1758 2.00949e-17
9836.3672 3.20718e-17
9837.5596 2.98233e-17
9838.752 2.52859e-17
9839.9443 2.90174e-17
9841.1367 2.60001e-17
9842.3291 3.3199e-17
9843.5215 3.27552e-17
9844.7139 3.35869e-17
9845.9053 3.07847e-17
9847.0977 1.3607e-17
9848.29 3.71044e-17
9849.4824 1.91321e-17
9850.6738 4.20127e-17
9851.8662 3.76769e-17
9853.0586 3.13802e-17
9854.251 3.27312e-17
9855.4424 3.20458e-17
9856.6348 3.26695e-17
9857.8271 3.57236e-17
9859.0186 3.56953e-17
9860.2109 3.11695e-17
9861.4033 3.05508e-17
9862.5947 3.21423e-17
9863.7871 2.31181e-17
9864.9795 2.91814e-17
9866.1709 2.75432e-17
9867.3633 1.95321e-17
9868.5547 4.33856e-17
9869.7471 3.09796e-17
9870.9395 3.75685e-17
9872.1309 3.10866e-17
9873.3232 2.30872e-17
9874.5146 2.23644e-17
9875.707 1.67973e-17
9876.8984 3.02467e-17
9878.0908 2.81592e-17
9879.2822 3.4086e-17
9880.4746 2.06209e-17
9881.666 2.66999e-17
9882.8584 2.36181e-17
9884.0498 2.27408e-17
9885.2412 3.27295e-17
9886.4336 1.99114e-17
9887.625 2.16667e-17
9888.8174 2.25533e-17
9890.0088 2.70804e-17
9891.2002 2.79535e-17
9892.3926 2.47405e-17
9893.584 1.14161e-17
9894.7754 4.24323e-17
9895.9678 4.45336e-17
9897.1592 1.21049e-17
9898.3506 1.66009e-17
9899.543 2.19443e-17
9900.7344 3.30115e-17
9901.9258 2.6169e-17
9903.1182 2.07533e-17
9904.3096 2.84686e-17
9905.501 2.91679e-17
9906.6924 2.62805e-17
9907.8838 2.81991e-17
9909.0762 2.76922e-17
9910.2676 3.90593e-17
9911.459 6.12138e-17
9912.6504 2.67026e-17
9913.8418 2.39518e-17
9915.0342 2.02219e-17
9916.2256 2.99428e-17
9917.417 1.72583e-17
9918.6084 3.88493e-17
9919.7998 2.51917e-17
9920.9912 2.77886e-17
9922.1826 2.82482e-17
9923.374 2.6294e-17
9924.5654 2.12634e-17
9925.7578 2.40171e-17
9926.9492 1.79197e-17
9928.1406 2.40874e-17
9929.332 2.22486e-17
9930.5234 1.9238e-17
9931.7148 1.96377e-17
9932.9062 2.38675e-17
9934.0977 2.36204e-17
9935.2891 2.05818e-17
9936.4805 2.65147e-17
9937.6719 2.65609e-17
9938.8633 3.63947e-17
9940.0547 3.17494e-17
9941.2451 3.80825e-17
9942.4365 3.84311e-17
9943.6279 2.48612e-17
9944.8193 3.07128e-17
9946.0107 1.97474e-17
9947.2021 2.12329e-17
9948.3936 1.82533e-17
9949.585 3.44718e-17
9950.7764 2.06847e-17
9951.9678 3.72027e-17
9953.1592 2.32704e-17
9954.3496 2.30503e-17
9955.541 3.35036e-17
9956.7324 1.02041e-17
9957.9238 1.51264e-17
9959.1152 2.78355e-17
9960.3057 -7.17617e-18
9961.4971 3.25719e-17
9962.6885 2.51694e-17
9963.8799 9.46387e-18
9965.0703 1.1653e-17
9966.2617 3.2603e-17
9967.4531 2.89649e-17
9968.6445 1.65834e-17
9969.835 1.55585e-17
9971.0264 3.51161e-17
9972.2178 1.74303e-17
9973.4092 2.42201e-17
9974.5996 2.98394e-17
9975.791 2.53068e-17
9976.9824 2.19568e-17
9978.1729 2.8577e-17
9979.3643 2.3647e-17
9980.5557 1.97445e-17
9981.7461 2.17953e-17
9982.9375 1.83188e-17
9984.1289 2.40527e-17
9985.3193 2.31123e-17
9986.5107 3.01123e-17
9987.7021 2.20196e-17
9988.8926 2.63611e-17
9990.084 2.69225e-17
9991.2744 2.71404e-17
9992.4658 2.87684e-17
9993.6562 2.10079e-17
9994.8477 2.98986e-17
9996.0391 2.24289e-17
9997.2295 2.50813e-17
9998.4209 2.84066e-17
9999.6113 3.03251e-17
10000.803 2.20598e-17
10001.994 1.58785e-17
10003.184 1.92175e-17
10004.375 2.24384e-17
10005.566 2.88473e-17
10006.757 3.08048e-17
10007.948 1.57433e-17
10009.139 1.60495e-17
10010.33 3.59988e-17
10011.521 5.22847e-17
10012.712 3.80321e-17
10013.903 2.62784e-18
10015.094 3.31156e-17
10016.284 1.66221e-17
10017.475 2.9013e-17
10018.666 3.04647e-17
10019.857 2.85513e-17
10021.048 3.17091e-17
10022.239 2.37744e-17
10023.429 3.05478e-17
10024.62 1.71384e-17
10025.811 2.70705e-17
10027.002 4.65934e-17
10028.193 2.4498e-17
10029.384 1.432e-17
10030.574 2.7979e-17
10031.765 2.46261e-17
10032.956 1.91109e-17
10034.147 2.1162e-17
10035.338 2.53638e-17
10036.528 2.30805e-17
10037.719 1.69382e-17
10038.91 2.5383e-17
10040.101 1.53122e-17
10041.291 3.07174e-17
10042.482 2.17966e-17
10043.673 3.27804e-17
10044.864 9.78723e-18
10046.054 2.12276e-17
10047.245 2.73994e-17
10048.436 2.75442e-17
10049.627 2.05998e-17
10050.817 2.32192e-17
10052.008 1.71859e-17
10053.199 2.57457e-17
10054.389 3.00809e-17
10055.58 1.59171e-17
10056.771 2.44926e-17
10057.961 1.27651e-17
10059.152 1.96323e-17
10060.343 9.0797e-18
10061.534 3.37103e-17
10062.724 2.65048e-17
10063.915 3.5605e-17
10065.106 3.33215e-17
10066.296 1.95107e-17
10067.487 2.17774e-17
10068.678 2.83333e-17
10069.868 1.86987e-17
10071.059 2.27445e-17
10072.25 1.41002e-17
10073.44 2.12168e-17
10074.631 2.01373e-17
10075.821 1.8232e-17
10077.012 1.75949e-17
10078.203 2.16651e-17
10079.393 2.6551e-17
10080.584 3.1051e-17
10081.775 1.17452e-17
10082.965 1.92172e-17
10084.156 2.28987e-17
10085.347 3.71197e-18
10086.537 3.18128e-17
10087.728 2.43093e-17
10088.918 3.73598e-17
10090.109 2.38439e-17
10091.3 2.47538e-17
10092.49 3.09925e-17
10093.681 1.80796e-17
10094.871 2.71639e-17
10096.062 2.43266e-17
10097.253 2.10697e-17
10098.443 2.74348e-17
10099.634 2.26431e-17
10100.824 6.14498e-18
10102.015 1.72109e-17
10103.206 8.79191e-18
10104.396 1.84901e-17
10105.587 9.64016e-18
10106.777 2.19544e-17
10107.968 2.37008e-17
10109.159 3.18908e-17
10110.349 1.32567e-17
10111.54 2.16311e-17
10112.73 2.24452e-17
10113.921 2.88626e-17
10115.111 1.8168e-17
10116.302 1.02982e-17
10117.493 3.3199e-17
10118.683 2.66252e-17
10119.874 -8.58557e-18
10121.064 8.59511e-18
10122.255 1.6417e-17
10123.445 2.57496e-17
10124.636 5.13e-18
10125.827 -2.25325e-18
10127.017 3.43431e-17
10128.208 2.34589e-17
10129.398 1.90031e-17
10130.589 1.72342e-17
10131.779 2.4375e-17
10132.97 1.10736e-17
10134.161 7.22738e-18
10135.351 3.00695e-17
10136.542 1.85493e-17
10137.732 2.60412e-17
10138.923 2.60085e-17
10140.114 2.40438e-17
10141.304 3.2497e-17
10142.495 3.03153e-17
10143.685 1.08421e-17
10144.876 2.87015e-17
10146.066 2.58225e-17
10147.257 2.48448e-17
10148.448 3.56485e-17
10149.638 3.60238e-17
10150.829 1.863e-17
10152.019 1.54956e-17
10153.21 2.38e-17
10154.401 3.08063e-17
10155.591 2.391e-17
10156.782 -4.21265e-19
10157.972 3.78762e-17
10159.163 3.52053e-17
10160.354 2.8751e-17
10161.544 4.86994e-17
10162.735 2.47086e-17
10163.925 4.6342e-18
10165.116 4.24805e-17
10166.307 1.82165e-17
10167.497 7.34545e-18
10168.688 2.98279e-17
10169.879 1.01757e-17
10171.069 3.83745e-17
10172.26 4.15639e-17
10173.45 1.2535e-17
10174.641 1.17585e-17
10175.832 2.21281e-17
10177.022 2.61482e-17
10178.213 4.5988e-17
10179.404 4.03162e-17
10180.594 1.04378e-17
10181.785 1.71351e-17
10182.976 1.23217e-17
10184.166 1.73609e-17
10185.357 5.29675e-18
10186.548 5.63003e-18
10187.738 4.45421e-17
10188.929 1.74855e-17
10190.12 3.85843e-17
10191.31 4.95439e-17
10192.501 4.83121e-17
10193.692 2.29765e-17
10194.883 3.14667e-17
10196.073 3.9541e-17
10197.264 3.29346e-17
10198.455 2.30177e-17
10199.645 3.55585e-17
10200.836 -6.66354e-20
10202.027 1.03497e-17
10203.218 2.41075e-17
10204.408 1.22026e-17
10205.599 3.26175e-17
10206.79 7.71055e-18
10207.981 2.80928e-17
10209.171 1.54691e-17
10210.362 1.45202e-17
10211.553 3.76754e-17
10212.744 5.83976e-18
10213.935 7.30067e-17
10215.125 -3.51329e-18
10216.316 3.4891e-17
10217.507 7.85422e-18
10218.698 2.9589e-17
10219.889 6.88598e-18
10221.079 2.42831e-17
10222.27 3.53491e-17
10223.461 9.71541e-18
10224.652 5.2022e-17
10225.843 4.33118e-17
10227.034 1.34112e-18
10228.225 1.68497e-17
10229.415 4.53591e-17
10230.606 2.94107e-18
10231.797 2.72056e-17
10232.988 1.52517e-17
10234.179 2.90326e-17
10235.37 5.20161e-17
10236.561 2.18389e-17
10237.752 2.0796e-17
10238.943 2.77172e-17
10240.134 5.06595e-18
10241.325 2.9148e-17
10242.516 1.68317e-17
10243.707 3.03636e-17
10244.898 2.75553e-17
10246.089 1.46092e-17
10247.28 2.10406e-17
10248.471 2.61595e-17
10249.662 3.08908e-17
10250.853 2.23177e-17
10252.044 3.18936e-18
10253.235 2.32446e-17
10254.426 3.98156e-17
10255.617 1.76147e-17
10256.808 3.11332e-17
10257.999 2.82562e-17
10259.19 1.13761e-17
10260.381 3.76658e-17
10261.572 1.09923e-17
10262.764 2.10353e-17
10263.955 3.17051e-17
10265.146 1.51753e-17
10266.337 2.93746e-17
10267.528 1.50966e-17
10268.719 3.25706e-17
10269.911 1.5314e-17
10271.102 2.07349e-17
10272.293 1.74376e-17
10273.484 1.25291e-17
10274.675 2.91098e-17
10275.867 4.08509e-17
10277.058 2.88685e-17
10278.249 1.07349e-17
10279.441 2.29037e-17
10280.632 2.12324e-17
10281.823 3.78916e-17
10283.014 5.87507e-17
10284.206 -1.3464e-17
10285.397 -5.91083e-17
10286.589 3.14564e-17
10287.78 2.16968e-17
10288.971 -2.64126e-17
10290.163 3.70213e-17
10291.354 -2.19673e-17
10292.546 -6.54164e-18
10293.737 4.30815e-17
10294.928 5.91784e-18
10296.12 1.66771e-17
10297.311 -4.59568e-18
10298.503 3.003e-17
10299.694 4.08222e-17
10300.886 2.069e-17
10302.077 4.18647e-17
10303.269 3.43723e-17
10304.46 -2.45838e-17
