# Wavelength Flux
# STATUS = PUBLIC
# OBJECT = 2019xdy
# TELESCOPE = Keck1
# INSTRUMENT =
# DATE-OBS = 2020.0124
# MJD =
# EXPTIME =
# SLIT =
# DISPERSER =
# SOURCE = 2023ApJ...943...41C
# FILTER =
# FLUX_STANDARD =
# EXTINCTION_CORRECTED = False
# PHOTOMETRY_CALIBRATED =
# FLUX_UNITS = erg/s/cm^2/Angstroms
# QUALITY =
# MIN_WAVE =
# MAX_WAVE =
# COMMENT =
3054.6538 4.18115e-17
3056.5935 1.79901e-17
3058.5342 7.44677e-17
3060.4751 -2.24472e-17
3062.417 2.00116e-17
3064.3591 -5.88988e-17
3066.302 1.45038e-17
3068.2456 2.17339e-17
3070.1899 -6.67182e-18
3072.1348 -2.42129e-17
3074.0801 -1.78848e-18
3076.0264 1.73781e-17
3077.9729 -1.56901e-17
3079.9204 3.48407e-17
3081.8684 3.52853e-17
3083.8169 2.41515e-18
3085.7661 4.61152e-17
3087.7158 -1.33487e-18
3089.6663 3.98181e-17
3091.6172 2.65546e-17
3093.5688 8.79787e-17
3095.521 -9.85777e-18
3097.4741 -1.63112e-17
3099.4275 1.15538e-17
3101.3816 4.37445e-17
3103.3362 -1.42651e-17
3105.2915 3.04151e-17
3107.2476 1.18031e-17
3109.2041 2.4147e-17
3111.1611 3.24354e-17
3113.1189 6.93462e-18
3115.0774 -9.94843e-18
3117.0361 2.91367e-17
3118.9958 1.89292e-17
3120.9561 2.09958e-17
3122.9167 1.08359e-17
3124.8782 1.52363e-17
3126.8401 2.38603e-17
3128.8025 1.01437e-17
3130.7659 -5.65583e-18
3132.7295 -2.15325e-17
3134.6938 -8.55396e-18
3136.6587 -8.37869e-19
3138.6245 -2.03386e-17
3140.5906 -2.93363e-18
3142.5574 3.04418e-18
3144.5247 1.02017e-17
3146.4924 -1.17629e-17
3148.4609 4.73162e-19
3150.4302 3.24178e-18
3152.3999 6.25276e-18
3154.3701 1.77955e-17
3156.3408 3.77055e-18
3158.3125 -1.08226e-17
3160.2844 9.1352e-18
3162.2571 -3.09108e-18
3164.2302 2.07478e-17
3166.2041 2.81831e-18
3168.1785 6.51743e-18
3170.1533 -3.41519e-18
3172.1289 7.10751e-18
3174.105 1.51764e-17
3176.0815 5.80836e-18
3178.0588 -1.0217e-17
3180.0366 1.00627e-17
3182.0151 -6.33418e-18
3183.9941 4.52607e-18
3185.9736 1.90002e-17
3187.9539 6.15074e-18
3189.9346 -6.12995e-18
3191.916 2.36094e-18
3193.8977 -7.85706e-19
3195.8801 -3.99719e-18
3197.863 4.69536e-18
3199.8467 -1.24261e-17
3201.8308 2.62578e-18
3203.8154 4.29451e-18
3205.8008 4.84226e-18
3207.7866 7.56791e-18
3209.7729 1.89837e-18
3211.76 1.50349e-17
3213.7473 -1.35648e-18
3215.7356 -1.19155e-19
3217.7241 1.91467e-17
3219.7134 8.68415e-18
3221.7031 3.7743e-18
3223.6934 7.47094e-18
3225.6843 -3.31366e-18
3227.6758 1.76759e-18
3229.6677 5.84479e-18
3231.6602 1.12286e-17
3233.6533 7.34186e-18
3235.647 7.39806e-18
3237.6411 4.08556e-18
3239.636 1.23832e-17
3241.6311 3.36934e-18
3243.627 -6.10799e-18
3245.6233 5.99612e-19
3247.6204 -1.60517e-18
3249.6179 9.43947e-18
3251.616 -4.86716e-18
3253.6145 -9.42506e-19
3255.6135 6.30487e-19
3257.6133 -2.97073e-18
3259.6133 5.73104e-18
3261.6143 4.5564e-18
3263.6155 1.29128e-17
3265.6172 6.12479e-18
3267.6196 8.53639e-18
3269.6226 1.01749e-17
3271.626 1.11417e-17
3273.6299 2.07171e-18
3275.6345 5.78162e-18
3277.6396 2.19664e-18
3279.6453 2.23774e-18
3281.6514 1.65701e-17
3283.658 2.05961e-18
3285.665 8.10642e-18
3287.6729 1.40129e-17
3289.6812 -4.93144e-19
3291.6897 9.47245e-18
3293.6992 1.51656e-17
3295.709 3.34728e-18
3297.7192 7.72949e-18
3299.7302 1.25689e-17
3301.7417 7.88969e-18
3303.7534 8.95032e-18
3305.7661 1.05951e-17
3307.7791 4.88712e-18
3309.7925 8.26865e-18
3311.8064 -5.34415e-19
3313.821 -6.12962e-18
3315.8362 4.30496e-18
3317.8516 1.36956e-17
3319.8677 4.92227e-18
3321.8843 5.98689e-18
3323.9014 3.33487e-18
3325.9192 5.4842e-18
3327.9373 4.91232e-18
3329.9558 9.60281e-19
3331.9751 1.16399e-17
3333.9949 7.74957e-18
3336.0149 6.04523e-18
3338.0356 5.57218e-18
3340.0569 4.34332e-18
3342.0786 1.78087e-18
3344.1008 5.76009e-18
3346.1235 1.12601e-17
3348.1467 1.41957e-17
3350.1704 1.27256e-17
3352.1948 6.31337e-18
3354.2195 8.0985e-18
3356.2449 1.02811e-17
3358.2705 3.3336e-18
3360.2969 6.79001e-18
3362.3235 8.76405e-18
3364.3508 3.45912e-18
3366.3787 9.03122e-18
3368.4067 7.26799e-18
3370.4355 8.57842e-18
3372.4648 6.04117e-18
3374.4944 3.95064e-18
3376.5249 5.35528e-18
3378.5554 8.51413e-18
3380.5867 6.48279e-20
3382.6184 4.5436e-18
3384.6506 6.83408e-18
3386.6833 7.35956e-18
3388.7166 9.18605e-18
3390.75 6.89833e-18
3392.7842 7.20286e-18
3394.8188 7.28962e-18
3396.854 5.09892e-18
3398.8896 1.03317e-17
3400.9258 9.53598e-18
3402.9624 1.06794e-17
3404.9993 6.16423e-18
3407.0369 1.39548e-17
3409.075 7.21717e-18
3411.1133 6.26418e-18
3413.1523 8.27156e-18
3415.1919 8.99146e-18
3417.2317 8.45255e-18
3419.2722 8.93692e-18
3421.313 6.07228e-18
3423.3545 8.58996e-18
3425.3962 8.52469e-18
3427.4385 8.17053e-18
3429.4812 5.62657e-18
3431.5244 8.91524e-18
3433.5681 7.00383e-18
3435.6123 6.98542e-18
3437.657 6.79947e-18
3439.7021 7.4672e-18
3441.7478 5.77138e-18
3443.7937 1.27583e-17
3445.8403 9.15964e-18
3447.8872 2.5866e-18
3449.9348 1.12546e-17
3451.9827 9.61021e-18
3454.031 1.69594e-18
3456.0798 6.30327e-18
3458.1292 8.71698e-18
3460.179 9.53525e-19
3462.2292 4.61698e-18
3464.2798 2.52021e-18
3466.3311 3.704e-18
3468.3826 6.58405e-18
3470.4346 4.95019e-18
3472.4871 2.2212e-18
3474.54 3.14171e-18
3476.5935 7.22905e-18
3478.6472 1.092e-17
3480.7017 2.34728e-18
3482.7563 9.90138e-18
3484.8115 1.5432e-18
3486.8672 3.984e-18
3488.9233 9.78134e-18
3490.98 8.93051e-18
3493.0371 2.47994e-18
3495.0945 6.92125e-18
3497.1523 6.3086e-18
3499.2107 1.19925e-17
3501.2693 6.23597e-18
3503.3286 3.53812e-18
3505.3882 8.80016e-18
3507.4485 5.72983e-18
3509.509 6.23155e-18
3511.5701 6.2351e-18
3513.6313 5.28763e-18
3515.6934 7.44467e-18
3517.7556 7.82617e-18
3519.8184 3.85669e-18
3521.8816 2.79939e-18
3523.9451 4.43426e-18
3526.009 9.26704e-18
3528.0735 7.34444e-18
3530.1384 6.05419e-18
3532.2039 5.03824e-18
3534.2695 6.08826e-18
3536.3357 5.78037e-18
3538.4023 4.22292e-18
3540.4695 9.93777e-18
3542.5371 1.0097e-17
3544.605 6.38738e-18
3546.6731 1.04428e-17
3548.7419 1.17516e-17
3550.8113 5.33097e-18
3552.8809 9.05569e-18
3554.9507 8.35167e-18
3557.0212 8.1723e-18
3559.092 5.91347e-18
3561.1633 6.97426e-18
3563.2351 5.76582e-18
3565.3074 1.06727e-17
3567.3799 6.89436e-18
3569.4529 7.26224e-18
3571.5261 1.1306e-17
3573.6001 8.30881e-18
3575.6743 8.3748e-18
3577.7488 1.48922e-17
3579.824 1.00595e-17
3581.8994 1.34251e-17
3583.9751 1.26534e-17
3586.0515 6.33798e-18
3588.1282 6.62158e-18
3590.2053 1.21235e-17
3592.2827 6.58257e-18
3594.3606 7.53088e-18
3596.439 1.00805e-17
3598.5176 1.08908e-17
3600.5967 1.47131e-17
3602.6765 1.00316e-17
3604.7563 1.40609e-17
3606.8367 8.54653e-18
3608.9175 1.2178e-17
3610.9985 9.10402e-18
3613.0801 1.27099e-17
3615.1621 1.33519e-17
3617.2444 1.38757e-17
3619.3271 6.0325e-18
3621.4102 1.82652e-17
3623.4939 1.16511e-17
3625.5776 1.04372e-17
3627.6621 1.44964e-17
3629.7466 1.28777e-17
3631.8318 6.26469e-18
3633.9172 1.01961e-17
3636.0032 1.15808e-17
3638.0896 1.12452e-17
3640.1763 1.04113e-17
3642.2632 1.09745e-17
3644.3506 1.069e-17
3646.4387 8.18914e-18
3648.5269 7.90579e-18
3650.6155 7.21207e-18
3652.7043 1.16633e-17
3654.7937 1.05539e-17
3656.8835 8.93648e-18
3658.9736 8.85703e-18
3661.0642 6.08951e-18
3663.1553 1.0525e-17
3665.2466 8.55888e-18
3667.3381 7.20801e-18
3669.4302 1.09964e-17
3671.5227 7.82003e-18
3673.6155 9.21234e-18
3675.7085 5.85141e-18
3677.8022 5.41039e-18
3679.896 6.89934e-18
3681.9905 6.79884e-18
3684.0852 9.6255e-18
3686.1802 6.90461e-18
3688.2756 8.19781e-18
3690.3713 6.88296e-18
3692.4675 6.54167e-18
3694.5642 4.7433e-18
3696.6611 4.42227e-18
3698.7583 6.19022e-18
3700.856 3.51885e-18
3702.9541 8.38587e-18
3705.0525 6.0551e-18
3707.1511 6.78377e-18
3709.2502 4.39098e-18
3711.3499 7.0537e-18
3713.4497 8.34243e-18
3715.5498 9.27468e-18
3717.6504 3.89895e-18
3719.7512 7.14486e-18
3721.8525 5.52314e-18
3723.9543 5.58293e-18
3726.0564 5.4829e-18
3728.1587 6.99559e-18
3730.2612 9.00695e-18
3732.3645 9.34032e-18
3734.4678 6.22901e-18
3736.5715 9.48868e-18
3738.6758 6.11101e-18
3740.7803 7.98027e-18
3742.885 4.90532e-18
3744.9902 9.26148e-18
3747.0959 9.53006e-18
3749.2019 6.07398e-18
3751.3081 3.99653e-18
3753.4146 6.54486e-18
3755.5215 8.55756e-18
3757.6289 7.39975e-18
3759.7366 9.4301e-18
3761.8445 5.85653e-18
3763.9529 1.01036e-17
3766.0615 6.84583e-18
3768.1704 7.20227e-18
3770.2798 8.79743e-18
3772.3894 1.02344e-17
3774.4995 8.90313e-18
3776.6101 8.68233e-18
3778.7207 9.55863e-18
3780.8318 7.76601e-18
3782.9431 6.54425e-18
3785.0549 8.69312e-18
3787.167 8.16512e-18
3789.2793 9.02968e-18
3791.3921 6.80624e-18
3793.5051 6.6956e-18
3795.6187 8.44621e-18
3797.7324 1.13741e-17
3799.8464 9.43896e-18
3801.9607 1.05856e-17
3804.0754 1.00401e-17
3806.1907 7.26748e-18
3808.3059 1.01811e-17
3810.4216 7.69567e-18
3812.5378 8.45837e-18
3814.6543 9.53315e-18
3816.771 6.58491e-18
3818.8879 1.01574e-17
3821.0051 7.74782e-18
3823.1228 9.95872e-18
3825.241 7.34333e-18
3827.3594 9.37128e-18
3829.4778 5.70847e-18
3831.5969 8.36925e-18
3833.7163 1.05585e-17
3835.8357 9.85141e-18
3837.9558 1.08081e-17
3840.0759 4.17003e-18
3842.1965 7.09567e-18
3844.3174 6.61377e-18
3846.4387 9.09542e-18
3848.5601 9.9672e-18
3850.6819 8.4088e-18
3852.804 9.02885e-18
3854.9265 1.00197e-17
3857.0493 7.09723e-18
3859.1724 1.00023e-17
3861.2957 1.18384e-17
3863.4194 1.08281e-17
3865.5435 1.09438e-17
3867.6677 8.546e-18
3869.7922 9.00051e-18
3871.9172 9.85127e-18
3874.0425 1.12132e-17
3876.168 9.44115e-18
3878.2939 9.62271e-18
3880.4199 9.32196e-18
3882.5464 1.19421e-17
3884.6731 1.13002e-17
3886.8003 1.0123e-17
3888.9275 1.09753e-17
3891.0554 1.23486e-17
3893.1831 1.08192e-17
3895.3115 1.18075e-17
3897.4402 1.18464e-17
3899.5688 1.15154e-17
3901.698 1.04558e-17
3903.8274 1.25194e-17
3905.9573 1.28582e-17
3908.0874 9.60676e-18
3910.2175 1.30115e-17
3912.3481 9.73373e-18
3914.479 1.13823e-17
3916.6104 1.28024e-17
3918.7417 1.19333e-17
3920.8735 8.48441e-18
3923.0056 1.33233e-17
3925.1382 1.33682e-17
3927.2708 1.18517e-17
3929.4038 1.23119e-17
3931.5369 1.35895e-17
3933.6704 1.33257e-17
3935.8042 1.27701e-17
3937.9382 1.21582e-17
3940.0728 8.71673e-18
3942.2073 1.29742e-17
3944.3423 1.11689e-17
3946.4775 1.05018e-17
3948.613 1.26152e-17
3950.7488 1.30452e-17
3952.8848 1.04399e-17
3955.0212 1.06496e-17
3957.1577 7.45926e-18
3959.2947 9.60761e-18
3961.4319 1.27412e-17
3963.5693 8.92438e-18
3965.707 9.0003e-18
3967.845 1.01305e-17
3969.9834 1.09111e-17
3972.1218 9.48851e-18
3974.2607 8.42546e-18
3976.3999 7.32998e-18
3978.5391 7.92623e-18
3980.6787 1.00833e-17
3982.8186 7.71555e-18
3984.9587 1.12854e-17
3987.0994 9.85773e-18
3989.24 8.445e-18
3991.3811 9.12536e-18
3993.5222 8.86563e-18
3995.6638 8.80164e-18
3997.8054 1.19454e-17
3999.9475 9.80606e-18
4002.0898 1.06933e-17
4004.2324 1.10634e-17
4006.3752 1.01059e-17
4008.5183 6.98405e-18
4010.6616 1.16669e-17
4012.8054 5.32006e-18
4014.9492 8.95618e-18
4017.0933 7.99175e-18
4019.2378 6.46746e-18
4021.3823 9.5407e-18
4023.5271 8.98672e-18
4025.6724 6.59993e-18
4027.8179 9.63769e-18
4029.9634 8.10964e-18
4032.1094 1.16847e-17
4034.2556 1.06861e-17
4036.4021 5.39377e-18
4038.5486 1.01954e-17
4040.6956 9.99648e-18
4042.8428 9.20835e-18
4044.9902 9.47916e-18
4047.1379 9.89953e-18
4049.2859 7.02792e-18
4051.4341 9.56554e-18
4053.5825 1.28404e-17
4055.7312 9.65903e-18
4057.8799 9.56629e-18
4060.0293 1.11767e-17
4062.1787 1.09374e-17
4064.3281 8.94127e-18
4066.478 1.00833e-17
4068.6284 1.14339e-17
4070.7786 1.22512e-17
4072.9292 8.65999e-18
4075.0801 1.11272e-17
4077.2312 1.15021e-17
4079.3826 1.31406e-17
4081.5342 1.13451e-17
4083.686 1.03644e-17
4085.8379 1.20452e-17
4087.9902 1.1341e-17
4090.1428 1.4764e-17
4092.2957 1.46013e-17
4094.4485 1.21504e-17
4096.6016 1.20677e-17
4098.7554 1.21761e-17
4100.9092 1.14221e-17
4103.063 1.49886e-17
4105.2173 1.13339e-17
4107.3716 1.77826e-17
4109.5259 1.16854e-17
4111.6807 9.8163e-18
4113.8359 1.41128e-17
4115.9912 1.47945e-17
4118.147 1.57257e-17
4120.3027 1.33575e-17
4122.4585 1.06605e-17
4124.6147 1.16874e-17
4126.771 9.98097e-18
4128.9277 1.10704e-17
4131.085 1.31426e-17
4133.2417 1.12083e-17
4135.3994 1.35675e-17
4137.5566 1.19041e-17
4139.7144 1.15376e-17
4141.8726 1.20343e-17
4144.0308 1.29006e-17
4146.189 9.97777e-18
4148.3477 1.15285e-17
4150.5068 1.07518e-17
4152.6655 9.78082e-18
4154.8252 1.36543e-17
4156.9844 1.53467e-17
4159.144 1.14513e-17
4161.3042 1.03983e-17
4163.4644 1.29067e-17
4165.6245 1.22361e-17
4167.7852 1.14107e-17
4169.9463 1.12578e-17
4172.1069 1.06257e-17
4174.2681 1.37647e-17
4176.4297 1.26848e-17
4178.5913 1.18367e-17
4180.7534 1.53901e-17
4182.915 1.18554e-17
4185.0776 1.06727e-17
4187.2397 1.05507e-17
4189.4028 1.11936e-17
4191.5654 1.1064e-17
4193.7285 1.15265e-17
4195.8916 1.22163e-17
4198.0552 1.14275e-17
4200.2192 1.11265e-17
4202.3828 1.25126e-17
4204.5469 1.15103e-17
4206.7114 9.97721e-18
4208.876 1.07815e-17
4211.0405 1.16727e-17
4213.2051 1.34184e-17
4215.3706 1.05107e-17
4217.5356 1.39508e-17
4219.7012 1.00494e-17
4221.8667 1.15482e-17
4224.0327 1.33656e-17
4226.1987 1.36709e-17
4228.3652 1.32483e-17
4230.5317 1.35366e-17
4232.6982 1.3033e-17
4234.8652 1.23731e-17
4237.0322 1.18085e-17
4239.1992 1.47186e-17
4241.3667 9.93734e-18
4243.5342 1.34705e-17
4245.7021 8.6358e-18
4247.8701 1.25911e-17
4250.0381 1.55514e-17
4252.2065 1.60202e-17
4254.375 1.05934e-17
4256.5439 1.64165e-17
4258.7129 1.28491e-17
4260.8818 1.22616e-17
4263.0513 1.19777e-17
4265.2207 1.01129e-17
4267.3906 1.4686e-17
4269.5601 1.44628e-17
4271.7305 1.24737e-17
4273.9004 1.16258e-17
4276.0708 1.20268e-17
4278.2412 1.31648e-17
4280.4121 1.03622e-17
4282.583 1.21833e-17
4284.7544 1.39633e-17
4286.9253 1.24507e-17
4289.0967 1.22377e-17
4291.2686 1.56814e-17
4293.4404 1.4903e-17
4295.6123 1.47843e-17
4297.7847 1.25867e-17
4299.957 1.44279e-17
4302.1294 1.72752e-17
4304.3022 1.51569e-17
4306.4751 1.58029e-17
4308.6479 1.37166e-17
4310.8213 1.45027e-17
4312.9946 1.84322e-17
4315.168 1.43257e-17
4317.3418 1.65741e-17
4319.5156 1.81056e-17
4321.6899 1.64399e-17
4323.8638 1.57675e-17
4326.0381 1.36817e-17
4328.2129 1.53512e-17
4330.3877 1.60637e-17
4332.5625 1.53073e-17
4334.7373 1.53319e-17
4336.9126 1.59576e-17
4339.0879 1.52898e-17
4341.2637 1.55116e-17
4343.4395 1.74683e-17
4345.6152 1.76679e-17
4347.791 2.28286e-17
4349.9673 1.70913e-17
4352.144 1.97429e-17
4354.3203 1.52841e-17
4356.4971 1.55424e-17
4358.6738 1.97973e-17
4360.8506 2.00058e-17
4363.0278 1.79513e-17
4365.2051 1.59567e-17
4367.3828 1.76336e-17
4369.5601 1.73114e-17
4371.7378 2.00775e-17
4373.916 1.51375e-17
4376.0942 1.70939e-17
4378.272 1.80172e-17
4380.4507 2.11075e-17
4382.6289 1.74818e-17
4384.8076 1.78174e-17
4386.9868 2.17275e-17
4389.1655 1.92891e-17
4391.3447 2.08316e-17
4393.5239 1.59925e-17
4395.7036 1.90589e-17
4397.8828 1.84967e-17
4400.0625 1.59162e-17
4402.2427 1.58456e-17
4404.4224 1.81203e-17
4406.6025 1.6919e-17
4408.7832 1.82824e-17
4410.9634 1.78285e-17
4413.144 1.77535e-17
4415.3247 1.88598e-17
4417.5059 1.89559e-17
4419.6865 1.75424e-17
4421.8677 1.73261e-17
4424.0493 1.82068e-17
4426.2305 1.43295e-17
4428.4121 1.9732e-17
4430.5938 1.58321e-17
4432.7759 1.91632e-17
4434.958 1.69526e-17
4437.1401 1.65331e-17
4439.3223 1.65396e-17
4441.5049 1.28194e-17
4443.687 1.70534e-17
4445.8701 1.46852e-17
4448.0527 1.53789e-17
4450.2358 1.78475e-17
4452.4189 1.60082e-17
4454.6021 1.76148e-17
4456.7852 1.27789e-17
4458.9688 1.54663e-17
4461.1523 1.79214e-17
4463.3364 1.65261e-17
4465.52 1.4971e-17
4467.7041 1.64585e-17
4469.8882 1.45902e-17
4472.0728 1.55554e-17
4474.2568 1.76997e-17
4476.4414 1.67569e-17
4478.626 1.72938e-17
4480.811 1.72456e-17
4482.9961 1.90638e-17
4485.1807 1.60598e-17
4487.3662 1.73614e-17
4489.5513 1.77783e-17
4491.7368 1.61115e-17
4493.9224 2.01088e-17
4496.1079 1.51443e-17
4498.2939 1.60011e-17
4500.4795 1.82286e-17
4502.6655 1.76565e-17
4504.8516 1.61073e-17
4507.0381 2.0831e-17
4509.2246 2.00669e-17
4511.4111 1.95098e-17
4513.5977 1.88255e-17
4515.7842 2.00817e-17
4517.9712 1.83944e-17
4520.1582 2.14732e-17
4522.3452 1.99438e-17
4524.5327 1.98261e-17
4526.7197 2.46275e-17
4528.9072 1.95959e-17
4531.0947 2.29255e-17
4533.2827 1.87113e-17
4535.4702 1.80073e-17
4537.6582 2.02578e-17
4539.8462 2.09201e-17
4542.0342 1.83921e-17
4544.2227 1.98212e-17
4546.4111 2.06269e-17
4548.5996 2.02258e-17
4550.7881 2.34064e-17
4552.9766 2.28615e-17
4555.1655 2.0496e-17
4557.3545 2.0525e-17
4559.5435 1.82793e-17
4561.7324 1.91546e-17
4563.9219 2.32788e-17
4566.1113 2.05071e-17
4568.3008 1.83266e-17
4570.4902 1.98375e-17
4572.6797 1.85214e-17
4574.8696 1.7662e-17
4577.0596 1.82161e-17
4579.2495 1.78115e-17
4581.4395 1.65824e-17
4583.6294 1.82912e-17
4585.8198 1.48159e-17
4588.0103 1.56595e-17
4590.2007 1.75559e-17
4592.3911 2.01476e-17
4594.582 1.86592e-17
4596.7725 1.88152e-17
4598.9634 1.87326e-17
4601.1548 1.86945e-17
4603.3457 1.72669e-17
4605.5366 1.93877e-17
4607.728 1.67761e-17
4609.9194 1.68345e-17
4612.1108 1.6669e-17
4614.3027 1.62443e-17
4616.4941 1.92325e-17
4618.686 1.45164e-17
4620.8779 1.83028e-17
4623.0698 1.9101e-17
4625.2617 1.37501e-17
4627.4536 1.785e-17
4629.646 1.90731e-17
4631.8384 1.68262e-17
4634.0308 1.91457e-17
4636.2231 1.8125e-17
4638.416 1.78182e-17
4640.6084 1.74253e-17
4642.8013 2.00234e-17
4644.9941 1.77684e-17
4647.187 1.69633e-17
4649.3799 1.85464e-17
4651.5732 1.72119e-17
4653.7661 1.8322e-17
4655.9595 1.74167e-17
4658.1528 1.66175e-17
4660.3462 1.5587e-17
4662.54 1.5103e-17
4664.7334 1.69191e-17
4666.9272 1.67891e-17
4669.1211 1.58977e-17
4671.3149 1.73001e-17
4673.5088 1.61924e-17
4675.7031 1.39654e-17
4677.897 1.4961e-17
4680.0913 1.47082e-17
4682.2856 1.63806e-17
4684.48 1.46241e-17
4686.6743 1.71694e-17
4688.8691 1.65334e-17
4691.0635 1.62093e-17
4693.2583 1.51156e-17
4695.4531 1.79859e-17
4697.6479 1.55178e-17
4699.8428 1.74076e-17
4702.0376 1.47586e-17
4704.2329 1.43022e-17
4706.4282 1.74354e-17
4708.6235 1.74898e-17
4710.8184 1.61747e-17
4713.0142 1.56871e-17
4715.2095 1.82325e-17
4717.4048 1.72433e-17
4719.6006 1.69318e-17
4721.7964 1.68496e-17
4723.9922 1.99633e-17
4726.188 1.73745e-17
4728.3838 1.81215e-17
4730.5796 1.81348e-17
4732.7759 2.00337e-17
4734.9717 1.86565e-17
4737.168 2.00756e-17
4739.3643 2.07705e-17
4741.5605 1.87791e-17
4743.7568 1.86083e-17
4745.9531 1.95619e-17
4748.1499 1.91179e-17
4750.3462 2.11537e-17
4752.543 1.98612e-17
4754.7397 2.09252e-17
4756.9365 1.84738e-17
4759.1333 2.05155e-17
4761.3306 2.17979e-17
4763.5273 2.19226e-17
4765.7246 1.92358e-17
4767.9214 2.07622e-17
4770.1187 2.38638e-17
4772.3159 2.01761e-17
4774.5132 2.21457e-17
4776.7104 2.21976e-17
4778.9082 2.24586e-17
4781.1055 2.30484e-17
4783.3032 2.23826e-17
4785.5005 2.25283e-17
4787.6982 2.62278e-17
4789.896 2.37614e-17
4792.0938 2.28455e-17
4794.2915 1.95005e-17
4796.4893 2.25522e-17
4798.6875 2.34186e-17
4800.8857 2.30762e-17
4803.0835 2.27907e-17
4805.2817 2.19134e-17
4807.48 2.35632e-17
4809.6782 2.3115e-17
4811.8765 2.37889e-17
4814.0747 2.29411e-17
4816.2734 2.46868e-17
4818.4717 2.68694e-17
4820.6704 2.3473e-17
4822.8687 2.49813e-17
4825.0674 2.67869e-17
4827.2661 2.43118e-17
4829.4648 2.62101e-17
4831.6636 2.64266e-17
4833.8623 2.61356e-17
4836.061 2.2733e-17
4838.2603 2.25223e-17
4840.459 2.50626e-17
4842.6582 2.47236e-17
4844.8574 2.78171e-17
4847.0566 2.59462e-17
4849.2554 2.56007e-17
4851.4546 2.47949e-17
4853.6543 2.69843e-17
4855.8535 2.68778e-17
4858.0527 2.68608e-17
4860.2524 2.65292e-17
4862.4517 2.48461e-17
4864.6514 2.69674e-17
4866.8506 2.34745e-17
4869.0503 2.85654e-17
4871.25 2.41278e-17
4873.4497 2.62945e-17
4875.6494 2.50461e-17
4877.8491 2.64368e-17
4880.0493 2.74094e-17
4882.249 2.54119e-17
4884.4487 2.64832e-17
4886.6489 2.67503e-17
4888.8486 2.39952e-17
4891.0488 2.47713e-17
4893.249 2.58884e-17
4895.4492 2.54067e-17
4897.6494 2.48419e-17
4899.8496 2.47856e-17
4902.0498 2.6322e-17
4904.25 2.32957e-17
4906.4502 2.48027e-17
4908.6504 2.06886e-17
4910.8511 2.37184e-17
4913.0513 2.5183e-17
4915.252 1.93003e-17
4917.4526 2.13375e-17
4919.6528 2.36162e-17
4921.8535 2.10753e-17
4924.0542 2.25547e-17
4926.2549 2.32752e-17
4928.4556 2.22616e-17
4930.6562 1.87791e-17
4932.8569 2.52504e-17
4935.0576 2.19254e-17
4937.2588 2.5915e-17
4939.4595 2.39792e-17
4941.6602 2.22354e-17
4943.8613 1.96315e-17
4946.0625 1.97786e-17
4948.2632 1.92685e-17
4950.4644 1.77681e-17
4952.6655 2.24437e-17
4954.8662 1.81074e-17
4957.0674 2.12533e-17
4959.2686 1.99772e-17
4961.4697 2.13517e-17
4963.6709 2.07049e-17
4965.8721 1.96578e-17
4968.0737 2.25613e-17
4970.2749 2.0728e-17
4972.4761 1.84159e-17
4974.6777 1.97883e-17
4976.8789 1.89573e-17
4979.0806 2.22559e-17
4981.2817 2.23999e-17
4983.4834 2.18805e-17
4985.6846 2.11903e-17
4987.8862 1.98461e-17
4990.0879 1.90911e-17
4992.2896 1.74097e-17
4994.4912 2.21749e-17
4996.6924 1.73337e-17
4998.8945 2.2923e-17
5001.0957 2.35244e-17
5003.2974 2.11709e-17
5005.4995 2.24047e-17
5007.7012 2.25861e-17
5009.9028 2.20994e-17
5012.1045 2.14065e-17
5014.3066 2.21963e-17
5016.5083 2.50496e-17
5018.71 1.94368e-17
5020.9121 2.55939e-17
5023.1138 2.31666e-17
5025.3159 2.49206e-17
5027.5176 2.29458e-17
5029.7197 1.96356e-17
5031.9214 2.20583e-17
5034.1235 2.45122e-17
5036.3257 2.00503e-17
5038.5278 2.22559e-17
5040.7295 2.16819e-17
5042.9316 1.91946e-17
5045.1338 1.89633e-17
5047.3359 2.22391e-17
5049.5381 2.00631e-17
5051.7402 2.1983e-17
5053.9424 2.09013e-17
5056.1445 2.12033e-17
5058.3467 1.94225e-17
5060.5488 2.14562e-17
5062.751 2.05281e-17
5064.9536 1.8239e-17
5067.1558 1.97416e-17
5069.3579 2.13818e-17
5071.5601 2.29622e-17
5073.7627 1.83359e-17
5075.9648 2.02752e-17
5078.167 2.10072e-17
5080.3696 2.14718e-17
5082.5718 2.27847e-17
5084.7744 2.33848e-17
5086.9766 1.98121e-17
5089.1787 1.87664e-17
5091.3813 2.01901e-17
5093.584 1.98706e-17
5095.7861 2.17787e-17
5097.9888 2.05723e-17
5100.1909 2.00643e-17
5102.3936 1.76834e-17
5104.5962 2.19929e-17
5106.7983 2.09073e-17
5109.001 2.11354e-17
5111.2036 1.84126e-17
5113.4058 1.92315e-17
5115.6084 1.92435e-17
5117.811 1.80149e-17
5120.0137 1.76122e-17
5122.2158 1.86189e-17
5124.4185 1.74456e-17
5126.6211 2.08888e-17
5128.8237 1.99243e-17
5131.0264 1.91622e-17
5133.229 1.60914e-17
5135.4316 1.86552e-17
5137.6338 2.0355e-17
5139.8364 1.91806e-17
5142.0391 1.99694e-17
5144.2417 1.9721e-17
5146.4443 2.00065e-17
5148.647 1.81237e-17
5150.8496 1.74859e-17
5153.0522 2.18778e-17
5155.2549 1.87038e-17
5157.4575 1.77872e-17
5159.6602 1.97421e-17
5161.8628 1.89241e-17
5164.0654 1.92095e-17
5166.2681 2.13582e-17
5168.4707 2.04166e-17
5170.6733 1.82639e-17
5172.876 2.2057e-17
5175.0786 1.84742e-17
5177.2812 2.13956e-17
5179.4839 2.01426e-17
5181.6865 1.725e-17
5183.8892 1.83768e-17
5186.0918 1.69339e-17
5188.2944 1.79006e-17
5190.4971 1.94557e-17
5192.6997 2.09357e-17
5194.9028 1.72286e-17
5197.105 1.9773e-17
5199.3081 2.33283e-17
5201.5107 2.07536e-17
5203.7134 2.04741e-17
5205.916 1.74004e-17
5208.1187 2.01707e-17
5210.3213 2.05385e-17
5212.5239 2.02147e-17
5214.7266 1.97973e-17
5216.9292 2.1535e-17
5219.1318 2.00455e-17
5221.3345 1.94528e-17
5223.5371 1.90206e-17
5225.7397 1.84553e-17
5227.9424 1.90434e-17
5230.145 2.0089e-17
5232.3477 1.74491e-17
5234.5503 1.93738e-17
5236.7529 1.89188e-17
5238.9556 2.01984e-17
5241.1582 1.90287e-17
5243.3608 1.95845e-17
5245.5635 1.96857e-17
5247.7661 1.89501e-17
5249.9683 1.76677e-17
5252.1709 1.76184e-17
5254.3735 2.27598e-17
5256.5762 2.20325e-17
5258.7788 1.82165e-17
5260.9814 1.91194e-17
5263.1841 1.79363e-17
5265.3862 1.98875e-17
5267.5889 1.69614e-17
5269.7915 2.10681e-17
5271.9941 1.83803e-17
5274.1963 1.96545e-17
5276.3989 2.0379e-17
5278.6016 2.02988e-17
5280.8042 2.06627e-17
5283.0063 2.09444e-17
5285.209 2.09892e-17
5287.4116 1.70689e-17
5289.6138 1.99727e-17
5291.8164 2.0017e-17
5294.019 1.98807e-17
5296.2212 2.04095e-17
5298.4238 1.99085e-17
5300.626 1.88141e-17
5302.8286 1.74335e-17
5305.0308 1.64148e-17
5307.2334 1.5543e-17
5309.4355 1.60748e-17
5311.6382 1.92887e-17
5313.8403 1.41663e-17
5316.0425 1.53552e-17
5318.2451 1.43005e-17
5320.4473 1.28044e-17
5322.6494 1.62743e-17
5324.8521 1.39021e-17
5327.0542 1.61969e-17
5329.2563 1.62595e-17
5331.4585 1.46423e-17
5333.6611 1.3021e-17
5335.8633 1.36891e-17
5338.0654 1.63196e-17
5340.2676 1.44305e-17
5342.4697 1.48785e-17
5344.6719 1.34518e-17
5346.874 1.59097e-17
5349.0762 1.45582e-17
5351.2783 1.49109e-17
5353.4805 1.37628e-17
5355.6826 1.57705e-17
5357.8848 1.67173e-17
5360.0869 1.48452e-17
5362.2891 1.55029e-17
5364.4912 1.3932e-17
5366.6929 1.5986e-17
5368.895 1.51986e-17
5371.0972 1.45017e-17
5373.2988 1.54469e-17
5375.501 1.57627e-17
5377.7031 1.47529e-17
5379.9048 1.66366e-17
5382.1069 1.68759e-17
5384.3086 1.88107e-17
5386.5107 1.89407e-17
5388.7124 1.70469e-17
5390.9146 1.71578e-17
5393.1162 1.68566e-17
5395.3179 1.91546e-17
5397.52 1.53068e-17
5399.7217 1.18395e-17
5401.9233 1.64301e-17
5404.1255 1.52546e-17
5406.3271 1.92635e-17
5408.5288 1.52809e-17
5410.7305 1.76541e-17
5412.9321 1.7498e-17
5415.1338 1.78036e-17
5417.3354 1.39996e-17
5419.5371 1.80036e-17
5421.7388 1.97928e-17
5423.9404 1.70753e-17
5426.1421 1.43539e-17
5428.3438 1.73893e-17
5430.5454 1.9679e-17
5432.7466 1.63709e-17
5434.9482 1.67698e-17
5437.1499 1.54132e-17
5439.3511 1.73192e-17
5441.5527 1.78657e-17
5443.7544 1.87963e-17
5445.9556 1.86034e-17
5448.1572 1.9178e-17
5450.3584 1.97274e-17
5452.5596 1.58937e-17
5454.7612 1.92751e-17
5456.9624 1.85131e-17
5459.1636 1.99787e-17
5461.3652 1.96935e-17
5463.5664 2.04351e-17
5465.7676 2.18538e-17
5467.9688 2.33411e-17
5470.1699 1.86874e-17
5472.3711 2.12643e-17
5474.5723 1.97335e-17
5476.7734 2.08833e-17
5478.9746 2.16498e-17
5481.1758 2.36042e-17
5483.377 2.07234e-17
5485.5781 2.15508e-17
5487.7793 2.2329e-17
5489.98 2.26014e-17
5492.1812 2.12506e-17
5494.3823 2.3528e-17
5496.583 2.44845e-17
5498.7842 2.25165e-17
5500.9849 2.5175e-17
5503.186 2.80383e-17
5505.3867 2.63608e-17
5507.5879 2.47136e-17
5509.7886 2.49327e-17
5511.9893 2.17045e-17
5514.1904 2.56069e-17
5516.3911 2.32412e-17
5518.5918 2.18561e-17
5520.7925 2.58859e-17
5522.9932 2.51792e-17
5525.1938 2.0342e-17
5527.3945 2.50081e-17
5529.5952 2.134e-17
5531.7959 2.46667e-17
5533.9966 2.48774e-17
5536.1968 2.63111e-17
5538.3975 2.70433e-17
5540.5981 2.63326e-17
5542.7988 2.74633e-17
5544.999 2.78865e-17
5547.1997 2.27395e-17
5549.3999 2.85295e-17
5551.6006 2.68554e-17
5553.8008 2.6338e-17
5556.0015 2.61104e-17
5558.2017 3.02606e-17
5560.4019 2.36653e-17
5562.6025 2.432e-17
5564.8027 2.57493e-17
5567.0029 2.79616e-17
5569.2031 2.46215e-17
5571.4033 2.97343e-17
5573.6035 2.50625e-17
5575.8037 2.18309e-17
5578.0039 2.82174e-17
5580.2041 2.93886e-17
5582.4043 2.97478e-17
5584.604 3.03471e-17
5586.8042 3.26278e-17
5589.0044 2.60476e-17
5591.2046 2.69583e-17
5593.4043 3.4344e-17
5595.6045 3.3374e-17
5597.8042 2.8419e-17
5600.0044 2.53677e-17
5602.2041 2.89249e-17
5604.4038 2.73922e-17
5606.604 3.30651e-17
5608.8037 2.53905e-17
5611.0034 2.70448e-17
5613.2031 3.4803e-17
5615.4033 3.21685e-17
5617.603 3.44276e-17
5619.8027 3.35825e-17
5622.0024 2.81041e-17
5624.2021 3.48346e-17
5626.4014 3.07053e-17
5628.6011 3.43135e-17
5630.8008 3.32602e-17
5633.0005 2.83653e-17
5635.2002 3.51551e-17
5637.3994 3.45781e-17
5639.5991 3.47598e-17
5640.0459 3.46848e-17
5641.1914 3.81221e-17
5642.3369 2.48853e-17
5643.4824 2.90891e-17
5644.6279 2.981e-17
5645.7734 2.37921e-17
5646.9189 2.58421e-17
5648.0645 3.70704e-17
5649.2104 2.87456e-17
5650.356 2.17537e-17
5651.5015 2.77722e-17
5652.6475 3.81579e-17
5653.793 3.49851e-17
5654.939 3.09667e-17
5656.085 3.13767e-17
5657.2305 3.45377e-17
5658.3765 3.02086e-17
5659.5225 2.96914e-17
5660.6685 2.26365e-17
5661.8145 3.47981e-17
5662.9604 3.55695e-17
5664.1064 2.53821e-17
5665.2524 2.69147e-17
5666.3989 2.86091e-17
5667.5449 2.78507e-17
5668.6909 3.15255e-17
5669.8374 3.56746e-17
5670.9834 2.65498e-17
5672.1299 2.77201e-17
5673.2759 2.81014e-17
5674.4224 3.19626e-17
5675.5688 2.6556e-17
5676.7153 3.20719e-17
5677.8613 2.95164e-17
5679.0078 2.77601e-17
5680.1543 2.78424e-17
5681.3008 3.11232e-17
5682.4473 3.14011e-17
5683.5942 2.71655e-17
5684.7407 2.43878e-17
5685.8872 2.82898e-17
5687.0342 2.80196e-17
5688.1807 3.01836e-17
5689.3276 2.65248e-17
5690.4741 3.26216e-17
5691.6211 2.83943e-17
5692.7681 2.71311e-17
5693.9146 2.37841e-17
5695.0615 2.70976e-17
5696.2085 3.41817e-17
5697.3555 3.13271e-17
5698.5024 2.69727e-17
5699.6494 2.51133e-17
5700.7964 2.78606e-17
5701.9438 3.30805e-17
5703.0908 3.11444e-17
5704.2378 2.60963e-17
5705.3853 2.82986e-17
5706.5322 2.79047e-17
5707.6797 2.92792e-17
5708.8271 2.58866e-17
5709.9741 3.93319e-17
5711.1216 2.92086e-17
5712.269 2.65078e-17
5713.4165 3.0105e-17
5714.564 3.16349e-17
5715.7114 2.87982e-17
5716.8589 2.43646e-17
5718.0063 2.14582e-17
5719.1543 2.92951e-17
5720.3018 2.81617e-17
5721.4492 2.49831e-17
5722.5972 2.64489e-17
5723.7446 2.35609e-17
5724.8926 2.66719e-17
5726.0405 3.06245e-17
5727.188 2.92726e-17
5728.3359 3.15131e-17
5729.4839 2.86324e-17
5730.6318 2.59075e-17
5731.7798 2.51257e-17
5732.9277 2.60342e-17
5734.0757 2.31754e-17
5735.2241 3.41633e-17
5736.3721 2.39472e-17
5737.52 2.34598e-17
5738.6685 2.65722e-17
5739.8164 2.76686e-17
5740.9648 2.77391e-17
5742.1133 2.09088e-17
5743.2612 2.49967e-17
5744.4097 2.58389e-17
5745.5581 2.66656e-17
5746.7065 2.7868e-17
5747.855 3.13832e-17
5749.0034 2.41666e-17
5750.1519 2.74539e-17
5751.3003 2.71778e-17
5752.4492 2.90658e-17
5753.5977 2.47853e-17
5754.7461 2.1112e-17
5755.895 2.54719e-17
5757.0435 2.78752e-17
5758.1924 1.96644e-17
5759.3413 2.34064e-17
5760.4902 2.72144e-17
5761.6387 2.20347e-17
5762.7876 2.1452e-17
5763.937 1.96597e-17
5765.0859 2.41609e-17
5766.2349 2.41281e-17
5767.3838 2.35987e-17
5768.5327 2.58291e-17
5769.6821 2.30295e-17
5770.8311 2.73347e-17
5771.98 1.99863e-17
5773.1294 2.0582e-17
5774.2788 2.65045e-17
5775.4282 2.34732e-17
5776.5771 2.81548e-17
5777.7266 2.22339e-17
5778.876 1.99755e-17
5780.0254 2.06691e-17
5781.1748 1.65708e-17
5782.3242 2.38336e-17
5783.4741 2.00968e-17
5784.6235 2.30593e-17
5785.7729 2.62173e-17
5786.9229 2.34016e-17
5788.0723 2.48612e-17
5789.2222 2.21758e-17
5790.3721 2.64693e-17
5791.5215 2.01711e-17
5792.6714 2.53185e-17
5793.8213 2.62949e-17
5794.9712 2.60453e-17
5796.1211 1.84018e-17
5797.271 2.25585e-17
5798.4209 2.23334e-17
5799.5713 2.46301e-17
5800.7212 2.69617e-17
5801.8711 2.10611e-17
5803.0215 2.38189e-17
5804.1714 2.36618e-17
5805.3218 2.22843e-17
5806.4722 1.77252e-17
5807.6226 2.34285e-17
5808.7725 1.99806e-17
5809.9233 2.78357e-17
5811.0737 2.32044e-17
5812.2241 2.56047e-17
5813.3745 2.41189e-17
5814.5249 2.17584e-17
5815.6753 2.3771e-17
5816.8262 1.64166e-17
5817.9766 2.49772e-17
5819.1274 1.95689e-17
5820.2778 2.7269e-17
5821.4287 2.24849e-17
5822.5796 2.93101e-17
5823.73 2.2561e-17
5824.8809 2.54685e-17
5826.0322 2.35125e-17
5827.1831 2.00211e-17
5828.334 2.32876e-17
5829.4849 2.08299e-17
5830.6357 2.15813e-17
5831.7871 2.26784e-17
5832.938 2.46008e-17
5834.0889 2.11447e-17
5835.2402 2.37794e-17
5836.3916 2.20473e-17
5837.5425 1.98102e-17
5838.6938 1.81045e-17
5839.8452 2.19307e-17
5840.9966 2.38443e-17
5842.1479 1.8975e-17
5843.2993 1.99779e-17
5844.4507 2.13147e-17
5845.6025 2.21247e-17
5846.7539 1.91905e-17
5847.9053 1.86079e-17
5849.0571 2.05636e-17
5850.209 2.037e-17
5851.3604 1.99298e-17
5852.5122 2.84091e-17
5853.6641 2.77023e-17
5854.8159 2.19063e-17
5855.9678 2.0807e-17
5857.1196 2.51935e-17
5858.2715 2.56735e-17
5859.4233 1.99571e-17
5860.5752 2.43797e-17
5861.7275 2.2953e-17
5862.8794 2.25057e-17
5864.0317 2.28882e-17
5865.1836 2.42655e-17
5866.3359 2.20857e-17
5867.4878 2.42505e-17
5868.6401 1.92668e-17
5869.7925 2.25726e-17
5870.9448 2.31465e-17
5872.0972 2.1421e-17
5873.2495 1.77826e-17
5874.4023 2.1457e-17
5875.5547 2.23173e-17
5876.707 1.69939e-17
5877.8594 1.93139e-17
5879.0122 2.09478e-17
5880.165 2.49255e-17
5881.3174 2.61242e-17
5882.4702 2.27935e-17
5883.623 2.01181e-17
5884.7759 2.00771e-17
5885.9287 1.92523e-17
5887.0815 2.42474e-17
5888.2344 1.63347e-17
5889.3872 1.32131e-17
5890.54 1.96875e-17
5891.6934 2.2147e-17
5892.8462 1.94419e-17
5893.9995 2.25613e-17
5895.1523 1.88308e-17
5896.3057 2.33826e-17
5897.459 2.36509e-17
5898.6118 2.43559e-17
5899.7651 2.1426e-17
5900.9185 2.27132e-17
5902.0718 2.08414e-17
5903.2251 2.95348e-17
5904.3789 2.29786e-17
5905.5322 2.52645e-17
5906.6855 2.52029e-17
5907.8394 2.37692e-17
5908.9927 2.05313e-17
5910.1465 2.22525e-17
5911.3003 2.26709e-17
5912.4536 2.3754e-17
5913.6074 1.92077e-17
5914.7612 1.98148e-17
5915.915 2.72412e-17
5917.0688 2.74043e-17
5918.2227 2.31569e-17
5919.3765 2.22662e-17
5920.5308 2.81674e-17
5921.6846 2.39389e-17
5922.8389 2.24808e-17
5923.9927 2.3563e-17
5925.147 2.4361e-17
5926.3008 2.33255e-17
5927.4551 1.91603e-17
5928.6094 2.22461e-17
5929.7637 2.64847e-17
5930.918 2.58106e-17
5932.0723 1.91317e-17
5933.2266 2.72072e-17
5934.3809 2.57635e-17
5935.5356 2.30021e-17
5936.6899 2.17206e-17
5937.8447 2.82272e-17
5938.999 2.36974e-17
5940.1538 2.12307e-17
5941.3086 2.29243e-17
5942.4629 2.09145e-17
5943.6177 2.14021e-17
5944.7725 2.36011e-17
5945.9272 2.42434e-17
5947.082 2.55964e-17
5948.2373 2.36343e-17
5949.3921 2.33806e-17
5950.5469 2.47661e-17
5951.7021 2.35878e-17
5952.8569 2.26246e-17
5954.0122 2.62653e-17
5955.167 2.3668e-17
5956.3223 2.01316e-17
5957.4775 2.37812e-17
5958.6328 2.93063e-17
5959.7881 2.68244e-17
5960.9434 2.38116e-17
5962.0986 2.0673e-17
5963.2539 2.6807e-17
5964.4092 2.59509e-17
5965.5649 2.73559e-17
5966.7202 2.40866e-17
5967.876 2.50865e-17
5969.0317 2.21092e-17
5970.187 2.51562e-17
5971.3428 2.15194e-17
5972.4985 2.33846e-17
5973.6543 2.30197e-17
5974.8101 2.29777e-17
5975.9658 2.69511e-17
5977.1216 2.76633e-17
5978.2773 2.15877e-17
5979.4336 2.5024e-17
5980.5894 1.99707e-17
5981.7451 2.38864e-17
5982.9014 2.42522e-17
5984.0576 2.2941e-17
5985.2134 2.118e-17
5986.3696 2.87137e-17
5987.5259 2.56897e-17
5988.6821 2.3426e-17
5989.8384 2.37171e-17
5990.9946 2.24702e-17
5992.1509 2.39379e-17
5993.3076 2.17681e-17
5994.4639 2.1733e-17
5995.6201 2.47057e-17
5996.7769 2.43809e-17
5997.9331 2.51724e-17
5999.0898 2.84398e-17
6000.2466 2.45698e-17
6001.4033 2.34972e-17
6002.5601 2.60108e-17
6003.7168 2.15053e-17
6004.8735 2.45342e-17
6006.0303 2.74226e-17
6007.187 2.7577e-17
6008.3438 2.8866e-17
6009.501 2.268e-17
6010.6577 2.47244e-17
6011.8149 2.36843e-17
6012.9717 2.60634e-17
6014.1289 2.77778e-17
6015.2861 2.34024e-17
6016.4434 3.10397e-17
6017.6006 2.80242e-17
6018.7578 2.40269e-17
6019.915 2.51479e-17
6021.0723 2.41027e-17
6022.2295 2.68885e-17
6023.3867 2.47201e-17
6024.5444 2.8195e-17
6025.7017 2.63517e-17
6026.8594 2.40788e-17
6028.0171 3.10198e-17
6029.1743 3.36198e-17
6030.332 2.32053e-17
6031.4897 2.61755e-17
6032.6475 2.45823e-17
6033.8052 2.7256e-17
6034.9629 2.47978e-17
6036.1206 2.44736e-17
6037.2788 2.7316e-17
6038.4365 2.1705e-17
6039.5942 2.54538e-17
6040.7524 2.44208e-17
6041.9102 2.44544e-17
6043.0684 2.46147e-17
6044.2266 2.12895e-17
6045.3848 2.89147e-17
6046.543 2.30636e-17
6047.7012 2.55532e-17
6048.8594 3.03339e-17
6050.0176 2.87716e-17
6051.1758 2.9846e-17
6052.334 2.6335e-17
6053.4927 3.03692e-17
6054.6509 2.93159e-17
6055.8096 2.43028e-17
6056.9678 2.57502e-17
6058.1265 2.77212e-17
6059.2852 2.27305e-17
6060.4438 2.45255e-17
6061.6025 2.55478e-17
6062.7612 2.57005e-17
6063.9199 2.75386e-17
6065.0786 2.46479e-17
6066.2373 2.87885e-17
6067.3965 2.41612e-17
6068.5552 2.572e-17
6069.7139 2.32684e-17
6070.873 3.10135e-17
6072.0322 2.20541e-17
6073.1914 2.72695e-17
6074.3501 2.76868e-17
6075.5093 2.49754e-17
6076.6685 2.33001e-17
6077.8276 2.41407e-17
6078.9868 2.63814e-17
6080.1465 2.94097e-17
6081.3057 2.38073e-17
6082.4648 2.45517e-17
6083.6245 2.63047e-17
6084.7837 2.71331e-17
6085.9434 2.77428e-17
6087.103 2.62052e-17
6088.2622 1.93867e-17
6089.4219 2.45349e-17
6090.5815 2.34619e-17
6091.7412 2.49535e-17
6092.9009 2.55807e-17
6094.0605 2.4501e-17
6095.2202 2.50101e-17
6096.3804 2.55508e-17
6097.54 2.12523e-17
6098.7002 2.18397e-17
6099.8599 2.6519e-17
6101.02 2.17298e-17
6102.1797 2.76649e-17
6103.3398 2.35432e-17
6104.5 2.32504e-17
6105.6602 2.13762e-17
6106.8203 2.32284e-17
6107.9805 2.61446e-17
6109.1406 2.29067e-17
6110.3008 2.83769e-17
6111.4614 2.84332e-17
6112.6216 2.74376e-17
6113.7822 3.01009e-17
6114.9424 2.29696e-17
6116.103 2.36491e-17
6117.2637 2.04047e-17
6118.4238 2.37306e-17
6119.5845 2.16779e-17
6120.7451 2.21006e-17
6121.9058 2.45023e-17
6123.0664 1.85885e-17
6124.2275 2.07468e-17
6125.3882 1.87092e-17
6126.5488 1.86728e-17
6127.71 2.39263e-17
6128.8706 1.63703e-17
6130.0317 2.1e-17
6131.1924 2.66652e-17
6132.3535 1.82924e-17
6133.5146 2.2711e-17
6134.6758 2.10954e-17
6135.8369 2.04712e-17
6136.998 2.68922e-17
6138.1592 1.53284e-17
6139.3203 2.30561e-17
6140.4819 1.78235e-17
6141.6431 2.27467e-17
6142.8042 1.72506e-17
6143.9658 1.89941e-17
6145.127 1.91059e-17
6146.2886 2.22395e-17
6147.4502 1.95693e-17
6148.6118 1.26908e-17
6149.7734 1.95817e-17
6150.9346 2.51814e-17
6152.0962 2.06916e-17
6153.2583 1.77491e-17
6154.4199 1.64888e-17
6155.5815 2.05335e-17
6156.7432 2.10836e-17
6157.9053 2.00563e-17
6159.0669 1.91589e-17
6160.229 1.46282e-17
6161.3911 1.82625e-17
6162.5532 1.96176e-17
6163.7148 1.94136e-17
6164.877 1.93269e-17
6166.0391 1.74147e-17
6167.2012 1.9892e-17
6168.3633 1.81877e-17
6169.5259 1.90126e-17
6170.688 2.02454e-17
6171.8501 1.74434e-17
6173.0127 1.78356e-17
6174.1748 2.16551e-17
6175.3374 1.73234e-17
6176.5 2.25219e-17
6177.6621 1.60318e-17
6178.8247 2.31987e-17
6179.9873 1.95527e-17
6181.1499 2.32766e-17
6182.3125 2.43301e-17
6183.4751 1.8154e-17
6184.6382 1.90642e-17
6185.8008 1.6483e-17
6186.9634 2.05604e-17
6188.1265 1.66193e-17
6189.2891 1.74262e-17
6190.4521 2.19313e-17
6191.6152 1.61795e-17
6192.7778 2.15751e-17
6193.9409 2.17693e-17
6195.104 2.18493e-17
6196.2671 2.32762e-17
6197.4302 1.97394e-17
6198.5933 2.20415e-17
6199.7568 1.77006e-17
6200.9199 1.8158e-17
6202.083 2.18454e-17
6203.2466 1.96524e-17
6204.4097 1.88111e-17
6205.5732 2.07305e-17
6206.7368 2.18131e-17
6207.8999 2.16205e-17
6209.0635 1.86617e-17
6210.2271 2.37223e-17
6211.3906 1.8334e-17
6212.5542 1.66359e-17
6213.7178 2.11809e-17
6214.8813 2.01159e-17
6216.0454 2.05809e-17
6217.209 2.0169e-17
6218.3726 1.69755e-17
6219.5366 2.32756e-17
6220.7007 2.19035e-17
6221.8643 1.95117e-17
6223.0283 1.74454e-17
6224.1924 1.99225e-17
6225.3564 2.42508e-17
6226.5205 2.19284e-17
6227.6846 2.18311e-17
6228.8486 2.17241e-17
6230.0127 2.38282e-17
6231.1768 1.78376e-17
6232.3413 2.38225e-17
6233.5054 1.99081e-17
6234.6699 2.1246e-17
6235.834 2.11167e-17
6236.9985 2.4222e-17
6238.1631 2.33624e-17
6239.3276 2.07344e-17
6240.4917 1.78927e-17
6241.6562 2.0879e-17
6242.8208 1.6952e-17
6243.9854 2.17173e-17
6245.1504 2.83681e-17
6246.3149 2.16374e-17
6247.4795 2.4295e-17
6248.6445 1.79802e-17
6249.8091 2.18286e-17
6250.9741 2.06944e-17
6252.1387 2.27266e-17
6253.3037 1.76113e-17
6254.4688 1.68696e-17
6255.6338 1.98218e-17
6256.7988 2.53184e-17
6257.9639 2.27432e-17
6259.1289 2.09954e-17
6260.2939 2.07141e-17
6261.459 2.19579e-17
6262.624 1.81589e-17
6263.7896 2.31844e-17
6264.9546 2.55519e-17
6266.1201 2.40413e-17
6267.2852 2.23463e-17
6268.4507 2.15003e-17
6269.6162 2.48278e-17
6270.7817 2.08635e-17
6271.9473 1.96186e-17
6273.1128 1.71491e-17
6274.2783 2.17893e-17
6275.4438 1.96519e-17
6276.6094 1.8648e-17
6277.7749 2.15445e-17
6278.9409 2.05933e-17
6280.1064 1.83772e-17
6281.272 2.50076e-17
6282.438 2.34187e-17
6283.604 2.08828e-17
6284.77 2.06726e-17
6285.9355 2.01276e-17
6287.1016 2.05429e-17
6288.2676 2.64493e-17
6289.4336 2.12223e-17
6290.5996 2.21953e-17
6291.7656 2.59828e-17
6292.9321 1.98832e-17
6294.0981 1.96696e-17
6295.2642 2.24586e-17
6296.4307 2.09294e-17
6297.5967 2.21497e-17
6298.7632 1.76307e-17
6299.9297 2.12352e-17
6301.0957 1.95794e-17
6302.2622 2.32829e-17
6303.4287 2.25722e-17
6304.5952 1.87915e-17
6305.7617 2.57749e-17
6306.9282 2.15605e-17
6308.0952 2.18709e-17
6309.2617 2.26733e-17
6310.4282 1.95133e-17
6311.5952 2.09037e-17
6312.7617 2.22527e-17
6313.9287 1.84622e-17
6315.0952 2.03743e-17
6316.2622 2.34091e-17
6317.4292 2.01611e-17
6318.5962 2.40087e-17
6319.7632 2.21291e-17
6320.9302 2.20185e-17
6322.0972 2.43797e-17
6323.2642 2.2868e-17
6324.4312 2.2588e-17
6325.5981 2.32538e-17
6326.7656 2.30693e-17
6327.9326 2.14808e-17
6329.1001 2.61908e-17
6330.2671 2.41491e-17
6331.4346 2.37031e-17
6332.6021 2.04544e-17
6333.7695 2.50243e-17
6334.9365 2.3452e-17
6336.104 2.41904e-17
6337.2715 2.41875e-17
6338.439 2.10191e-17
6339.6069 2.30279e-17
6340.7744 2.55984e-17
6341.9419 2.46407e-17
6343.1094 2.11614e-17
6344.2773 2.20738e-17
6345.4453 2.45269e-17
6346.6128 2.36241e-17
6347.7808 2.44683e-17
6348.9487 2.13881e-17
6350.1162 2.1269e-17
6351.2842 2.33739e-17
6352.4521 2.23884e-17
6353.6201 2.26843e-17
6354.7881 1.98097e-17
6355.9565 2.57162e-17
6357.1245 2.10843e-17
6358.2925 2.22391e-17
6359.4609 2.08634e-17
6360.6289 2.41553e-17
6361.7969 2.49935e-17
6362.9653 2.27827e-17
6364.1338 2.72551e-17
6365.3018 2.63525e-17
6366.4702 2.47958e-17
6367.6387 2.4382e-17
6368.8071 2.33964e-17
6369.9756 2.22905e-17
6371.144 2.58346e-17
6372.313 2.39332e-17
6373.4814 2.34113e-17
6374.6499 2.62364e-17
6375.8184 2.51975e-17
6376.9873 2.70689e-17
6378.1558 2.58237e-17
6379.3247 2.62371e-17
6380.4937 2.65507e-17
6381.6626 2.66734e-17
6382.8311 2.33396e-17
6384.0 2.31604e-17
6385.1689 2.53295e-17
6386.3379 2.75552e-17
6387.5068 2.70169e-17
6388.6758 2.55974e-17
6389.8452 2.24226e-17
6391.0142 2.66407e-17
6392.1831 2.50935e-17
6393.3525 2.62188e-17
6394.5215 2.55235e-17
6395.6909 2.79265e-17
6396.8604 2.60069e-17
6398.0293 2.64954e-17
6399.1987 2.27627e-17
6400.3682 2.04051e-17
6401.5376 2.41556e-17
6402.707 2.92589e-17
6403.8765 2.28846e-17
6405.0459 2.06395e-17
6406.2158 2.24955e-17
6407.3853 2.56024e-17
6408.5547 2.46757e-17
6409.7246 2.69172e-17
6410.894 2.59858e-17
6412.064 2.39381e-17
6413.2334 2.48208e-17
6414.4033 2.20394e-17
6415.5732 2.8702e-17
6416.7432 2.4328e-17
6417.9131 2.217e-17
6419.083 2.34395e-17
6420.2529 2.69838e-17
6421.4229 2.50324e-17
6422.5928 2.59053e-17
6423.7627 2.48483e-17
6424.9331 2.59485e-17
6426.103 2.60423e-17
6427.2734 2.17273e-17
6428.4434 2.71019e-17
6429.6138 2.40637e-17
6430.7837 2.71174e-17
6431.9541 2.10722e-17
6433.1245 2.61655e-17
6434.2949 2.88756e-17
6435.4653 2.70836e-17
6436.6357 2.87329e-17
6437.8062 2.40682e-17
6438.9766 2.28781e-17
6440.147 2.77964e-17
6441.3179 2.7066e-17
6442.4883 2.70989e-17
6443.6592 2.35648e-17
6444.8296 2.57772e-17
6446.0005 2.62578e-17
6447.1709 2.24858e-17
6448.3418 2.30664e-17
6449.5127 2.72664e-17
6450.6836 2.98039e-17
6451.8545 2.59301e-17
6453.0254 2.73283e-17
6454.1963 2.73065e-17
6455.3672 2.71859e-17
6456.5381 2.52235e-17
6457.709 2.91575e-17
6458.8799 2.41418e-17
6460.0513 2.86179e-17
6461.2222 2.73471e-17
6462.3936 2.55676e-17
6463.5649 2.25104e-17
6464.7358 2.82793e-17
6465.9072 2.82603e-17
6467.0786 2.80762e-17
6468.25 2.74893e-17
6469.4214 2.55424e-17
6470.5928 2.60971e-17
6471.7642 2.53849e-17
6472.9355 2.76646e-17
6474.1069 2.74115e-17
6475.2783 2.31908e-17
6476.4502 2.66908e-17
6477.6216 2.57272e-17
6478.7935 2.72255e-17
6479.9648 2.28514e-17
6481.1367 2.65192e-17
6482.3081 3.08196e-17
6483.48 2.91175e-17
6484.6519 2.5231e-17
6485.8237 2.61336e-17
6486.9956 2.78396e-17
6488.1675 2.48301e-17
6489.3394 2.53328e-17
6490.5112 2.38424e-17
6491.6831 2.8416e-17
6492.8555 2.63453e-17
6494.0273 2.63949e-17
6495.1992 2.79604e-17
6496.3716 2.76105e-17
6497.5435 2.46835e-17
6498.7158 2.4241e-17
6499.8882 2.46766e-17
6501.0601 2.52875e-17
6502.2324 2.64963e-17
6503.4048 2.80551e-17
6504.5771 2.97739e-17
6505.7495 2.66857e-17
6506.9219 2.56325e-17
6508.0942 2.79201e-17
6509.2671 2.47681e-17
6510.4395 2.3529e-17
6511.6118 3.07378e-17
6512.7847 2.90707e-17
6513.957 2.63635e-17
6515.1299 2.73104e-17
6516.3022 2.85265e-17
6517.4751 2.48108e-17
6518.6479 3.12004e-17
6519.8208 2.9805e-17
6520.9932 2.98189e-17
6522.166 2.86836e-17
6523.3389 2.32656e-17
6524.5122 2.60241e-17
6525.6851 2.6525e-17
6526.8579 2.66632e-17
6528.0308 2.76043e-17
6529.2036 2.50699e-17
6530.377 2.80067e-17
6531.5498 2.7653e-17
6532.7231 2.38014e-17
6533.896 2.48098e-17
6535.0693 2.44509e-17
6536.2427 3.401e-17
6537.416 2.66275e-17
6538.5889 2.5546e-17
6539.7622 2.35367e-17
6540.936 2.54298e-17
6542.1089 2.59834e-17
6543.2827 2.70091e-17
6544.4561 2.37772e-17
6545.6294 2.41188e-17
6546.8027 2.36206e-17
6547.9766 2.53517e-17
6549.1499 2.41853e-17
6550.3237 2.7811e-17
6551.4971 2.98132e-17
6552.6709 2.89873e-17
6553.8447 2.93708e-17
6555.0181 3.02353e-17
6556.1919 2.77519e-17
6557.3657 2.4414e-17
6558.5396 2.1779e-17
6559.7134 2.04767e-17
6560.8872 1.98768e-17
6562.061 2.36029e-17
6563.2349 2.38703e-17
6564.4092 2.63795e-17
6565.583 2.53638e-17
6566.7573 2.42316e-17
6567.9312 2.69292e-17
6569.1055 2.85702e-17
6570.2793 2.84286e-17
6571.4536 2.65673e-17
6572.6279 2.48835e-17
6573.8018 2.50527e-17
6574.9761 2.80221e-17
6576.1504 2.25602e-17
6577.3247 2.49278e-17
6578.499 2.41382e-17
6579.6733 2.46702e-17
6580.8477 2.49264e-17
6582.0225 2.56982e-17
6583.1968 2.50106e-17
6584.3711 2.61649e-17
6585.5459 2.57192e-17
6586.7202 2.78104e-17
6587.895 2.15596e-17
6589.0698 2.34189e-17
6590.2441 2.2611e-17
6591.4189 2.37894e-17
6592.5938 2.48846e-17
6593.7686 2.42794e-17
6594.9429 2.65507e-17
6596.1177 2.4916e-17
6597.293 2.9015e-17
6598.4678 2.55191e-17
6599.6426 2.81622e-17
6600.8174 2.38719e-17
6601.9922 2.40038e-17
6603.1675 2.6328e-17
6604.3423 2.14781e-17
6605.5176 2.33015e-17
6606.6924 2.86136e-17
6607.8677 2.5021e-17
6609.043 2.52089e-17
6610.2178 2.60417e-17
6611.3931 2.95582e-17
6612.5684 2.86671e-17
6613.7437 2.49128e-17
6614.9189 2.72983e-17
6616.0942 3.18746e-17
6617.2695 2.6135e-17
6618.4448 2.52846e-17
6619.6206 2.75252e-17
6620.7959 2.64744e-17
6621.9712 2.47216e-17
6623.147 2.87873e-17
6624.3223 2.8846e-17
6625.498 2.55745e-17
6626.6733 2.92157e-17
6627.8491 2.86922e-17
6629.0249 2.72361e-17
6630.2007 2.64166e-17
6631.376 2.86229e-17
6632.5518 2.88203e-17
6633.728 2.50661e-17
6634.9038 2.6726e-17
6636.0796 2.99545e-17
6637.2554 2.76067e-17
6638.4312 3.10632e-17
6639.6069 3.12423e-17
6640.7832 2.91839e-17
6641.959 2.54044e-17
6643.1348 2.82098e-17
6644.311 2.48699e-17
6645.4873 2.67098e-17
6646.6631 2.7109e-17
6647.8394 2.6604e-17
6649.0156 2.90391e-17
6650.1919 2.6437e-17
6651.3682 3.03632e-17
6652.5444 2.82813e-17
6653.7207 2.69686e-17
6654.897 2.97557e-17
6656.0732 2.8426e-17
6657.2495 2.93326e-17
6658.4258 2.94257e-17
6659.6025 2.95421e-17
6660.7788 3.10805e-17
6661.9556 2.82491e-17
6663.1318 2.597e-17
6664.3086 2.25183e-17
6665.4849 2.65116e-17
6666.6616 2.98962e-17
6667.8384 2.71772e-17
6669.0151 2.91156e-17
6670.1914 2.6999e-17
6671.3682 3.14256e-17
6672.5449 2.86931e-17
6673.7217 2.9169e-17
6674.8989 2.91263e-17
6676.0757 2.64129e-17
6677.2524 2.92227e-17
6678.4292 2.54295e-17
6679.6064 2.89627e-17
6680.7832 2.95007e-17
6681.96 2.64141e-17
6683.1372 2.59129e-17
6684.3145 2.72559e-17
6685.4912 2.98313e-17
6686.6685 2.79779e-17
6687.8457 2.8332e-17
6689.0229 2.93576e-17
6690.2002 2.83427e-17
6691.3774 2.75555e-17
6692.5547 3.19875e-17
6693.7319 2.83712e-17
6694.9092 2.93432e-17
6696.0864 3.05289e-17
6697.2637 2.69839e-17
6698.4414 2.86592e-17
6699.6187 2.49613e-17
6700.7959 2.97544e-17
6701.9736 2.49817e-17
6703.1509 3.12223e-17
6704.3286 2.70471e-17
6705.5063 2.73546e-17
6706.6836 2.75932e-17
6707.8613 2.96239e-17
6709.0391 2.5994e-17
6710.2168 2.78721e-17
6711.3945 2.95333e-17
6712.5723 2.891e-17
6713.75 2.91698e-17
6714.9277 2.71398e-17
6716.1055 2.91578e-17
6717.2837 2.83449e-17
6718.4614 2.73761e-17
6719.6392 2.74222e-17
6720.8174 2.85261e-17
6721.9951 2.75508e-17
6723.1733 2.62896e-17
6724.3511 3.11081e-17
6725.5293 2.67317e-17
6726.7075 2.98388e-17
6727.8857 2.67768e-17
6729.0635 2.69909e-17
6730.2417 2.79099e-17
6731.4199 2.87045e-17
6732.5981 2.71747e-17
6733.7764 2.71134e-17
6734.9546 2.84061e-17
6736.1333 2.92567e-17
6737.3115 2.43964e-17
6738.4897 2.7445e-17
6739.6685 2.62854e-17
6740.8467 2.60436e-17
6742.0254 2.41289e-17
6743.2036 2.53881e-17
6744.3823 2.54861e-17
6745.5605 2.53018e-17
6746.7393 2.73306e-17
6747.918 2.4035e-17
6749.0967 2.40404e-17
6750.2754 2.37023e-17
6751.4536 2.70898e-17
6752.6328 2.81504e-17
6753.8115 2.45364e-17
6754.9902 2.87313e-17
6756.1689 2.65387e-17
6757.3477 2.39349e-17
6758.5264 2.8743e-17
6759.7056 2.60666e-17
6760.8843 2.73131e-17
6762.0635 2.837e-17
6763.2422 2.80909e-17
6764.4214 2.55459e-17
6765.6001 2.7666e-17
6766.7793 2.94324e-17
6767.9585 2.67981e-17
6769.1377 2.7608e-17
6770.3164 2.73351e-17
6771.4956 2.36099e-17
6772.6748 2.41794e-17
6773.854 2.60271e-17
6775.0332 2.6291e-17
6776.2129 2.76372e-17
6777.3921 2.65009e-17
6778.5713 2.57679e-17
6779.7505 2.31323e-17
6780.9302 2.676e-17
6782.1094 2.56247e-17
6783.2886 2.45023e-17
6784.4683 2.61645e-17
6785.6479 2.88295e-17
6786.8271 2.50482e-17
6788.0068 2.60965e-17
6789.1865 2.95625e-17
6790.3662 2.26723e-17
6791.5459 3.03425e-17
6792.7251 2.49487e-17
6793.9048 2.39381e-17
6795.0845 2.46808e-17
6796.2642 2.66507e-17
6797.4443 2.4184e-17
6798.624 2.55189e-17
6799.8037 2.80889e-17
6800.9839 2.52328e-17
6802.1636 2.63406e-17
6803.3433 2.66896e-17
6804.5234 2.75374e-17
6805.7031 2.47387e-17
6806.8833 2.46675e-17
6808.0635 2.72968e-17
6809.2432 2.42295e-17
6810.4233 2.7865e-17
6811.6035 3.00507e-17
6812.7837 2.43572e-17
6813.9639 2.37042e-17
6815.144 2.39188e-17
6816.3242 2.61615e-17
6817.5044 2.41668e-17
6818.6846 2.68453e-17
6819.8647 2.61457e-17
6821.0454 2.44351e-17
6822.2256 2.88284e-17
6823.4058 2.33465e-17
6824.5864 2.71651e-17
6825.7666 2.64365e-17
6826.9473 2.457e-17
6828.1274 2.64565e-17
6829.3081 2.44487e-17
6830.4888 2.75066e-17
6831.6694 2.27465e-17
6832.8496 2.18313e-17
6834.0303 2.75414e-17
6835.2109 2.39167e-17
6836.3916 2.6875e-17
6837.5723 2.65293e-17
6838.7529 2.57325e-17
6839.9336 2.44575e-17
6841.1147 2.35482e-17
6842.2954 2.52903e-17
6843.4761 2.38675e-17
6844.6572 2.61842e-17
6845.8379 2.73264e-17
6847.019 2.67735e-17
6848.1997 2.91679e-17
6849.3809 2.69103e-17
6850.5615 2.56893e-17
6851.7427 2.47956e-17
6852.9238 2.68646e-17
6854.1045 2.34119e-17
6855.2856 2.61646e-17
6856.4668 2.36633e-17
6857.6479 2.69838e-17
6858.8291 2.67988e-17
6860.0103 2.59548e-17
6861.1914 2.74629e-17
6862.373 2.32788e-17
6863.5542 2.31441e-17
6864.7354 2.27011e-17
6865.917 2.12299e-17
6867.0981 2.29936e-17
6868.2793 2.36075e-17
6869.4609 2.71544e-17
6870.6421 2.82031e-17
6871.8237 2.48242e-17
6873.0054 2.66518e-17
6874.1865 2.41394e-17
6875.3682 2.20989e-17
6876.5498 2.60874e-17
6877.7314 2.7244e-17
6878.9131 2.5854e-17
6880.0947 2.48336e-17
6881.2764 2.46213e-17
6882.458 2.40359e-17
6883.6396 2.52523e-17
6884.8213 2.4924e-17
6886.0034 2.27339e-17
6887.1851 2.2264e-17
6888.3667 2.37196e-17
6889.5488 2.42771e-17
6890.7305 2.1974e-17
6891.9126 2.28639e-17
6893.0942 2.25463e-17
6894.2764 2.47745e-17
6895.4585 2.27344e-17
6896.6401 2.28457e-17
6897.8223 2.55467e-17
6899.0044 2.50785e-17
6900.1865 2.47843e-17
6901.3687 2.44227e-17
6902.5508 2.31934e-17
6903.7329 2.603e-17
6904.915 2.09677e-17
6906.0972 2.00181e-17
6907.2793 2.17165e-17
6908.4619 2.04658e-17
6909.644 2.25437e-17
6910.8262 2.11975e-17
6912.0088 2.11802e-17
6913.1909 2.05349e-17
6914.3735 2.07613e-17
6915.5557 2.10534e-17
6916.7383 2.37033e-17
6917.9209 2.01806e-17
6919.103 2.51704e-17
6920.2856 1.97902e-17
6921.4683 1.99055e-17
6922.6509 1.86305e-17
6923.8335 2.07367e-17
6925.0161 2.35772e-17
6926.1987 2.32272e-17
6927.3813 2.1931e-17
6928.564 2.15211e-17
6929.7466 2.23041e-17
6930.9297 2.05921e-17
6932.1123 2.25283e-17
6933.2949 1.9907e-17
6934.478 2.37389e-17
6935.6606 2.11369e-17
6936.8438 2.16138e-17
6938.0264 2.1743e-17
6939.2095 2.32098e-17
6940.3926 2.11311e-17
6941.5752 2.06346e-17
6942.7583 2.04941e-17
6943.9414 2.66332e-17
6945.1245 2.26309e-17
6946.3076 2.32483e-17
6947.4907 1.97345e-17
6948.6738 1.89379e-17
6949.8569 2.13909e-17
6951.04 2.383e-17
6952.2231 2.10799e-17
6953.4067 2.24574e-17
6954.5898 2.36102e-17
6955.7729 2.22039e-17
6956.9565 2.10466e-17
6958.1396 1.97094e-17
6959.3232 1.91784e-17
6960.5063 2.10794e-17
6961.6899 2.04593e-17
6962.873 2.12306e-17
6964.0566 2.20717e-17
6965.2402 2.22448e-17
6966.4238 1.99029e-17
6967.6069 2.22707e-17
6968.7905 1.96344e-17
6969.9741 1.86948e-17
6971.1577 2.01707e-17
6972.3413 1.80275e-17
6973.5249 2.35314e-17
6974.709 2.00469e-17
6975.8926 2.03224e-17
6977.0762 1.96325e-17
6978.2598 2.2699e-17
6979.4438 1.83661e-17
6980.6274 2.19242e-17
6981.8115 2.18959e-17
6982.9951 2.19799e-17
6984.1792 1.71164e-17
6985.3628 2.36419e-17
6986.5469 2.18704e-17
6987.731 2.23061e-17
6988.915 1.83202e-17
6990.0986 2.25567e-17
6991.2827 2.11641e-17
6992.4668 1.86107e-17
6993.6509 1.89488e-17
6994.835 2.29986e-17
6996.019 2.20754e-17
6997.2031 2.0351e-17
6998.3877 2.02521e-17
6999.5718 2.12668e-17
7000.7559 2.10014e-17
7001.9404 2.03311e-17
7003.1245 1.82419e-17
7004.3086 2.0657e-17
7005.4932 2.14684e-17
7006.6772 1.53896e-17
7007.8618 1.85375e-17
7009.0464 2.19471e-17
7010.2305 1.86978e-17
7011.415 1.90664e-17
7012.5996 2.28492e-17
7013.7842 1.97839e-17
7014.9683 2.11136e-17
7016.1528 2.1124e-17
7017.3374 2.01526e-17
7018.522 2.00535e-17
7019.707 2.01849e-17
7020.8916 1.97119e-17
7022.0762 1.93349e-17
7023.2607 1.96859e-17
7024.4453 1.95446e-17
7025.6304 2.09137e-17
7026.8149 1.88301e-17
7027.9995 2.03437e-17
7029.1846 1.9988e-17
7030.3691 2.05983e-17
7031.5542 1.72165e-17
7032.7393 1.81974e-17
7033.9238 2.19475e-17
7035.1089 2.12817e-17
7036.2939 2.22376e-17
7037.479 2.35381e-17
7038.6636 2.03135e-17
7039.8486 1.58508e-17
7041.0337 1.91118e-17
7042.2192 2.17547e-17
7043.4043 2.10485e-17
7044.5894 2.09193e-17
7045.7744 2.01577e-17
7046.9595 1.87449e-17
7048.1445 2.07556e-17
7049.3301 2.03789e-17
7050.5151 2.49414e-17
7051.7002 1.82161e-17
7052.8857 2.18869e-17
7054.0708 2.03496e-17
7055.2563 1.8812e-17
7056.4419 1.9855e-17
7057.627 2.16616e-17
7058.8125 2.0211e-17
7059.998 2.0894e-17
7061.1831 2.28174e-17
7062.3687 2.06066e-17
7063.5542 1.9662e-17
7064.7397 2.1395e-17
7065.9253 2.16574e-17
7067.1108 1.78249e-17
7068.2964 1.73762e-17
7069.4824 2.01925e-17
7070.668 2.10393e-17
7071.8535 2.14582e-17
7073.0391 2.31323e-17
7074.2251 1.95008e-17
7075.4106 2.15942e-17
7076.5962 1.81475e-17
7077.7822 2.12813e-17
7078.9678 2.02663e-17
7080.1538 1.93602e-17
7081.3398 1.87543e-17
7082.5254 1.86367e-17
7083.7114 2.14618e-17
7084.8975 2.1301e-17
7086.0835 1.94366e-17
7087.2695 1.9106e-17
7088.4551 2.00442e-17
7089.6411 2.05851e-17
7090.8276 1.90372e-17
7092.0132 2.01715e-17
7093.1997 2.10023e-17
7094.3857 1.99165e-17
7095.5718 2.18054e-17
7096.7578 2.13764e-17
7097.9443 2.063e-17
7099.1304 2.07427e-17
7100.3164 2.1855e-17
7101.5029 2.02504e-17
7102.689 2.24779e-17
7103.8755 2.12303e-17
7105.0615 2.03761e-17
7106.248 2.28015e-17
7107.4346 1.98212e-17
7108.6206 2.15204e-17
7109.8071 1.93136e-17
7110.9937 2.19222e-17
7112.1802 2.00013e-17
7113.3667 2.15021e-17
7114.5532 1.9563e-17
7115.7397 2.19571e-17
7116.9263 2.20095e-17
7118.1128 2.09634e-17
7119.2993 2.0275e-17
7120.4863 1.79614e-17
7121.6729 2.1421e-17
7122.8594 2.11689e-17
7124.0459 2.15401e-17
7125.2329 1.99039e-17
7126.4194 1.86847e-17
7127.6064 2.04333e-17
7128.793 2.12321e-17
7129.98 1.65247e-17
7131.167 2.22047e-17
7132.3535 2.1017e-17
7133.5405 2.55111e-17
7134.7275 2.28817e-17
7135.9141 2.0186e-17
7137.1011 2.13927e-17
7138.2881 2.06991e-17
7139.4751 2.06411e-17
7140.6621 1.69757e-17
7141.8491 2.19267e-17
7143.0366 1.94235e-17
7144.2236 1.82321e-17
7145.4106 1.85133e-17
7146.5977 2.07446e-17
7147.7847 2.29533e-17
7148.9722 2.06966e-17
7150.1592 2.17777e-17
7151.3467 1.85254e-17
7152.5337 1.89408e-17
7153.7212 2.19296e-17
7154.9082 1.98899e-17
7156.0957 1.89913e-17
7157.2832 2.00082e-17
7158.4702 2.01695e-17
7159.6577 1.92139e-17
7160.8452 1.85789e-17
7162.0327 2.06239e-17
7163.2202 2.33177e-17
7164.4077 2.34579e-17
7165.5952 2.04977e-17
7166.7827 2.01246e-17
7167.9702 2.02291e-17
7169.1577 2.12764e-17
7170.3452 2.01086e-17
7171.5327 1.81925e-17
7172.7207 2.08291e-17
7173.9082 2.22974e-17
7175.0957 2.02375e-17
7176.2837 2.12961e-17
7177.4712 2.27362e-17
7178.6592 1.90942e-17
7179.8467 1.69029e-17
7181.0347 2.0801e-17
7182.2222 2.00739e-17
7183.4102 2.23321e-17
7184.5981 2.25878e-17
7185.7861 2.3487e-17
7186.9741 1.95693e-17
7188.1616 2.20896e-17
7189.3496 2.35535e-17
7190.5376 2.13773e-17
7191.7256 2.03013e-17
7192.9136 2.00053e-17
7194.1016 1.99432e-17
7195.29 2.21141e-17
7196.478 2.12222e-17
7197.666 2.0793e-17
7198.854 1.87062e-17
7200.0425 1.96875e-17
7201.2305 1.9868e-17
7202.4185 1.90451e-17
7203.6069 1.88942e-17
7204.7954 2.19218e-17
7205.9834 2.28641e-17
7207.1719 1.95846e-17
7208.3599 2.27368e-17
7209.5483 2.39505e-17
7210.7368 2.43391e-17
7211.9253 2.11501e-17
7213.1133 1.88971e-17
7214.3018 2.19297e-17
7215.4902 2.14347e-17
7216.6787 2.06879e-17
7217.8672 1.95794e-17
7219.0557 2.1279e-17
7220.2446 2.16605e-17
7221.4331 2.10851e-17
7222.6216 1.93891e-17
7223.8101 2.31368e-17
7224.999 2.12706e-17
7226.1875 2.37139e-17
7227.376 1.93406e-17
7228.5649 2.24816e-17
7229.7534 1.90579e-17
7230.9424 2.48855e-17
7232.1309 2.15367e-17
7233.3198 2.0176e-17
7234.5083 1.95552e-17
7235.6973 2.06276e-17
7236.8862 2.26495e-17
7238.0752 2.2864e-17
7239.2642 1.97179e-17
7240.4531 1.9849e-17
7241.6416 1.75437e-17
7242.8306 1.88565e-17
7244.0195 2.0435e-17
7245.2085 1.62317e-17
7246.3979 1.84626e-17
7247.5869 2.08172e-17
7248.7759 2.28237e-17
7249.9648 1.79618e-17
7251.1543 2.09248e-17
7252.3433 1.9165e-17
7253.5322 1.72562e-17
7254.7217 2.08214e-17
7255.9106 2.11598e-17
7257.1001 2.16766e-17
7258.2891 2.04854e-17
7259.4785 1.90201e-17
7260.6675 1.98185e-17
7261.8569 2.09116e-17
7263.0464 1.83798e-17
7264.2358 1.84414e-17
7265.4248 1.97159e-17
7266.6143 1.65398e-17
7267.8037 1.94585e-17
7268.9932 1.94756e-17
7270.1826 1.91099e-17
7271.3721 1.99544e-17
7272.5615 2.08628e-17
7273.751 1.90102e-17
7274.9409 1.84375e-17
7276.1304 1.84688e-17
7277.3198 1.82963e-17
7278.5093 2.12474e-17
7279.6992 2.11109e-17
7280.8887 1.3449e-17
7282.0786 1.92818e-17
7283.2681 1.78648e-17
7284.458 1.65892e-17
7285.6475 1.86824e-17
7286.8374 1.80388e-17
7288.0273 2.10816e-17
7289.2168 1.8742e-17
7290.4067 2.15349e-17
7291.5967 1.60054e-17
7292.7866 1.74849e-17
7293.9766 2.25156e-17
7295.1665 1.92665e-17
7296.3564 1.9221e-17
7297.5464 1.72688e-17
7298.7363 2.05762e-17
7299.9263 2.11758e-17
7301.1162 1.86987e-17
7302.3062 1.81742e-17
7303.4961 1.71853e-17
7304.6865 1.74673e-17
7305.8765 1.88195e-17
7307.0664 1.78217e-17
7308.2568 1.8779e-17
7309.4468 1.78643e-17
7310.6372 2.1316e-17
7311.8271 1.68802e-17
7313.0176 2.00631e-17
7314.208 1.99625e-17
7315.3979 1.57401e-17
7316.5884 1.79565e-17
7317.7788 1.78218e-17
7318.9692 1.89523e-17
7320.1592 1.74556e-17
7321.3496 1.5902e-17
7322.54 1.80161e-17
7323.7305 1.82458e-17
7324.9209 1.76806e-17
7326.1113 1.74962e-17
7327.3018 1.9979e-17
7328.4927 1.83872e-17
7329.6831 1.79333e-17
7330.8735 1.79144e-17
7332.064 1.9321e-17
7333.2549 1.77094e-17
7334.4453 1.94431e-17
7335.6362 1.68055e-17
7336.8267 1.61436e-17
7338.0176 1.45855e-17
7339.208 1.23593e-17
7340.3989 1.84515e-17
7341.5894 1.90847e-17
7342.7803 1.53289e-17
7343.9712 1.78059e-17
7345.1621 1.76321e-17
7346.3525 1.42298e-17
7347.5435 1.81152e-17
7348.7344 1.71961e-17
7349.9253 1.85494e-17
7351.1162 1.55025e-17
7352.3071 2.19019e-17
7353.498 1.97949e-17
7354.689 1.73194e-17
7355.8799 1.68694e-17
7357.0713 1.7968e-17
7358.2622 2.18098e-17
7359.4531 1.99464e-17
7360.644 1.73412e-17
7361.8354 1.75236e-17
7363.0264 1.91929e-17
7364.2178 1.82138e-17
7365.4087 1.93183e-17
7366.6001 1.74215e-17
7367.791 1.82172e-17
7368.9824 1.98541e-17
7370.1738 1.86732e-17
7371.3647 1.60409e-17
7372.5562 1.81907e-17
7373.7476 2.03498e-17
7374.939 1.56562e-17
7376.1304 2.05457e-17
7377.3213 1.74366e-17
7378.5127 1.84647e-17
7379.7041 1.70201e-17
7380.896 1.82747e-17
7382.0874 2.05305e-17
7383.2788 1.79121e-17
7384.4702 2.14832e-17
7385.6616 1.65947e-17
7386.853 1.67731e-17
7388.0449 1.76125e-17
7389.2363 2.05424e-17
7390.4282 1.9632e-17
7391.6196 1.72671e-17
7392.811 2.04116e-17
7394.0029 1.80686e-17
7395.1948 1.66577e-17
7396.3862 1.98347e-17
7397.5781 2.00874e-17
7398.7695 1.74943e-17
7399.9614 1.84719e-17
7401.1533 1.74613e-17
7402.3452 1.84729e-17
7403.5371 2.04576e-17
7404.729 2.11381e-17
7405.9204 1.99773e-17
7407.1123 2.02085e-17
7408.3042 1.88387e-17
7409.4961 1.96328e-17
7410.6885 2.1041e-17
7411.8804 1.91604e-17
7413.0723 1.67418e-17
7414.2642 2.00616e-17
7415.4565 1.9962e-17
7416.6484 2.19969e-17
7417.8403 1.96293e-17
7419.0327 2.07998e-17
7420.2246 2.06307e-17
7421.417 2.08324e-17
7422.6089 2.32143e-17
7423.8013 1.97623e-17
7424.9932 2.07667e-17
7426.1855 2.01917e-17
7427.3779 1.61654e-17
7428.5698 1.88995e-17
7429.7622 1.77375e-17
7430.9546 2.10436e-17
7432.147 2.21511e-17
7433.3394 1.70362e-17
7434.5317 2.11787e-17
7435.7241 1.80387e-17
7436.9165 2.11357e-17
7438.1089 1.87415e-17
7439.3013 2.01131e-17
7440.4937 1.83286e-17
7441.686 1.88722e-17
7442.8784 1.93946e-17
7444.0713 2.059e-17
7445.2637 1.93337e-17
7446.4561 1.88063e-17
7447.6489 2.05225e-17
7448.8413 1.91873e-17
7450.0342 1.80014e-17
7451.2266 1.88939e-17
7452.4194 2.17811e-17
7453.6118 1.86324e-17
7454.8047 2.0791e-17
7455.9976 1.64295e-17
7457.1904 2.10548e-17
7458.3828 2.06964e-17
7459.5757 1.62915e-17
7460.7686 1.86088e-17
7461.9614 2.10526e-17
7463.1543 2.3389e-17
7464.3472 2.12923e-17
7465.54 1.72402e-17
7466.7329 2.17348e-17
7467.9258 2.18395e-17
7469.1187 1.89743e-17
7470.3115 1.84103e-17
7471.5044 2.25661e-17
7472.6978 2.06341e-17
7473.8906 1.79722e-17
7475.0835 2.32221e-17
7476.2769 2.05229e-17
7477.4697 1.9052e-17
7478.6631 1.73509e-17
7479.856 2.09115e-17
7481.0493 2.01544e-17
7482.2422 1.95628e-17
7483.4355 2.17341e-17
7484.6289 1.74993e-17
7485.8218 1.94521e-17
7487.0151 1.97497e-17
7488.2085 1.93347e-17
7489.4019 1.96194e-17
7490.5952 2.02514e-17
7491.7886 1.9012e-17
7492.9819 2.04075e-17
7494.1753 2.10797e-17
7495.3682 2.11389e-17
7496.562 2.29057e-17
7497.7554 2.09927e-17
7498.9487 1.75308e-17
7500.1421 2.05347e-17
7501.3354 2.07329e-17
7502.5293 2.26292e-17
7503.7227 1.99556e-17
7504.916 1.8757e-17
7506.1099 2.117e-17
7507.3032 1.73206e-17
7508.4971 1.94961e-17
7509.6904 1.65824e-17
7510.8843 1.8932e-17
7512.0776 1.92632e-17
7513.2715 1.93914e-17
7514.4653 2.14217e-17
7515.6587 2.24951e-17
7516.8525 1.8111e-17
7518.0464 1.87108e-17
7519.2402 1.88992e-17
7520.4341 2.14468e-17
7521.6279 2.21069e-17
7522.8218 1.7333e-17
7524.0156 1.94347e-17
7525.2095 1.84409e-17
7526.4033 1.88949e-17
7527.5972 1.76978e-17
7528.791 1.67748e-17
7529.9849 1.64795e-17
7531.1792 1.90046e-17
7532.373 1.60232e-17
7533.5669 2.02036e-17
7534.7612 1.99473e-17
7535.9551 2.08367e-17
7537.1489 1.96654e-17
7538.3433 1.87411e-17
7539.5371 1.68765e-17
7540.7314 1.69725e-17
7541.9253 1.80489e-17
7543.1196 1.98167e-17
7544.314 1.50797e-17
7545.5083 1.66496e-17
7546.7021 1.74595e-17
7547.8965 1.94486e-17
7549.0908 1.65606e-17
7550.2852 2.09675e-17
7551.4795 1.85239e-17
7552.6738 1.60808e-17
7553.8682 1.50679e-17
7555.0625 2.01095e-17
7556.2568 2.06697e-17
7557.4512 1.87747e-17
7558.6455 1.81078e-17
7559.8398 1.7277e-17
7561.0342 1.96574e-17
7562.229 1.86394e-17
7563.4233 1.71933e-17
7564.6177 1.65038e-17
7565.8125 1.59059e-17
7567.0068 1.51828e-17
7568.2017 1.42217e-17
7569.396 1.58411e-17
7570.5908 1.9115e-17
7571.7852 1.53649e-17
7572.98 1.5084e-17
7574.1748 1.52925e-17
7575.3691 1.43187e-17
7576.564 1.83764e-17
7577.7588 1.78841e-17
7578.9536 1.71867e-17
7580.1484 1.63169e-17
7581.3428 1.65568e-17
7582.5376 1.53682e-17
7583.7324 1.73391e-17
7584.9277 1.97198e-17
7586.1221 1.62e-17
7587.3174 1.59293e-17
7588.5122 1.48181e-17
7589.707 1.57699e-17
7590.9019 1.38975e-17
7592.0967 1.42966e-17
7593.292 1.63451e-17
7594.4868 1.16408e-17
7595.6816 1.39487e-17
7596.877 1.46574e-17
7598.0718 1.12544e-17
7599.2671 1.62798e-17
7600.4619 1.56431e-17
7601.6572 1.69392e-17
7602.8521 1.28008e-17
7604.0474 1.53267e-17
7605.2427 1.80327e-17
7606.4375 1.09463e-17
7607.6328 1.2228e-17
7608.8281 1.54354e-17
7610.0234 1.47897e-17
7611.2188 1.68843e-17
7612.4136 1.46553e-17
7613.6089 1.48961e-17
7614.8042 1.3803e-17
7615.9995 1.46004e-17
7617.1953 1.5077e-17
7618.3906 1.73076e-17
7619.5859 1.4552e-17
7620.7812 1.75778e-17
7621.9766 1.31222e-17
7623.1719 1.36754e-17
7624.3677 1.68327e-17
7625.563 1.70843e-17
7626.7583 1.18604e-17
7627.9541 1.63617e-17
7629.1494 1.47927e-17
7630.3452 1.73817e-17
7631.5405 1.40789e-17
7632.7363 1.70802e-17
7633.9316 1.6488e-17
7635.1274 1.51148e-17
7636.3232 1.83952e-17
7637.5186 1.45902e-17
7638.7144 1.44507e-17
7639.9102 1.32519e-17
7641.106 1.57316e-17
7642.3013 1.50251e-17
7643.4971 1.6391e-17
7644.6929 1.90974e-17
7645.8887 1.74617e-17
7647.0845 1.65325e-17
7648.2803 1.68811e-17
7649.4761 1.58655e-17
7650.6719 1.73203e-17
7651.8682 1.82936e-17
7653.064 1.77673e-17
7654.2598 1.88085e-17
7655.4556 1.45483e-17
7656.6519 1.43637e-17
7657.8477 1.57785e-17
7659.0435 1.53202e-17
7660.2397 1.44137e-17
7661.4355 1.44972e-17
7662.6318 1.6512e-17
7663.8276 1.80783e-17
7665.0239 1.68976e-17
7666.2202 1.66459e-17
7667.416 1.46756e-17
7668.6123 1.45737e-17
7669.8086 1.61878e-17
7671.0044 1.69622e-17
7672.2007 1.57457e-17
7673.397 1.5427e-17
7674.5933 1.69033e-17
7675.7896 1.70765e-17
7676.9858 1.63404e-17
7678.1821 1.49016e-17
7679.3784 2.00062e-17
7680.5747 1.65286e-17
7681.771 1.67126e-17
7682.9673 1.79277e-17
7684.1636 1.62693e-17
7685.3599 1.9899e-17
7686.5566 1.80988e-17
7687.7529 1.64229e-17
7688.9492 1.76346e-17
7690.1455 1.84942e-17
7691.3423 1.79291e-17
7692.5386 1.66053e-17
7693.7354 1.84911e-17
7694.9316 1.55056e-17
7696.1284 1.34161e-17
7697.3247 1.78566e-17
7698.5215 1.80233e-17
7699.7178 1.95892e-17
7700.9146 1.92428e-17
7702.1113 1.87533e-17
7703.3081 2.01707e-17
7704.5044 1.79919e-17
7705.7012 1.93767e-17
7706.8979 1.84349e-17
7708.0947 1.68235e-17
7709.2915 1.49346e-17
7710.4883 2.14057e-17
7711.6851 1.69307e-17
7712.8818 1.95939e-17
7714.0786 1.67151e-17
7715.2754 1.80778e-17
7716.4722 1.85666e-17
7717.6689 1.83308e-17
7718.8662 2.15156e-17
7720.063 1.73035e-17
7721.2598 1.72999e-17
7722.4565 1.70436e-17
7723.6538 2.14636e-17
7724.8506 1.98978e-17
7726.0479 1.958e-17
7727.2446 1.75067e-17
7728.4419 1.70127e-17
7729.6387 1.83743e-17
7730.8359 1.55342e-17
7732.0327 1.73686e-17
7733.23 1.99951e-17
7734.4272 1.79297e-17
7735.624 2.02393e-17
7736.8213 2.10309e-17
7738.0186 1.81005e-17
7739.2158 1.89808e-17
7740.4131 1.97124e-17
7741.6099 1.95399e-17
7742.8071 2.07787e-17
7744.0044 1.98225e-17
7745.2017 1.86596e-17
7746.3989 1.92292e-17
7747.5962 2.22316e-17
7748.7939 2.2661e-17
7749.9912 2.40149e-17
7751.1885 2.15858e-17
7752.3857 1.87137e-17
7753.583 1.76116e-17
7754.7808 1.84762e-17
7755.978 1.85314e-17
7757.1753 1.93092e-17
7758.373 2.49932e-17
7759.5703 2.03482e-17
7760.7681 1.87143e-17
7761.9653 1.91818e-17
7763.1631 1.97998e-17
7764.3604 1.74657e-17
7765.5581 1.85383e-17
7766.7554 2.00919e-17
7767.9531 1.92892e-17
7769.1509 1.7495e-17
7770.3486 1.971e-17
7771.5459 1.95775e-17
7772.7437 1.66935e-17
7773.9414 1.58313e-17
7775.1392 1.84564e-17
7776.3369 2.02688e-17
7777.5347 1.90905e-17
7778.7324 2.18529e-17
7779.9302 1.95072e-17
7781.1279 2.0409e-17
7782.3257 2.0481e-17
7783.5234 1.67899e-17
7784.7212 1.93004e-17
7785.9194 1.97963e-17
7787.1172 2.00956e-17
7788.3149 1.80515e-17
7789.5127 2.08933e-17
7790.7109 1.85641e-17
7791.9087 1.92725e-17
7793.1064 2.35437e-17
7794.3047 1.95188e-17
7795.5024 2.1479e-17
7796.7007 1.75599e-17
7797.8984 2.29903e-17
7799.0967 1.954e-17
7800.2944 2.23776e-17
7801.4927 2.3005e-17
7802.6909 1.86059e-17
7803.8887 2.20573e-17
7805.0869 2.23162e-17
7806.2852 1.98547e-17
7807.4834 2.18779e-17
7808.6816 1.77053e-17
7809.8794 2.01803e-17
7811.0776 1.98026e-17
7812.2759 2.22213e-17
7813.4741 1.97176e-17
7814.6724 2.20715e-17
7815.8706 1.95986e-17
7817.0693 1.92132e-17
7818.2676 2.12564e-17
7819.4658 2.26666e-17
7820.6641 1.89395e-17
7821.8623 2.15793e-17
7823.0605 1.97119e-17
7824.2593 1.97837e-17
7825.4575 2.19534e-17
7826.6558 2.22337e-17
7827.8545 2.03429e-17
7829.0527 2.19052e-17
7830.251 2.36777e-17
7831.4497 2.13667e-17
7832.6484 1.85886e-17
7833.8467 1.78603e-17
7835.0454 2.02378e-17
7836.2437 1.90871e-17
7837.4424 2.21545e-17
7838.6411 1.97684e-17
7839.8394 2.14944e-17
7841.0381 2.17466e-17
7842.2368 1.91045e-17
7843.4355 1.93846e-17
7844.6338 1.99539e-17
7845.8325 2.07142e-17
7847.0312 2.08822e-17
7848.23 1.76543e-17
7849.4287 2.29516e-17
7850.6274 1.99669e-17
7851.8262 2.20832e-17
7853.0249 2.01963e-17
7854.2236 1.8345e-17
7855.4224 1.80952e-17
7856.6216 2.0005e-17
7857.8203 2.08782e-17
7859.019 2.18811e-17
7860.2178 1.94172e-17
7861.417 2.08553e-17
7862.6157 2.37901e-17
7863.8149 2.17365e-17
7865.0137 2.28191e-17
7866.2124 2.30163e-17
7867.4116 2.26662e-17
7868.6104 2.02181e-17
7869.8096 2.34143e-17
7871.0083 2.25136e-17
7872.2075 2.10317e-17
7873.4067 2.05445e-17
7874.6055 2.07044e-17
7875.8047 2.07965e-17
7877.0039 2.09238e-17
7878.2026 2.45444e-17
7879.4019 2.01202e-17
7880.6011 2.33223e-17
7881.8003 1.81689e-17
7882.9995 2.20847e-17
7884.1987 1.95052e-17
7885.3979 2.3784e-17
7886.5972 1.93449e-17
7887.7964 2.09728e-17
7888.9956 2.28668e-17
7890.1948 2.00307e-17
7891.394 1.75395e-17
7892.5933 1.93724e-17
7893.7925 2.22588e-17
7894.9917 2.35129e-17
7896.1914 2.22746e-17
7897.3906 2.15349e-17
7898.5898 2.04336e-17
7899.7891 2.03584e-17
7900.9888 2.20892e-17
7902.188 2.1666e-17
7903.3877 2.20019e-17
7904.5869 2.03961e-17
7905.7866 1.94045e-17
7906.9858 2.43973e-17
7908.1851 2.32048e-17
7909.3848 1.802e-17
7910.5845 2.05866e-17
7911.7837 2.16696e-17
7912.9834 1.80323e-17
7914.1831 2.28832e-17
7915.3823 1.98719e-17
7916.582 2.45287e-17
7917.7817 2.19876e-17
7918.9814 2.17996e-17
7920.1812 2.05868e-17
7921.3804 1.9347e-17
7922.5801 2.27498e-17
7923.7798 1.94682e-17
7924.9795 2.45856e-17
7926.1792 2.20938e-17
7927.3789 2.16094e-17
7928.5791 1.99152e-17
7929.7788 2.15477e-17
7930.9785 1.8838e-17
7932.1782 2.0609e-17
7933.3779 2.08449e-17
7934.5776 1.89273e-17
7935.7778 1.95188e-17
7936.9775 1.94193e-17
7938.1772 2.16279e-17
7939.3774 2.15318e-17
7940.5771 1.85664e-17
7941.7769 1.99602e-17
7942.9771 2.18688e-17
7944.1768 2.03382e-17
7945.377 2.30455e-17
7946.5767 2.0068e-17
7947.7769 1.80866e-17
7948.9766 2.15608e-17
7950.1768 2.11411e-17
7951.3765 2.21721e-17
7952.5767 2.33256e-17
7953.7769 2.21687e-17
7954.9766 1.78381e-17
7956.1768 2.10917e-17
7957.377 2.03663e-17
7958.5771 2.18204e-17
7959.7773 2.02862e-17
7960.9775 2.15303e-17
7962.1777 2.33114e-17
7963.3779 2.01643e-17
7964.5781 2.45143e-17
7965.7783 1.9454e-17
7966.9785 2.56081e-17
7968.1787 2.12886e-17
7969.3789 1.82807e-17
7970.5791 2.07029e-17
7971.7793 1.84738e-17
7972.9795 1.96128e-17
7974.1797 1.69422e-17
7975.3799 2.19338e-17
7976.5806 2.19231e-17
7977.7808 1.96892e-17
7978.981 2.15595e-17
7980.1816 1.99116e-17
7981.3818 1.80386e-17
7982.582 2.08845e-17
7983.7827 1.7645e-17
7984.9829 2.10143e-17
7986.1836 1.99877e-17
7987.3838 1.6718e-17
7988.5845 1.9154e-17
7989.7847 1.91267e-17
7990.9854 2.18332e-17
7992.186 1.9438e-17
7993.3862 1.90646e-17
7994.5869 1.81291e-17
7995.7876 1.69772e-17
7996.9878 2.16774e-17
7998.1885 2.02937e-17
7999.3892 2.22825e-17
8000.5898 1.94592e-17
8001.7905 1.78112e-17
8002.9912 1.9443e-17
8004.1914 1.76641e-17
8005.3921 2.20089e-17
8006.5928 2.02933e-17
8007.7935 2.2862e-17
8008.9941 2.47782e-17
8010.1948 2.33454e-17
8011.3955 2.39873e-17
8012.5962 2.48086e-17
8013.7974 2.24571e-17
8014.998 1.83827e-17
8016.1987 1.99131e-17
8017.3994 1.90138e-17
8018.6001 1.5765e-17
8019.8013 1.83565e-17
8021.002 1.91248e-17
8022.2026 2.00729e-17
8023.4038 2.06351e-17
8024.6045 1.6409e-17
8025.8052 1.80885e-17
8027.0063 1.67577e-17
8028.207 2.3334e-17
8029.4082 1.73419e-17
8030.6089 1.67595e-17
8031.8101 2.02093e-17
8033.0112 1.87055e-17
8034.2119 1.86138e-17
8035.4131 1.78904e-17
8036.6138 2.2232e-17
8037.8149 1.81629e-17
8039.0161 1.8852e-17
8040.2168 2.09435e-17
8041.418 1.8845e-17
8042.6191 1.70342e-17
8043.8203 1.90551e-17
8045.0215 1.9258e-17
8046.2222 1.51107e-17
8047.4233 2.24506e-17
8048.6245 2.02891e-17
8049.8257 2.04208e-17
8051.0269 2.07613e-17
8052.228 1.89929e-17
8053.4292 2.03565e-17
8054.6304 1.67575e-17
8055.8315 1.85402e-17
8057.0327 2.09456e-17
8058.2339 1.84404e-17
8059.4351 2.24107e-17
8060.6367 1.56731e-17
8061.8379 1.91994e-17
8063.0391 1.81671e-17
8064.2402 2.10343e-17
8065.4419 1.56014e-17
8066.6431 1.62489e-17
8067.8442 1.73033e-17
8069.0459 1.99241e-17
8070.2471 1.60954e-17
8071.4487 2.27381e-17
8072.6499 2.11425e-17
8073.8511 1.85575e-17
8075.0527 2.02667e-17
8076.2539 1.75417e-17
8077.4556 1.58229e-17
8078.6567 1.7518e-17
8079.8584 1.85913e-17
8081.0596 1.87921e-17
8082.2612 1.86477e-17
8083.4629 1.70289e-17
8084.6641 1.94527e-17
8085.8657 1.95455e-17
8087.0674 1.70574e-17
8088.269 1.7359e-17
8089.4707 1.6352e-17
8090.6719 1.52504e-17
8091.8735 1.65271e-17
8093.0752 1.80536e-17
8094.2769 1.65424e-17
8095.4785 1.95186e-17
8096.6802 2.24342e-17
8097.8818 1.79613e-17
8099.0835 1.74684e-17
8100.2852 1.4177e-17
8101.4868 1.74168e-17
8102.6885 1.64363e-17
8103.8901 1.84536e-17
8105.0918 1.86286e-17
8106.2935 1.98475e-17
8107.4951 1.7231e-17
8108.6968 1.86165e-17
8109.8989 1.94982e-17
8111.1006 1.66886e-17
8112.3022 1.7997e-17
8113.5039 1.70919e-17
8114.7056 1.8416e-17
8115.9077 1.5642e-17
8117.1094 1.65577e-17
8118.3115 1.80711e-17
8119.5132 1.59146e-17
8120.7148 1.60342e-17
8121.917 1.84233e-17
8123.1187 1.49891e-17
8124.3208 1.8318e-17
8125.5225 1.94324e-17
8126.7246 1.98208e-17
8127.9263 1.73233e-17
8129.1284 2.00594e-17
8130.3301 1.82381e-17
8131.5322 1.58695e-17
8132.7339 1.56283e-17
8133.936 1.85847e-17
8135.1382 1.85561e-17
8136.3403 1.74061e-17
8137.542 1.81377e-17
8138.7441 1.75263e-17
8139.9463 1.98332e-17
8141.1484 1.94384e-17
8142.3501 1.88324e-17
8143.5522 1.64859e-17
8144.7544 1.86487e-17
8145.9565 1.71323e-17
8147.1587 2.10452e-17
8148.3608 1.65372e-17
8149.563 1.84251e-17
8150.7651 1.69148e-17
8151.9673 1.77082e-17
8153.1694 1.57941e-17
8154.3716 1.8714e-17
8155.5737 1.51252e-17
8156.7759 1.64345e-17
8157.978 1.77735e-17
8159.1802 1.71763e-17
8160.3823 1.54733e-17
8161.5845 1.88177e-17
8162.7871 1.70084e-17
8163.9893 1.71907e-17
8165.1914 1.27418e-17
8166.394 1.58636e-17
8167.5962 2.00907e-17
8168.7983 1.73262e-17
8170.0005 1.84545e-17
8171.2031 2.07396e-17
8172.4053 1.76334e-17
8173.6074 1.73081e-17
8174.8101 1.89437e-17
8176.0122 1.89137e-17
8177.2148 1.82293e-17
8178.417 1.71382e-17
8179.6196 1.69813e-17
8180.8218 1.79404e-17
8182.0244 2.03171e-17
8183.2266 1.71221e-17
8184.4292 1.7679e-17
8185.6313 1.8646e-17
8186.834 1.5598e-17
8188.0366 1.6366e-17
8189.2388 1.72204e-17
8190.4414 1.5402e-17
8191.644 1.87209e-17
8192.8467 1.79557e-17
8194.0488 1.70692e-17
8195.251 1.54741e-17
8196.4541 1.78183e-17
8197.6562 1.66197e-17
8198.8594 1.77698e-17
8200.0615 1.81035e-17
8201.2637 1.58606e-17
8202.4668 1.7456e-17
8203.6689 1.79121e-17
8204.8721 1.8733e-17
8206.0742 1.6535e-17
8207.2773 1.87862e-17
8208.4795 1.39365e-17
8209.6826 1.63111e-17
8210.8848 1.74039e-17
8212.0879 1.6825e-17
8213.29 1.8533e-17
8214.4932 1.62342e-17
8215.6953 2.0097e-17
8216.8984 1.96763e-17
8218.1006 1.8993e-17
8219.3037 1.67922e-17
8220.5068 1.59865e-17
8221.709 1.93765e-17
8222.9121 1.71119e-17
8224.1143 1.47494e-17
8225.3174 1.47939e-17
8226.5205 1.57196e-17
8227.7227 1.58618e-17
8228.9258 1.80866e-17
8230.1289 1.56884e-17
8231.3311 1.5691e-17
8232.5342 1.47596e-17
8233.7373 1.53546e-17
8234.9395 1.54557e-17
8236.1426 1.59282e-17
8237.3457 1.60764e-17
8238.5479 1.66559e-17
8239.751 1.69536e-17
8240.9541 1.85314e-17
8242.1572 1.59988e-17
8243.3594 1.44885e-17
8244.5625 1.59719e-17
8245.7656 1.66987e-17
8246.9688 1.74416e-17
8248.1719 1.5521e-17
8249.374 1.56271e-17
8250.5771 1.80922e-17
8251.7803 1.5133e-17
8252.9834 1.69418e-17
8254.1865 1.51094e-17
8255.3887 1.79949e-17
8256.5918 1.64913e-17
8257.7949 1.50556e-17
8258.998 1.71395e-17
8260.2012 1.60304e-17
8261.4043 1.55266e-17
8262.6074 1.89056e-17
8263.8105 1.45097e-17
8265.0137 1.55221e-17
8266.2158 1.47743e-17
8267.4189 1.7554e-17
8268.6221 1.5148e-17
8269.8252 1.54836e-17
8271.0283 1.70541e-17
8272.2314 1.50881e-17
8273.4346 1.55096e-17
8274.6377 1.62177e-17
8275.8408 1.30154e-17
8277.0439 1.7701e-17
8278.2471 1.64759e-17
8279.4502 1.80587e-17
8280.6533 1.06748e-17
8281.8564 1.86245e-17
8283.0596 1.79772e-17
8284.2627 1.47932e-17
8285.4658 1.53396e-17
8286.6689 1.76862e-17
8287.8721 1.33283e-17
8289.0752 1.48795e-17
8290.2783 1.36009e-17
8291.4824 1.46105e-17
8292.6855 1.45978e-17
8293.8887 1.59511e-17
8295.0918 1.9469e-17
8296.2949 1.80324e-17
8297.498 2.25951e-17
8298.7012 1.4095e-17
8299.9043 1.77266e-17
8301.1084 1.49359e-17
8302.3115 1.97472e-17
8303.5146 1.35717e-17
8304.7178 1.64222e-17
8305.9209 1.63827e-17
8307.124 1.33853e-17
8308.3281 1.27941e-17
8309.5312 1.17815e-17
8310.7344 1.38243e-17
8311.9375 1.65572e-17
8313.1406 1.4177e-17
8314.3447 1.51617e-17
8315.5479 1.56201e-17
8316.751 1.47641e-17
8317.9541 1.45048e-17
8319.1582 1.45954e-17
8320.3613 1.61837e-17
8321.5645 1.26609e-17
8322.7686 1.64092e-17
8323.9717 1.5412e-17
8325.1748 1.57808e-17
8326.3779 1.74721e-17
8327.582 1.4794e-17
8328.7852 1.55244e-17
8329.9883 1.46968e-17
8331.1924 1.68176e-17
8332.3955 1.80199e-17
8333.5986 1.26219e-17
8334.8027 1.53608e-17
8336.0059 1.71067e-17
8337.209 1.50342e-17
8338.4131 1.73816e-17
8339.6162 1.16529e-17
8340.8193 1.60393e-17
8342.0234 1.63334e-17
8343.2266 1.59202e-17
8344.4307 2.03046e-17
8345.6338 1.87938e-17
8346.8369 1.8227e-17
8348.041 1.16427e-17
8349.2441 1.82796e-17
8350.4482 1.33306e-17
8351.6514 1.62075e-17
8352.8555 1.51996e-17
8354.0586 1.50598e-17
8355.2617 1.76051e-17
8356.4658 1.64545e-17
8357.6689 1.42456e-17
8358.873 1.48247e-17
8360.0762 1.45699e-17
8361.2803 1.37303e-17
8362.4834 1.40304e-17
8363.6875 1.37568e-17
8364.8906 1.57778e-17
8366.0947 1.80538e-17
8367.2979 1.42868e-17
8368.502 1.63977e-17
8369.7051 1.2945e-17
8370.9092 1.25191e-17
8372.1123 1.41446e-17
8373.3164 1.4728e-17
8374.5195 1.48856e-17
8375.7236 1.44404e-17
8376.9268 1.50235e-17
8378.1309 1.47978e-17
8379.335 1.84872e-17
8380.5381 1.57281e-17
8381.7422 1.29687e-17
8382.9453 1.48562e-17
8384.1494 1.52584e-17
8385.3525 1.34822e-17
8386.5566 1.36881e-17
8387.7607 1.46884e-17
8388.9639 1.53686e-17
8390.168 1.40133e-17
8391.3721 1.53691e-17
8392.5752 1.27977e-17
8393.7793 1.40039e-17
8394.9824 1.42896e-17
8396.1865 1.61784e-17
8397.3906 1.39454e-17
8398.5938 1.91405e-17
8399.7979 1.82043e-17
8401.002 1.37461e-17
8402.2051 1.0716e-17
8403.4092 1.46258e-17
8404.6133 1.63723e-17
8405.8164 1.46025e-17
8407.0205 1.48666e-17
8408.2246 1.506e-17
8409.4277 1.21508e-17
8410.6318 1.42159e-17
8411.8359 1.5335e-17
8413.0391 1.31906e-17
8414.2432 1.44432e-17
8415.4473 1.53967e-17
8416.6504 1.77703e-17
8417.8545 1.44234e-17
8419.0586 1.7218e-17
8420.2627 1.07215e-17
8421.4658 1.59844e-17
8422.6699 1.54104e-17
8423.874 1.75625e-17
8425.0771 1.6372e-17
8426.2812 1.31465e-17
8427.4854 1.57757e-17
8428.6895 1.4078e-17
8429.8936 1.21936e-17
8431.0967 1.53599e-17
8432.3008 1.5972e-17
8433.5049 1.62679e-17
8434.709 1.80091e-17
8435.9121 1.2851e-17
8437.1162 1.76213e-17
8438.3203 1.6091e-17
8439.5244 1.58217e-17
8440.7275 1.53593e-17
8441.9316 1.60506e-17
8443.1357 1.72056e-17
8444.3398 1.50708e-17
8445.5439 1.59386e-17
8446.7471 1.72878e-17
8447.9512 1.3289e-17
8449.1553 1.58162e-17
8450.3594 1.29351e-17
8451.5635 1.50019e-17
8452.7666 1.54318e-17
8453.9707 1.47482e-17
8455.1748 1.57234e-17
8456.3789 1.86939e-17
8457.583 1.62759e-17
8458.7871 1.47119e-17
8459.9902 1.74851e-17
8461.1943 1.5884e-17
8462.3984 1.71998e-17
8463.6025 1.40691e-17
8464.8066 1.27011e-17
8466.0107 1.55967e-17
8467.2139 1.32759e-17
8468.418 1.69187e-17
8469.6221 1.32865e-17
8470.8262 1.6925e-17
8472.0303 1.43719e-17
8473.2344 1.711e-17
8474.4385 1.55689e-17
8475.6426 1.28936e-17
8476.8457 1.6723e-17
8478.0498 1.50596e-17
8479.2539 1.65783e-17
8480.458 1.69352e-17
8481.6621 1.66107e-17
8482.8662 1.61414e-17
8484.0703 1.3998e-17
8485.2744 1.57024e-17
8486.4775 1.79683e-17
8487.6816 1.42582e-17
8488.8857 1.45728e-17
8490.0898 1.58416e-17
8491.2939 1.42266e-17
8492.498 1.61464e-17
8493.7021 1.43635e-17
8494.9062 1.90368e-17
8496.1104 1.31091e-17
8497.3145 1.58463e-17
8498.5176 1.41172e-17
8499.7217 1.55384e-17
8500.9258 1.78479e-17
8502.1299 1.70896e-17
8503.334 1.87853e-17
8504.5381 1.47825e-17
8505.7422 1.52999e-17
8506.9463 1.63405e-17
8508.1504 1.39452e-17
8509.3545 1.54812e-17
8510.5586 1.58762e-17
8511.7617 1.56594e-17
8512.9658 1.41655e-17
8514.1699 1.51513e-17
8515.374 1.57086e-17
8516.5781 1.46866e-17
8517.7822 1.66867e-17
8518.9863 1.49514e-17
8520.1904 1.61471e-17
8521.3945 1.47584e-17
8522.5986 1.51274e-17
8523.8027 1.67443e-17
8525.0068 1.65272e-17
8526.2109 1.68018e-17
8527.415 1.49191e-17
8528.6191 1.52013e-17
8529.8223 1.58417e-17
8531.0264 1.55046e-17
8532.2305 1.71975e-17
8533.4346 1.4391e-17
8534.6387 1.66282e-17
8535.8428 1.52362e-17
8537.0469 1.34645e-17
8538.251 1.47018e-17
8539.4551 1.57579e-17
8540.6592 1.4464e-17
8541.8633 1.78729e-17
8543.0674 1.62131e-17
8544.2715 1.48276e-17
8545.4756 1.51512e-17
8546.6797 1.64291e-17
8547.8838 1.31376e-17
8549.0879 1.50817e-17
8550.291 1.25681e-17
8551.4951 1.39722e-17
8552.6992 1.66599e-17
8553.9033 1.7607e-17
8555.1074 1.61056e-17
8556.3115 1.39829e-17
8557.5156 1.24343e-17
8558.7197 1.35023e-17
8559.9238 1.45375e-17
8561.1279 1.50715e-17
8562.332 1.3957e-17
8563.5361 1.59052e-17
8564.7402 1.3597e-17
8565.9443 1.64332e-17
8567.1484 1.51995e-17
8568.3525 1.21206e-17
8569.5566 1.63067e-17
8570.7607 1.34968e-17
8571.9639 1.47541e-17
8573.168 1.56781e-17
8574.3721 1.58079e-17
8575.5762 1.41064e-17
8576.7803 1.48731e-17
8577.9844 1.52479e-17
8579.1885 1.58267e-17
8580.3926 1.48476e-17
8581.5967 1.35377e-17
8582.8008 1.4536e-17
8584.0049 1.5462e-17
8585.209 1.53226e-17
8586.4131 1.68905e-17
8587.6172 1.22984e-17
8588.8203 1.54872e-17
8590.0244 1.47255e-17
8591.2285 1.48929e-17
8592.4326 1.20915e-17
8593.6367 1.27487e-17
8594.8408 1.46159e-17
8596.0449 1.36399e-17
8597.249 1.37881e-17
8598.4531 1.61846e-17
8599.6572 1.55666e-17
8600.8613 1.4274e-17
8602.0654 1.36034e-17
8603.2695 1.5226e-17
8604.4727 1.66936e-17
8605.6768 1.37529e-17
8606.8809 1.44581e-17
8608.085 1.40482e-17
8609.2891 1.6248e-17
8610.4932 1.26961e-17
8611.6973 1.34291e-17
8612.9014 1.42162e-17
8614.1055 1.63031e-17
8615.3096 1.40248e-17
8616.5127 1.21584e-17
8617.7168 1.37986e-17
8618.9209 1.33165e-17
8620.125 1.54061e-17
8621.3291 1.39494e-17
8622.5332 1.64069e-17
8623.7373 1.83582e-17
8624.9404 1.38485e-17
8626.1445 1.39962e-17
8627.3486 1.43478e-17
8628.5527 1.4498e-17
8629.7568 1.5632e-17
8630.9609 1.32734e-17
8632.165 1.33399e-17
8633.3691 1.17704e-17
8634.5723 1.3263e-17
8635.7764 1.48098e-17
8636.9805 1.59639e-17
8638.1846 1.38239e-17
8639.3887 1.35711e-17
8640.5928 1.67401e-17
8641.7959 1.21965e-17
8643.0 1.29184e-17
8644.2041 1.41915e-17
8645.4082 1.54056e-17
8646.6123 1.46629e-17
8647.8164 1.39576e-17
8649.0195 1.36887e-17
8650.2236 1.51228e-17
8651.4277 1.48431e-17
8652.6318 1.59726e-17
8653.8359 1.16841e-17
8655.0391 1.81296e-17
8656.2432 1.70455e-17
8657.4473 1.38366e-17
8658.6514 1.17036e-17
8659.8555 1.27266e-17
8661.0586 1.6765e-17
8662.2627 1.31297e-17
8663.4668 1.44859e-17
8664.6709 1.43593e-17
8665.874 1.51638e-17
8667.0781 1.68241e-17
8668.2822 1.50296e-17
8669.4863 1.6275e-17
8670.6895 1.56642e-17
8671.8936 1.6121e-17
8673.0977 1.52722e-17
8674.3018 1.38593e-17
8675.5049 1.42401e-17
8676.709 1.55054e-17
8677.9131 1.38735e-17
8679.1172 1.71779e-17
8680.3203 1.22272e-17
8681.5244 1.34189e-17
8682.7285 1.23659e-17
8683.9316 1.40774e-17
8685.1357 1.3155e-17
8686.3398 1.60331e-17
8687.543 1.61619e-17
8688.7471 1.47301e-17
8689.9512 1.5038e-17
8691.1553 1.54402e-17
8692.3584 1.42278e-17
8693.5625 1.45931e-17
8694.7656 1.54012e-17
8695.9697 1.42478e-17
8697.1738 1.54165e-17
8698.377 1.47501e-17
8699.5811 1.26635e-17
8700.7852 1.61959e-17
8701.9883 1.41517e-17
8703.1924 1.33454e-17
8704.3965 1.39136e-17
8705.5996 1.53364e-17
8706.8037 1.40258e-17
8708.0068 1.57552e-17
8709.2109 1.7332e-17
8710.415 1.42319e-17
8711.6182 1.41297e-17
8712.8223 1.44216e-17
8714.0254 1.53733e-17
8715.2295 1.21089e-17
8716.4326 1.56893e-17
8717.6367 1.19182e-17
8718.8408 1.26664e-17
8720.0439 1.54229e-17
8721.248 1.37804e-17
8722.4512 1.47737e-17
8723.6553 1.31127e-17
8724.8584 1.62823e-17
8726.0625 1.32912e-17
8727.2656 1.44569e-17
8728.4697 1.71304e-17
8729.6729 1.42429e-17
8730.877 1.49695e-17
8732.0801 1.3919e-17
8733.2842 1.44797e-17
8734.4873 1.57761e-17
8735.6914 1.66e-17
8736.8945 1.42444e-17
8738.0986 1.56718e-17
8739.3018 1.4276e-17
8740.5059 1.59367e-17
8741.709 1.42413e-17
8742.9131 1.55118e-17
8744.1162 1.64555e-17
8745.3193 1.48934e-17
8746.5234 1.46898e-17
8747.7266 1.50126e-17
8748.9307 1.63066e-17
8750.1338 2.02699e-17
8751.3369 1.67642e-17
8752.541 1.67452e-17
8753.7441 1.44281e-17
8754.9482 1.49408e-17
8756.1514 1.60309e-17
8757.3545 1.25113e-17
8758.5586 1.72558e-17
8759.7617 1.8172e-17
8760.9648 1.58452e-17
8762.1689 1.52158e-17
8763.3721 1.48429e-17
8764.5752 2.04131e-17
8765.7783 1.39913e-17
8766.9824 1.63701e-17
8768.1855 1.47247e-17
8769.3887 1.47067e-17
8770.5928 1.78311e-17
8771.7959 1.42345e-17
8772.999 1.67164e-17
8774.2021 1.49407e-17
8775.4062 1.50637e-17
8776.6094 2.01815e-17
8777.8125 1.88133e-17
8779.0156 1.54484e-17
8780.2197 1.26938e-17
8781.4229 1.78651e-17
8782.626 1.27807e-17
8783.8291 1.81727e-17
8785.0322 1.60317e-17
8786.2363 1.81344e-17
8787.4395 1.59407e-17
8788.6426 1.51644e-17
8789.8457 1.74295e-17
8791.0488 1.69718e-17
8792.252 1.42878e-17
8793.4561 1.71772e-17
8794.6592 1.54835e-17
8795.8623 1.62526e-17
8797.0654 1.50514e-17
8798.2686 1.52365e-17
8799.4717 1.75648e-17
8800.6748 1.51233e-17
8801.8779 1.50296e-17
8803.0811 1.70945e-17
8804.2842 1.70538e-17
8805.4873 1.62334e-17
8806.6904 1.63911e-17
8807.8936 1.82943e-17
8809.0967 1.84685e-17
8810.2998 1.60723e-17
8811.5029 1.69839e-17
8812.7061 1.75364e-17
8813.9092 1.6577e-17
8815.1123 1.67175e-17
8816.3154 1.92394e-17
8817.5186 1.68558e-17
8818.7217 1.71228e-17
8819.9248 1.75617e-17
8821.1279 1.81989e-17
8822.3311 1.35652e-17
8823.5342 1.68837e-17
8824.7373 1.70541e-17
8825.9404 1.57205e-17
8827.1436 1.61735e-17
8828.3467 1.66269e-17
8829.5488 2.24424e-17
8830.752 1.87567e-17
8831.9551 1.92027e-17
8833.1582 1.58281e-17
8834.3613 1.372e-17
8835.5645 1.65624e-17
8836.7666 1.5115e-17
8837.9697 1.79324e-17
8839.1729 1.82373e-17
8840.376 2.06386e-17
8841.5791 1.65332e-17
8842.7812 1.60606e-17
8843.9844 1.76722e-17
8845.1875 1.75393e-17
8846.3906 1.65166e-17
8847.5928 1.65352e-17
8848.7959 1.5668e-17
8849.999 1.67889e-17
8851.2012 1.58746e-17
8852.4043 1.53413e-17
8853.6074 1.81957e-17
8854.8096 1.6563e-17
8856.0127 1.5926e-17
8857.2158 1.79146e-17
8858.418 1.77629e-17
8859.6211 1.65065e-17
8860.8242 1.70261e-17
8862.0264 1.77477e-17
8863.2295 1.79728e-17
8864.4316 2.00996e-17
8865.6348 1.84051e-17
8866.8369 2.02529e-17
8868.04 1.43421e-17
8869.2432 1.41649e-17
8870.4453 1.76103e-17
8871.6484 1.62712e-17
8872.8506 1.65337e-17
8874.0537 1.73563e-17
8875.2559 1.73251e-17
8876.459 1.47347e-17
8877.6611 1.61107e-17
8878.8633 1.63044e-17
8880.0664 1.7243e-17
8881.2686 1.52438e-17
8882.4717 1.737e-17
8883.6738 1.4826e-17
8884.877 1.7892e-17
8886.0791 1.81615e-17
8887.2812 1.50095e-17
8888.4844 1.94696e-17
8889.6865 1.27693e-17
8890.8887 1.18948e-17
8892.0918 1.27104e-17
8893.2939 1.67437e-17
8894.4961 1.61096e-17
8895.6992 1.56872e-17
8896.9014 1.54084e-17
8898.1035 1.70853e-17
8899.3057 1.61877e-17
8900.5088 1.58867e-17
8901.7109 1.79941e-17
8902.9131 1.86373e-17
8904.1152 1.58258e-17
8905.3184 1.69078e-17
8906.5205 1.6483e-17
8907.7227 1.30166e-17
8908.9248 1.50179e-17
8910.127 1.63934e-17
8911.3291 1.52186e-17
8912.5312 1.55136e-17
8913.7344 1.37275e-17
8914.9365 1.50594e-17
8916.1387 1.62296e-17
8917.3408 1.33062e-17
8918.543 1.25147e-17
8919.7451 1.5367e-17
8920.9473 1.66416e-17
8922.1494 1.83334e-17
8923.3516 1.64769e-17
8924.5537 1.35381e-17
8925.7559 1.86918e-17
8926.958 1.25348e-17
8928.1602 1.62601e-17
8929.3623 1.74809e-17
8930.5645 1.57463e-17
8931.7666 1.40631e-17
8932.9688 1.32255e-17
8934.1709 1.71823e-17
8935.373 1.8509e-17
8936.5742 1.45029e-17
8937.7764 1.46843e-17
8938.9785 1.36173e-17
8940.1807 1.54966e-17
8941.3828 1.60033e-17
8942.585 1.56303e-17
8943.7861 1.43145e-17
8944.9883 1.55303e-17
8946.1904 1.75029e-17
8947.3926 1.64909e-17
8948.5938 1.75243e-17
8949.7959 1.49743e-17
8950.998 1.62639e-17
8952.2002 1.50843e-17
8953.4014 1.57897e-17
8954.6035 1.70201e-17
8955.8057 1.9413e-17
8957.0068 1.19273e-17
8958.209 1.75248e-17
8959.4111 1.57402e-17
8960.6123 1.70896e-17
8961.8145 1.34795e-17
8963.0156 1.46669e-17
8964.2178 1.54811e-17
8965.4199 1.73575e-17
8966.6211 1.35461e-17
8967.8232 1.65733e-17
8969.0244 1.52612e-17
8970.2266 1.65814e-17
8971.4277 1.61926e-17
8972.6299 1.37871e-17
8973.8311 1.51918e-17
8975.0332 1.3253e-17
8976.2344 1.54788e-17
8977.4355 1.4145e-17
8978.6377 1.57866e-17
8979.8389 1.47088e-17
8981.041 1.57422e-17
8982.2422 1.9405e-17
8983.4434 1.52405e-17
8984.6455 1.63571e-17
8985.8467 1.58438e-17
8987.0479 1.25299e-17
8988.25 1.38095e-17
8989.4512 1.54906e-17
8990.6523 1.56409e-17
8991.8535 1.67545e-17
8993.0557 1.37307e-17
8994.2568 1.51299e-17
8995.458 1.55421e-17
8996.6592 1.64419e-17
8997.8604 1.62471e-17
8999.0625 1.57508e-17
9000.2637 1.62346e-17
9001.4648 1.49653e-17
9002.666 1.59695e-17
9003.8672 1.35363e-17
9005.0684 1.5843e-17
9006.2695 1.27695e-17
9007.4707 1.58913e-17
9008.6719 1.47296e-17
9009.873 1.52645e-17
9011.0742 1.45885e-17
9012.2764 1.68066e-17
9013.4766 1.65637e-17
9014.6777 1.66944e-17
9015.8789 1.57834e-17
9017.0801 1.67505e-17
9018.2812 1.45463e-17
9019.4824 1.6166e-17
9020.6836 1.4e-17
9021.8848 1.54223e-17
9023.0859 1.60142e-17
9024.2871 1.44229e-17
9025.4883 1.50435e-17
9026.6885 1.60116e-17
9027.8896 1.78918e-17
9029.0908 1.42315e-17
9030.292 1.60106e-17
9031.4922 1.5831e-17
9032.6934 1.81173e-17
9033.8945 1.4943e-17
9035.0957 1.4732e-17
9036.2959 1.51431e-17
9037.4971 1.58704e-17
9038.6982 1.82676e-17
9039.8984 1.7432e-17
9041.0996 1.38934e-17
9042.3008 1.54801e-17
9043.501 1.50564e-17
9044.7021 1.60493e-17
9045.9023 1.52331e-17
9047.1035 1.48855e-17
9048.3037 1.49137e-17
9049.5049 1.65117e-17
9050.7051 1.54131e-17
9051.9062 1.57253e-17
9053.1064 1.78524e-17
9054.3076 1.28597e-17
9055.5078 1.51169e-17
9056.709 1.79745e-17
9057.9092 1.69021e-17
9059.1104 1.29143e-17
9060.3105 1.57343e-17
9061.5107 1.48318e-17
9062.7119 1.7126e-17
9063.9121 1.69902e-17
9065.1123 1.49846e-17
9066.3135 1.53406e-17
9067.5137 1.54289e-17
9068.7139 1.54338e-17
9069.9141 1.47666e-17
9071.1152 1.54725e-17
9072.3154 1.36913e-17
9073.5156 1.5529e-17
9074.7158 1.29923e-17
9075.916 1.54134e-17
9077.1172 1.47781e-17
9078.3174 1.27209e-17
9079.5176 1.47525e-17
9080.7178 1.34431e-17
9081.918 1.35277e-17
9083.1182 1.19426e-17
9084.3184 1.74019e-17
9085.5186 1.48502e-17
9086.7188 1.57712e-17
9087.9189 1.49738e-17
9089.1191 1.41728e-17
9090.3193 1.55469e-17
9091.5195 1.47792e-17
9092.7197 1.3534e-17
9093.9199 1.54531e-17
9095.1201 1.08577e-17
9096.3193 1.38167e-17
9097.5195 1.43313e-17
9098.7197 1.35744e-17
9099.9199 1.23637e-17
9101.1201 1.19696e-17
9102.3203 1.22222e-17
9103.5195 1.26814e-17
9104.7197 1.03005e-17
9105.9199 1.29692e-17
9107.1201 1.21879e-17
9108.3193 1.00806e-17
9109.5195 1.16558e-17
9110.7197 1.13636e-17
9111.9189 1.27864e-17
9113.1191 1.04847e-17
9114.3193 1.24234e-17
9115.5186 1.10963e-17
9116.7188 1.03408e-17
9117.918 1.35922e-17
9119.1182 1.16231e-17
9120.3174 1.09064e-17
9121.5176 9.64906e-18
9122.7168 1.00889e-17
9123.917 1.12596e-17
9125.1162 1.29087e-17
9126.3164 1.08786e-17
9127.5156 1.12164e-17
9128.7158 9.40043e-18
9129.915 1.11632e-17
9131.1143 1.1289e-17
9132.3145 9.0531e-18
9133.5137 9.98732e-18
9134.7129 7.79332e-18
9135.9131 1.06657e-17
9137.1123 9.56378e-18
9138.3115 1.23571e-17
9139.5107 1.05082e-17
9140.7109 1.01867e-17
9141.9102 1.04282e-17
9143.1094 1.12026e-17
9144.3086 1.12689e-17
9145.5078 9.83211e-18
9146.707 1.10727e-17
9147.9072 1.18676e-17
9149.1064 9.93182e-18
9150.3057 8.88897e-18
9151.5049 1.26172e-17
9152.7041 9.0944e-18
9153.9033 1.35522e-17
9155.1025 1.08376e-17
9156.3018 9.53476e-18
9157.501 8.01438e-18
9158.7002 9.8514e-18
9159.8994 9.51194e-18
9161.0986 1.12759e-17
9162.2979 9.7998e-18
9163.4961 9.8075e-18
9164.6953 1.06865e-17
9165.8945 9.60074e-18
9167.0938 1.07096e-17
9168.293 1.04929e-17
9169.4922 1.08407e-17
9170.6904 1.0708e-17
9171.8896 1.05704e-17
9173.0889 8.62584e-18
9174.2881 1.04737e-17
9175.4863 8.63635e-18
9176.6855 9.04542e-18
9177.8848 1.13873e-17
9179.083 8.98049e-18
9180.2822 1.04048e-17
9181.4805 9.59267e-18
9182.6797 9.49531e-18
9183.8779 8.82544e-18
9185.0771 1.01427e-17
9186.2764 1.19304e-17
9187.4746 1.01441e-17
9188.6738 1.17957e-17
9189.8721 1.06501e-17
9191.0703 8.71325e-18
9192.2695 1.04472e-17
9193.4678 9.67983e-18
9194.667 7.89636e-18
9195.8652 9.17262e-18
9197.0635 9.81556e-18
9198.2627 9.42761e-18
9199.4609 9.02587e-18
9200.6592 8.85034e-18
9201.8584 9.90663e-18
9203.0566 1.00574e-17
9204.2549 8.89051e-18
9205.4531 7.36109e-18
9206.6523 9.52415e-18
9207.8506 9.28073e-18
9209.0488 6.64639e-18
9210.2471 8.59237e-18
9211.4453 8.77823e-18
9212.6436 8.4442e-18
9213.8418 8.36286e-18
9215.04 8.66858e-18
9216.2383 8.6074e-18
9217.4365 9.46076e-18
9218.6348 5.05038e-18
9219.834 7.85648e-18
9221.0312 1.13213e-17
9222.2295 9.84308e-18
9223.4277 6.23571e-18
9224.626 1.09185e-17
9225.8242 8.4444e-18
9227.0225 7.36297e-18
9228.2207 7.32475e-18
9229.4189 9.31831e-18
9230.6172 8.35705e-18
9231.8145 9.35544e-18
9233.0127 8.03111e-18
9234.2109 9.9003e-18
9235.4092 1.02191e-17
9236.6064 8.57658e-18
9237.8047 9.56274e-18
9239.0029 8.61603e-18
9240.2002 1.0028e-17
9241.3984 7.56124e-18
9242.5967 8.51921e-18
9243.7939 8.6885e-18
9244.9922 8.45774e-18
9246.1895 8.66061e-18
9247.3877 9.33858e-18
9248.585 7.95633e-18
9249.7832 8.99426e-18
9250.9805 7.63806e-18
9252.1787 1.03491e-17
9253.376 9.83479e-18
9254.5742 9.80596e-18
9255.7715 9.58169e-18
9256.9688 9.29457e-18
9258.167 8.15358e-18
9259.3643 9.17281e-18
9260.5615 8.03396e-18
9261.7598 9.22652e-18
9262.957 9.21339e-18
9264.1543 9.91279e-18
9265.3525 8.40971e-18
9266.5498 8.94988e-18
9267.7471 8.55873e-18
9268.9443 9.71687e-18
9270.1416 9.00092e-18
9271.3398 8.23437e-18
9272.5371 9.48116e-18
9273.7344 1.0566e-17
9274.9316 9.8416e-18
9276.1289 8.89171e-18
9277.3262 9.8067e-18
9278.5234 1.11935e-17
9279.7207 9.97035e-18
9280.918 9.51162e-18
9282.1152 8.15551e-18
9283.3125 1.03056e-17
9284.5098 1.04511e-17
9285.707 1.08301e-17
9286.9043 1.04088e-17
9288.1016 9.94653e-18
9289.2979 1.2129e-17
9290.4951 6.79305e-18
9291.6924 9.4575e-18
9292.8896 9.70575e-18
9294.0869 1.10583e-17
9295.2832 1.13677e-17
9296.4805 1.11879e-17
9297.6777 9.32036e-18
9298.874 1.08413e-17
9300.0713 1.12846e-17
9301.2686 1.07343e-17
9302.4648 9.96482e-18
9303.6621 1.2877e-17
9304.8594 1.08824e-17
9306.0557 1.28494e-17
9307.2529 1.05221e-17
9308.4492 8.22752e-18
9309.6465 1.07502e-17
9310.8428 6.23505e-18
9312.04 8.02891e-18
9313.2363 8.16996e-18
9314.4336 4.35613e-18
9315.6299 1.06667e-17
9316.8262 1.61059e-17
9318.0234 1.25123e-17
9319.2197 1.28852e-17
9320.416 1.35803e-17
9321.6133 1.1509e-17
9322.8096 9.00941e-18
9324.0059 1.18276e-17
9325.2031 8.917e-18
9326.3994 1.16001e-17
9327.5957 1.32019e-17
9328.792 1.17728e-17
9329.9893 1.3759e-17
9331.1855 9.5266e-18
9332.3818 1.24443e-17
9333.5781 9.86509e-18
9334.7744 1.3339e-17
9335.9707 9.9632e-18
9337.167 1.21188e-17
9338.3633 1.0044e-17
9339.5596 1.45048e-17
9340.7559 1.28276e-17
9341.9521 9.23096e-18
9343.1484 1.52154e-17
9344.3447 1.55339e-17
9345.541 1.7404e-17
9346.7373 1.37525e-17
9347.9336 1.50414e-17
9349.1299 1.58559e-17
9350.3252 1.39482e-17
9351.5215 1.22463e-17
9352.7178 1.26793e-17
9353.9141 1.17016e-17
9355.1104 1.34463e-17
9356.3057 1.19298e-17
9357.502 1.35619e-17
9358.6982 1.59806e-17
9359.8936 1.40962e-17
9361.0898 1.19551e-17
9362.2861 1.29661e-17
9363.4814 1.09653e-17
9364.6777 1.13258e-17
9365.873 1.1875e-17
9367.0693 1.45728e-17
9368.2656 1.24914e-17
9369.4609 1.40181e-17
9370.6572 1.38259e-17
9371.8525 1.39742e-17
9373.0488 1.4852e-17
9374.2441 1.94896e-17
9375.4395 1.86251e-17
9376.6357 8.31242e-18
9377.8311 5.85518e-18
9379.0273 1.52693e-17
9380.2227 1.34213e-17
9381.418 1.38607e-17
9382.6143 1.36478e-17
9383.8096 1.76758e-17
9385.0049 1.96603e-17
9386.2002 1.1168e-17
9387.3965 1.50333e-17
9388.5918 1.57699e-17
9389.7871 1.45679e-17
9390.9824 1.30645e-17
9392.1777 1.4175e-17
9393.373 1.30775e-17
9394.5693 1.08109e-17
9395.7646 1.43083e-17
9396.96 1.49898e-17
9398.1553 1.41494e-17
9399.3506 1.39156e-17
9400.5459 1.68826e-17
9401.7412 1.76184e-17
9402.9365 1.39164e-17
9404.1318 1.21267e-17
9405.3271 1.68988e-17
9406.5225 1.44138e-17
9407.7168 1.57013e-17
9408.9121 1.56919e-17
9410.1074 1.3511e-17
9411.3027 1.40992e-17
9412.498 1.5e-17
9413.6934 1.714e-17
9414.8877 1.51794e-17
9416.083 1.46434e-17
9417.2783 1.31781e-17
9418.4736 1.19984e-17
9419.668 1.52647e-17
9420.8633 1.40949e-17
9422.0586 1.33219e-17
9423.2529 1.37686e-17
9424.4482 1.65288e-17
9425.6436 1.15291e-17
9426.8379 1.53902e-17
9428.0332 1.25831e-17
9429.2275 1.52612e-17
9430.4229 1.60293e-17
9431.6172 1.60399e-17
9432.8125 1.55254e-17
9434.0068 1.65228e-17
9435.2021 1.39125e-17
9436.3965 1.49207e-17
9437.5918 1.26674e-17
9438.7861 1.47575e-17
9439.9805 1.72798e-17
9441.1758 1.66006e-17
9442.3701 1.69801e-17
9443.5645 1.62465e-17
9444.7598 1.60792e-17
9445.9541 1.63277e-17
9447.1484 1.36932e-17
9448.3438 1.68044e-17
9449.5381 1.78585e-17
9450.7324 1.55099e-17
9451.9268 1.59931e-17
9453.1211 1.37368e-17
9454.3164 1.61685e-17
9455.5107 1.20598e-17
9456.7051 1.94217e-17
9457.8994 1.65329e-17
9459.0938 1.82365e-17
9460.2881 1.61949e-17
9461.4824 1.97038e-17
9462.6768 1.69203e-17
9463.8711 1.60087e-17
9465.0654 1.51871e-17
9466.2598 1.3408e-17
9467.4541 1.56044e-17
9468.6484 1.59973e-17
9469.8428 1.57745e-17
9471.0371 1.54033e-17
9472.2314 1.63605e-17
9473.4258 1.60384e-17
9474.6191 2.0239e-17
9475.8135 1.3576e-17
9477.0078 1.06221e-17
9478.2021 1.78005e-17
9479.3965 1.39861e-17
9480.5898 2.07884e-17
9481.7842 1.25488e-17
9482.9785 1.79869e-17
9484.1729 1.61492e-17
9485.3662 1.72881e-17
9486.5605 1.57918e-17
9487.7549 1.69303e-17
9488.9482 1.66541e-17
9490.1426 1.54695e-17
9491.3369 1.606e-17
9492.5303 1.62382e-17
9493.7246 1.63274e-17
9494.918 1.67145e-17
9496.1123 1.5715e-17
9497.3057 1.51509e-17
9498.5 2.05694e-17
9499.6934 2.00072e-17
9500.8877 1.99349e-17
9502.0811 2.28522e-17
9503.2754 1.86549e-17
9504.4688 1.68441e-17
9505.6621 1.78538e-17
9506.8564 1.7072e-17
9508.0498 1.66794e-17
9509.2432 1.81283e-17
9510.4375 1.64003e-17
9511.6309 1.74434e-17
9512.8242 1.85128e-17
9514.0186 1.78187e-17
9515.2119 1.74442e-17
9516.4053 2.03332e-17
9517.5986 1.66439e-17
9518.793 1.60873e-17
9519.9863 9.85069e-18
9521.1797 1.5769e-17
9522.373 1.43846e-17
9523.5664 1.54373e-17
9524.7598 1.61008e-17
9525.9541 1.62788e-17
9527.1475 1.6994e-17
9528.3408 1.57883e-17
9529.5342 1.81048e-17
9530.7275 2.08209e-17
9531.9209 1.84524e-17
9533.1143 1.80392e-17
9534.3076 1.67118e-17
9535.501 1.79389e-17
9536.6943 1.67571e-17
9537.8877 1.6525e-17
9539.0811 1.90863e-17
9540.2744 1.65241e-17
9541.4678 1.64842e-17
9542.6602 1.7719e-17
9543.8535 1.76138e-17
9545.0469 2.05933e-17
9546.2402 1.78306e-17
9547.4336 1.54934e-17
9548.627 1.75212e-17
9549.8193 1.56609e-17
9551.0127 1.53117e-17
9552.2061 1.77228e-17
9553.3994 1.62769e-17
9554.5918 1.85838e-17
9555.7852 1.70621e-17
9556.9785 1.78021e-17
9558.1719 1.94981e-17
9559.3643 1.52782e-17
9560.5576 1.70945e-17
9561.751 1.57827e-17
9562.9434 1.86608e-17
9564.1367 1.62195e-17
9565.3291 1.45107e-17
9566.5225 1.56247e-17
9567.7158 1.65377e-17
9568.9082 1.7796e-17
9570.1016 1.67818e-17
9571.2939 1.52347e-17
9572.4873 1.69393e-17
9573.6797 1.68057e-17
9574.873 1.67775e-17
9576.0654 1.73034e-17
9577.2588 1.74728e-17
9578.4512 1.66436e-17
9579.6436 1.96953e-17
9580.8369 1.69807e-17
9582.0293 1.80586e-17
9583.2227 1.70771e-17
9584.415 1.7148e-17
9585.6074 1.90068e-17
9586.8008 1.58983e-17
9587.9932 1.77494e-17
9589.1855 1.68733e-17
9590.3789 1.53631e-17
9591.5713 1.75311e-17
9592.7637 1.64413e-17
9593.957 1.91402e-17
9595.1494 1.63638e-17
9596.3418 1.66385e-17
9597.5342 1.56323e-17
9598.7266 1.86036e-17
9599.9199 1.39125e-17
9601.1123 1.62516e-17
9602.3047 1.84123e-17
9603.4971 1.47035e-17
9604.6895 1.70082e-17
9605.8818 1.48267e-17
9607.0752 1.75557e-17
9608.2676 1.35479e-17
9609.46 1.57771e-17
9610.6523 1.79e-17
9611.8447 1.75606e-17
9613.0371 1.57659e-17
9614.2295 1.62606e-17
9615.4219 1.42247e-17
9616.6143 1.69826e-17
9617.8066 1.74499e-17
9618.999 1.66972e-17
9620.1914 1.63708e-17
9621.3838 1.41136e-17
9622.5762 1.58808e-17
9623.7686 1.34021e-17
9624.9609 1.48577e-17
9626.1533 1.65875e-17
9627.3457 1.63677e-17
9628.5381 1.41775e-17
9629.7305 1.43512e-17
9630.9229 1.41482e-17
9632.1143 1.67952e-17
9633.3066 1.38035e-17
9634.499 1.89896e-17
9635.6914 1.86942e-17
9636.8838 1.62146e-17
9638.0762 1.5427e-17
9639.2676 1.61875e-17
9640.46 1.43499e-17
9641.6523 1.60776e-17
9642.8447 1.55328e-17
9644.0371 1.37088e-17
9645.2285 1.8926e-17
9646.4209 1.51435e-17
9647.6133 1.64557e-17
9648.8057 1.53907e-17
9649.9971 1.53776e-17
9651.1895 1.39182e-17
9652.3818 1.56427e-17
9653.5732 1.61116e-17
9654.7656 1.67331e-17
9655.958 1.55393e-17
9657.1494 1.35298e-17
9658.3418 1.17433e-17
9659.5342 1.3329e-17
9660.7256 1.30366e-17
9661.918 1.39997e-17
9663.1104 1.39671e-17
9664.3018 1.51193e-17
9665.4941 1.4577e-17
9666.6855 1.5032e-17
9667.8779 1.65258e-17
9669.0693 1.78073e-17
9670.2617 1.30297e-17
9671.4541 1.4517e-17
9672.6455 1.49991e-17
9673.8379 1.55825e-17
9675.0293 1.52768e-17
9676.2217 1.37446e-17
9677.4131 1.41153e-17
9678.6055 1.56286e-17
9679.7969 1.14561e-17
9680.9893 1.31661e-17
9682.1807 1.14298e-17
9683.373 1.75715e-17
9684.5645 1.20336e-17
9685.7568 1.53766e-17
9686.9482 1.64027e-17
9688.1406 1.31678e-17
9689.332 1.50895e-17
9690.5234 1.72998e-17
9691.7158 1.56424e-17
9692.9072 1.1384e-17
9694.0996 1.52381e-17
9695.291 1.6315e-17
9696.4834 1.44224e-17
9697.6748 1.31604e-17
9698.8662 1.40434e-17
9700.0586 1.40047e-17
9701.25 1.29553e-17
9702.4424 1.26777e-17
9703.6338 1.3244e-17
9704.8252 1.40643e-17
9706.0176 1.28442e-17
9707.209 1.2991e-17
9708.4004 1.56849e-17
9709.5928 1.49174e-17
9710.7842 1.61364e-17
9711.9756 1.11843e-17
9713.168 1.15342e-17
9714.3594 1.35568e-17
9715.5508 1.45625e-17
9716.7432 8.2716e-18
9717.9346 1.23377e-17
9719.126 1.44406e-17
9720.3184 1.3461e-17
9721.5098 1.27665e-17
9722.7012 1.22639e-17
9723.8926 1.25378e-17
9725.085 1.16958e-17
9726.2764 1.3673e-17
9727.4678 1.18307e-17
9728.6602 1.19955e-17
9729.8516 1.39078e-17
9731.043 1.3387e-17
9732.2344 1.15433e-17
9733.4268 1.45029e-17
9734.6182 1.47376e-17
9735.8096 1.70788e-17
9737.001 1.51887e-17
9738.1934 1.36054e-17
9739.3848 1.21024e-17
9740.5762 1.1826e-17
9741.7676 1.25453e-17
9742.96 1.34589e-17
9744.1514 1.31476e-17
9745.3428 1.12297e-17
9746.5342 1.44527e-17
9747.7256 1.4982e-17
9748.918 1.02829e-17
9750.1094 1.31755e-17
9751.3008 1.45649e-17
9752.4922 1.21428e-17
9753.6846 1.32904e-17
9754.876 1.24597e-17
9756.0674 1.08723e-17
9757.2588 1.32567e-17
9758.4512 1.176e-17
9759.6426 1.06283e-17
9760.834 1.32105e-17
9762.0254 1.39031e-17
9763.2168 1.30871e-17
9764.4092 1.2436e-17
9765.6006 1.26149e-17
9766.792 1.30016e-17
9767.9834 1.29015e-17
9769.1758 1.08987e-17
9770.3672 1.33315e-17
9771.5586 1.07251e-17
9772.75 1.21505e-17
9773.9414 1.32452e-17
9775.1338 8.18798e-18
9776.3252 1.10654e-17
9777.5166 1.05019e-17
9778.708 9.0959e-18
9779.8994 9.63704e-18
9781.0918 1.28984e-17
9782.2832 1.24967e-17
9783.4746 1.20233e-17
9784.666 1.19809e-17
9785.8584 1.11671e-17
9787.0498 1.34009e-17
9788.2412 1.48402e-17
9789.4326 1.08666e-17
9790.625 1.00666e-17
9791.8164 1.00677e-17
9793.0078 1.48337e-17
9794.1992 1.44263e-17
9795.3916 1.2751e-17
9796.583 8.41029e-18
9797.7744 5.82016e-18
9798.9668 1.10283e-17
9800.1582 3.17423e-18
9801.3496 1.10728e-17
9802.541 1.30225e-17
9803.7334 1.11694e-17
9804.9248 1.20824e-17
9806.1162 1.26002e-17
9807.3086 1.01719e-17
9808.5 1.00412e-17
9809.6914 1.20744e-17
9810.8838 1.2907e-17
9812.0752 9.21383e-18
9813.2666 1.03069e-17
9814.459 9.01333e-18
9815.6504 1.16898e-17
9816.8418 1.27771e-17
9818.0342 1.21824e-17
9819.2256 1.25223e-17
9820.417 1.18313e-17
9821.6094 1.02785e-17
9822.8008 1.205e-17
9823.9932 1.15932e-17
9825.1846 1.08472e-17
9826.376 1.24355e-17
9827.5684 1.01085e-17
9828.7598 9.1635e-18
9829.9521 1.19227e-17
9831.1436 1.16001e-17
9832.3359 1.11497e-17
9833.5273 1.05662e-17
9834.7188 9.23892e-18
9835.9111 1.06897e-17
9837.1025 1.06171e-17
9838.2949 7.15838e-18
9839.4863 1.16796e-17
9840.6787 1.16721e-17
9841.8701 1.06533e-17
9843.0625 7.29419e-18
9844.2549 9.51224e-18
9845.4463 9.00438e-18
9846.6387 8.00734e-18
9847.8301 8.31999e-18
9849.0225 1.05687e-17
9850.2139 1.33863e-17
9851.4062 1.22537e-17
9852.5977 1.09121e-17
9853.79 1.12767e-17
9854.9824 9.86057e-18
9856.1738 1.17273e-17
9857.3662 7.36411e-18
9858.5586 9.18007e-18
9859.75 1.20119e-17
9860.9424 1.01956e-17
9862.1348 8.72125e-18
9863.3262 9.52585e-18
9864.5186 8.78936e-18
9865.7109 9.25133e-18
9866.9033 8.24342e-18
9868.0947 6.92433e-18
9869.2871 1.50686e-17
9870.4795 1.59061e-17
9871.6719 1.47275e-17
9872.8643 1.2074e-17
9874.0557 1.01841e-17
9875.248 4.33831e-18
9876.4404 1.05805e-17
9877.6328 1.02311e-17
9878.8252 1.18753e-17
9880.0176 6.96299e-18
9881.21 8.55979e-18
9882.4023 9.30053e-18
9883.5947 9.1441e-18
9884.7861 9.84399e-18
9885.9785 9.66944e-18
9887.1719 9.44211e-18
9888.3633 1.00162e-17
9889.5557 1.05323e-17
9890.749 1.40543e-17
9891.9414 9.47679e-18
9893.1338 5.97002e-18
9894.3262 7.6997e-18
9895.5186 1.24349e-17
9896.7109 1.50188e-17
9897.9033 9.77036e-18
9899.0957 8.58614e-18
9900.2881 1.31804e-17
9901.4814 1.28823e-17
9902.6738 8.8378e-18
9903.8662 1.14102e-17
9905.0586 1.26122e-17
9906.252 8.86418e-18
9907.4443 9.29407e-18
9908.6367 1.10095e-17
9909.8301 1.08807e-17
9911.0225 6.28565e-18
9912.2148 1.25846e-17
9913.4082 7.89917e-18
9914.6006 1.25111e-17
9915.793 7.44881e-18
9916.9863 1.24853e-17
9918.1787 1.10016e-17
9919.3721 7.55485e-18
9920.5645 1.1981e-17
9921.7578 1.15225e-17
9922.9502 1.06851e-17
9924.1436 9.96164e-18
9925.3369 1.0042e-17
9926.5293 9.67052e-18
9927.7227 1.02071e-17
9928.915 8.84176e-18
9930.1084 1.18716e-17
9931.3018 1.0073e-17
9932.4951 1.28316e-17
9933.6875 9.81359e-18
9934.8809 7.21228e-18
9936.0742 1.0019e-17
9937.2676 1.49495e-17
9938.4609 1.3849e-17
9939.6533 1.4583e-17
9940.8467 1.06539e-17
9942.04 6.29373e-18
9943.2334 1.39461e-17
9944.4268 7.22506e-18
9945.6201 1.29256e-17
9946.8135 6.27789e-18
9948.0068 1.07422e-17
9949.2002 1.09082e-17
9950.3936 7.77386e-18
9951.5879 7.47383e-18
9952.7812 9.59952e-18
9953.9746 1.48716e-17
9955.168 1.3685e-17
9956.3613 7.64933e-18
9957.5557 6.76174e-18
9958.749 1.08189e-17
9959.9424 1.03718e-17
9961.1367 3.57126e-18
9962.3301 1.34517e-17
9963.5234 9.48512e-18
9964.7178 6.3548e-18
9965.9111 6.19945e-18
9967.1055 1.05037e-17
9968.2988 7.04329e-18
9969.4932 1.00184e-17
9970.6865 8.46185e-18
9971.8809 8.97915e-18
9973.0752 7.738e-18
9974.2686 7.41267e-18
9975.4629 9.49305e-18
9976.6572 1.12594e-17
9977.8516 6.57405e-18
9979.0449 9.08963e-18
9980.2393 1.09704e-17
9981.4336 1.14848e-17
9982.6279 1.15712e-17
9983.8223 1.00373e-17
9985.0166 1.01535e-17
9986.2109 1.18792e-17
9987.4053 8.16186e-18
9988.5996 9.98495e-18
9989.7939 8.58224e-18
9990.9883 6.9101e-18
9992.1826 1.01709e-17
9993.377 8.47574e-18
9994.5723 9.12649e-18
9995.7666 9.10316e-18
9996.9609 7.98864e-18
9998.1562 7.43649e-18
9999.3506 6.11354e-18
10000.545 5.58256e-18
10001.74 9.29544e-18
10002.935 6.6041e-18
10004.13 7.31068e-18
10005.324 9.86516e-18
10006.519 5.92212e-18
10007.714 4.13894e-18
10008.909 1.42583e-17
10010.104 1.06213e-17
10011.299 1.00553e-17
10012.494 8.76556e-18
10013.69 1.2244e-17
10014.885 7.13666e-19
10016.08 3.99375e-18
10017.275 2.59981e-18
10018.471 6.16969e-18
10019.666 1.06033e-17
10020.861 1.1036e-17
10022.057 1.01451e-17
10023.252 6.62742e-18
10024.448 3.94382e-18
10025.643 8.79459e-18
10026.839 1.01121e-17
10028.034 6.95786e-18
10029.23 1.13628e-17
10030.426 6.99762e-18
10031.621 9.69619e-18
10032.817 9.53304e-18
10034.013 7.3032e-18
10035.209 5.09646e-18
10036.405 9.28935e-18
10037.601 5.00974e-18
10038.797 7.14666e-18
10039.993 7.43959e-18
10041.189 7.4542e-18
10042.385 4.59177e-18
10043.581 8.73682e-18
10044.777 8.20611e-18
10045.973 8.59892e-18
10047.17 7.64104e-18
10048.366 7.31341e-18
10049.562 6.69678e-18
10050.759 8.38689e-18
10051.955 8.38237e-18
10053.152 7.05089e-18
10054.348 9.68526e-18
10055.545 8.08856e-18
10056.742 1.00721e-17
10057.938 1.05147e-17
10059.135 1.21559e-17
10060.332 1.00756e-17
10061.529 1.00115e-17
10062.726 2.48791e-18
10063.923 6.82626e-18
10065.12 5.96235e-18
10066.317 4.09249e-18
10067.514 6.51062e-18
10068.711 2.62269e-18
10069.908 3.48793e-18
10071.105 7.90171e-18
10072.303 1.01692e-17
10073.5 6.83817e-18
10074.697 7.32365e-18
10075.895 3.98682e-18
10077.092 4.88037e-18
10078.29 5.02533e-18
10079.488 1.50081e-18
10080.685 9.77261e-18
10081.883 1.44099e-17
10083.081 1.54204e-17
10084.279 5.47152e-18
10085.476 9.90475e-18
10086.674 5.81487e-18
10087.872 3.95657e-18
10089.07 1.03121e-17
10090.268 7.96057e-18
10091.467 8.75237e-18
10092.665 9.06971e-18
10093.863 1.1145e-17
10095.061 4.28385e-18
10096.26 8.09719e-18
10097.458 7.36988e-18
10098.657 6.7753e-18
10099.855 7.13421e-18
10101.054 1.50769e-17
10102.253 1.00626e-17
10103.451 1.479e-17
10104.65 5.62076e-19
10105.849 3.44018e-18
10107.048 8.73343e-18
10108.247 1.12606e-17
10109.446 2.93867e-18
10110.645 9.43637e-18
10111.844 8.89553e-18
10113.043 1.09981e-17
10114.242 7.26584e-18
10115.442 7.66379e-18
10116.641 6.74704e-18
10117.841 8.2429e-18
10119.04 6.51118e-18
10120.24 1.13212e-17
10121.439 6.27759e-18
10122.639 2.63853e-18
10123.839 5.40921e-18
10125.039 4.64161e-18
10126.238 1.71701e-17
10127.438 1.01174e-17
10128.638 7.97596e-18
10129.838 5.12172e-18
10131.039 8.10046e-18
10132.239 9.13132e-18
10133.439 1.00709e-17
10134.639 4.81426e-18
10135.84 8.98657e-18
10137.04 6.80038e-18
10138.241 8.4316e-18
10139.441 6.94762e-18
10140.642 9.0167e-18
10141.843 6.81068e-18
10143.044 1.03447e-17
10144.245 7.64109e-18
10145.446 6.47891e-18
10146.647 9.13093e-18
10147.848 8.67794e-18
10149.049 9.16075e-18
10150.25 8.55432e-18
10151.451 1.019e-17
10152.653 1.87423e-17
10153.854 9.77455e-18
10155.056 1.32998e-17
10156.257 2.90387e-18
10157.459 3.99161e-18
10158.661 1.1179e-17
10159.863 7.75104e-18
10161.065 9.43117e-18
10162.266 8.58482e-18
10163.469 1.57924e-17
10164.671 1.1816e-17
10165.873 9.22284e-18
10167.075 3.58761e-18
10168.277 6.79076e-18
10169.48 8.39586e-18
10170.682 5.50807e-18
10171.885 -2.05031e-18
10173.088 5.72063e-18
10174.29 -6.63436e-18
10175.493 4.05469e-18
10176.696 1.65217e-18
10177.899 8.83105e-18
10179.102 9.24166e-18
10180.305 5.33901e-18
10181.508 1.14866e-17
10182.712 4.27969e-18
10183.915 9.31691e-18
10185.118 1.15504e-17
10186.322 2.93588e-18
10187.526 9.95709e-18
10188.729 1.10602e-17
10189.933 1.11879e-17
10191.137 -1.33774e-18
10192.341 1.08551e-17
10193.545 1.91697e-17
10194.749 5.78287e-18
10195.953 8.52116e-18
10197.157 1.08822e-17
10198.362 5.64974e-18
10199.566 4.27796e-18
10200.771 7.47647e-18
10201.975 7.89321e-18
10203.18 -1.24939e-18
10204.385 9.46731e-18
10205.59 5.25965e-18
10206.795 8.52686e-18
10208.0 2.73518e-18
10209.205 1.29957e-17
10210.41 5.94375e-18
10211.615 6.79748e-18
10212.821 3.2314e-18
10214.026 1.29062e-17
10215.232 9.67229e-18
10216.438 4.36087e-18
10217.643 2.59904e-18
10218.849 9.05546e-18
10220.055 6.60191e-18
10221.261 6.45254e-18
10222.467 1.28065e-17
10223.674 7.83799e-19
10224.88 9.58442e-18
10226.086 1.24877e-17
10227.293 1.1078e-17
10228.499 1.87822e-17
10229.706 4.9994e-18
10230.913 1.80098e-17
10232.12 1.17985e-17
10233.327 6.94837e-18
10234.534 1.102e-17
10235.741 1.03745e-17
10236.948 6.03613e-18
10238.156 9.518e-18
10239.363 3.26698e-18
10240.571 1.44041e-17
10241.778 4.74855e-18
10242.986 1.17707e-17
10244.194 6.53733e-18
10245.402 1.44368e-17
10246.61 1.74502e-17
10247.818 1.50426e-17
10249.027 2.76106e-18
10250.235 9.22426e-18
10251.443 6.29701e-18
10252.652 1.15089e-17
10253.861 8.79213e-18
10255.07 1.23763e-17
10256.278 7.78011e-18
10257.487 9.80187e-18
10258.697 1.20963e-17
10259.906 8.79663e-18
10261.115 7.16412e-18
10262.324 8.08291e-18
10263.534 1.06475e-17
10264.744 1.07503e-17
10265.953 7.11718e-18
10267.163 6.01297e-18
10268.373 7.04286e-18
10269.583 1.1704e-17
10270.793 1.10679e-17
10272.004 1.52498e-17
10273.214 1.63831e-17
10274.425 6.39805e-18
10275.635 1.47865e-17
10276.846 9.6716e-18
10278.057 1.92384e-17
10279.268 1.04871e-17
10280.479 1.17831e-17
10281.69 1.46764e-17
10282.901 1.6902e-17
10284.113 2.09857e-18
10285.324 1.15248e-17
10286.536 5.12024e-18
10287.748 2.70017e-18
10288.959 -2.62493e-18
10290.171 1.20436e-17
10291.383 7.34336e-18
10292.596 6.68971e-18
10293.808 3.48027e-18
10295.02 -4.60643e-18
10296.233 5.70191e-18
10297.446 9.94451e-18
10298.659 1.60696e-17
10299.871 1.57814e-17
10301.084 1.25665e-17
10302.298 1.12444e-17
10303.511 2.81709e-17
10304.724 1.90699e-19
10305.938 7.83209e-18
