# Wavelength Flux
# STATUS = PUBLIC
# OBJECT = 2012il
# TELESCOPE =
# INSTRUMENT =
# DATE-OBS =
# MJD =
# EXPTIME =
# SLIT =
# DISPERSER =
# SOURCE =
# FILTER =
# FLUX_STANDARD =
# EXTINCTION_CORRECTED =
# PHOTOMETRY_CALIBRATED =
# FLUX_UNITS =
# QUALITY =
# MIN_WAVE =
# MAX_WAVE =
# COMMENT =
3525.0 5.70878e-17
3528.04128 7.67838e-17
3531.08257 6.31942e-17
3534.12385 6.22113e-17
3537.16513 5.86833e-17
3540.20642 6.03092e-17
3543.2477 4.52599e-17
3546.28899 4.83773e-17
3549.33027 4.21736e-17
3552.37155 6.65942e-17
3555.41284 6.80332e-17
3558.45412 7.00397e-17
3561.4954 8.21171e-17
3564.53669 6.80595e-17
3567.57797 5.22782e-17
3570.61925 4.86756e-17
3573.66054 5.75466e-17
3576.70182 5.0091e-17
3579.7431 6.5436e-17
3582.78439 5.63551e-17
3585.82567 5.49717e-17
3588.86696 5.82377e-17
3591.90824 6.20961e-17
3594.94952 5.73448e-17
3597.99081 5.42296e-17
3601.03209 5.60362e-17
3604.07337 5.12413e-17
3607.11466 5.83549e-17
3610.15594 7.24526e-17
3613.19722 4.54259e-17
3616.23851 5.30842e-17
3619.27979 5.5962e-17
3622.32107 6.39359e-17
3625.36236 7.03528e-17
3628.40364 5.83401e-17
3631.44493 5.09307e-17
3634.48621 6.37681e-17
3637.52749 5.95285e-17
3640.56878 5.71005e-17
3643.61006 6.06067e-17
3646.65134 6.35883e-17
3649.69263 6.21245e-17
3652.73391 6.15269e-17
3655.77519 6.30306e-17
3658.81648 6.36486e-17
3661.85776 5.3073e-17
3664.89904 1.18734e-17
3667.94033 4.99012e-17
3670.98161 5.99741e-17
3674.0229 5.94147e-17
3677.06418 6.91933e-17
3680.10546 6.1479e-17
3683.14675 6.26568e-17
3686.18803 6.59345e-17
3689.22931 5.99748e-17
3692.2706 6.2722e-17
3695.31188 6.81331e-17
3698.35316 6.63596e-17
3701.39445 6.77131e-17
3704.43573 5.86759e-17
3707.47702 6.723e-17
3710.5183 6.70726e-17
3713.55958 6.09855e-17
3716.60087 6.11707e-17
3719.64215 4.93434e-17
3722.68343 4.91665e-17
3725.72472 4.97152e-17
3728.766 4.83096e-17
3731.80728 6.00106e-17
3734.84857 6.07932e-17
3737.88985 6.16712e-17
3740.93113 6.31341e-17
3743.97242 6.31759e-17
3747.0137 6.17109e-17
3750.05499 6.7726e-17
3753.09627 7.36766e-17
3756.13755 6.96118e-17
3759.17884 6.83643e-17
3762.22012 7.11708e-17
3765.2614 7.05998e-17
3768.30269 7.07939e-17
3771.34397 7.3248e-17
3774.38525 6.60142e-17
3777.42654 6.53948e-17
3780.46782 6.54292e-17
3783.5091 6.43445e-17
3786.55039 5.48111e-17
3789.59167 5.58583e-17
3792.63296 6.94286e-17
3795.67424 7.80556e-17
3798.71552 7.61828e-17
3801.75681 6.75954e-17
3804.79809 6.51492e-17
3807.83937 6.0987e-17
3810.88066 6.22425e-17
3813.92194 6.7149e-17
3816.96322 6.34809e-17
3820.00451 6.72828e-17
3823.04579 6.70048e-17
3826.08707 6.73832e-17
3829.12836 6.05756e-17
3832.16964 6.96934e-17
3835.21093 6.90954e-17
3838.25221 6.96376e-17
3841.29349 7.38469e-17
3844.33478 7.17533e-17
3847.37606 6.64645e-17
3850.41734 6.96715e-17
3853.45863 7.05514e-17
3856.49991 7.26072e-17
3859.54119 7.23257e-17
3862.58248 6.40389e-17
3865.62376 5.63743e-17
3868.66504 5.70802e-17
3871.70633 6.87679e-17
3874.74761 6.72264e-17
3877.7889 6.54163e-17
3880.83018 6.79019e-17
3883.87146 6.46042e-17
3886.91275 6.96979e-17
3889.95403 7.16384e-17
3892.99531 7.50424e-17
3896.0366 7.44139e-17
3899.07788 7.76045e-17
3902.11916 7.11099e-17
3905.16045 7.50572e-17
3908.20173 8.95476e-17
3911.24302 8.43328e-17
3914.2843 8.39622e-17
3917.32558 8.44181e-17
3920.36687 7.48576e-17
3923.40815 8.16911e-17
3926.44943 7.49148e-17
3929.49072 7.64304e-17
3932.532 8.39123e-17
3935.57328 8.36655e-17
3938.61457 8.34447e-17
3941.65585 8.76833e-17
3944.69713 8.97413e-17
3947.73842 9.08608e-17
3950.7797 8.36827e-17
3953.82099 8.34499e-17
3956.86227 7.49547e-17
3959.90355 8.12065e-17
3962.94484 8.30125e-17
3965.98612 7.46195e-17
3969.0274 7.47413e-17
3972.06869 8.22026e-17
3975.10997 7.87464e-17
3978.15125 7.65361e-17
3981.19254 6.83895e-17
3984.23382 7.90496e-17
3987.2751 8.97043e-17
3990.31639 8.68068e-17
3993.35767 8.68388e-17
3996.39896 8.82396e-17
3999.44024 8.96255e-17
4002.48152 8.69044e-17
4005.52281 8.49722e-17
4008.56409 8.9652e-17
4011.60537 8.56155e-17
4014.64666 8.39315e-17
4017.68794 8.30611e-17
4020.72922 7.7669e-17
4023.77051 8.2165e-17
4026.81179 7.93105e-17
4029.85307 8.45445e-17
4032.89436 8.70087e-17
4035.93564 7.93445e-17
4038.97693 8.22454e-17
4042.01821 9.17605e-17
4045.05949 8.71109e-17
4048.10078 8.47155e-17
4051.14206 7.98741e-17
4054.18334 8.01708e-17
4057.22463 8.83347e-17
4060.26591 9.44745e-17
4063.30719 8.5789e-17
4066.34848 7.99023e-17
4069.38976 7.89517e-17
4072.43105 8.19794e-17
4075.47233 8.62577e-17
4078.51361 9.11807e-17
4081.5549 9.24748e-17
4084.59618 8.64601e-17
4087.63746 8.8632e-17
4090.67875 9.52802e-17
4093.72003 8.919e-17
4096.76131 8.75696e-17
4099.8026 8.43825e-17
4102.84388 8.39463e-17
4105.88516 8.12379e-17
4108.92645 8.80018e-17
4111.96773 9.52912e-17
4115.00902 9.07138e-17
4118.0503 8.74586e-17
4121.09158 8.65331e-17
4124.13287 8.29261e-17
4127.17415 8.83651e-17
4130.21543 9.07991e-17
4133.25672 8.71858e-17
4136.298 7.9008e-17
4139.33928 7.87501e-17
4142.38057 8.95674e-17
4145.42185 9.11644e-17
4148.46313 9.11199e-17
4151.50442 8.59997e-17
4154.5457 9.41671e-17
4157.58699 9.5278e-17
4160.62827 8.84755e-17
4163.66955 9.43242e-17
4166.71084 9.72584e-17
4169.75212 9.46989e-17
4172.7934 9.50864e-17
4175.83469 9.87308e-17
4178.87597 1.00952e-16
4181.91725 9.66829e-17
4184.95854 9.52086e-17
4187.99982 9.32144e-17
4191.0411 9.14354e-17
4194.08239 9.01696e-17
4197.12367 9.31155e-17
4200.16496 9.54936e-17
4203.20624 9.72741e-17
4206.24752 9.20525e-17
4209.28881 8.97615e-17
4212.33009 9.36949e-17
4215.37137 9.23027e-17
4218.41266 8.3491e-17
4221.45394 8.23975e-17
4224.49522 8.65466e-17
4227.53651 8.85589e-17
4230.57779 9.15862e-17
4233.61907 8.76021e-17
4236.66036 8.73152e-17
4239.70164 9.91659e-17
4242.74293 9.43936e-17
4245.78421 8.83144e-17
4248.82549 8.75449e-17
4251.86678 8.57421e-17
4254.90806 9.27203e-17
4257.94934 9.31215e-17
4260.99063 9.28307e-17
4264.03191 8.8041e-17
4267.07319 8.86507e-17
4270.11448 8.68405e-17
4273.15576 9.10549e-17
4276.19705 8.93991e-17
4279.23833 8.61281e-17
4282.27961 8.86225e-17
4285.3209 9.34965e-17
4288.36218 9.09756e-17
4291.40346 9.11534e-17
4294.44475 9.43823e-17
4297.48603 9.30453e-17
4300.52731 8.93829e-17
4303.5686 8.42253e-17
4306.60988 8.07008e-17
4309.65116 8.55676e-17
4312.69245 9.01159e-17
4315.73373 8.33347e-17
4318.77502 8.14159e-17
4321.8163 8.75946e-17
4324.85758 9.22491e-17
4327.89887 9.0327e-17
4330.94015 8.68023e-17
4333.98143 8.64785e-17
4337.02272 8.74418e-17
4340.064 8.78616e-17
4343.10528 9.10365e-17
4346.14657 8.96062e-17
4349.18785 8.76223e-17
4352.22913 8.91179e-17
4355.27042 9.03742e-17
4358.3117 8.66799e-17
4361.35299 8.1311e-17
4364.39427 8.33901e-17
4367.43555 9.01162e-17
4370.47684 8.99249e-17
4373.51812 8.57255e-17
4376.5594 7.97583e-17
4379.60069 8.69616e-17
4382.64197 9.24052e-17
4385.68325 9.73937e-17
4388.72454 9.58234e-17
4391.76582 9.22881e-17
4394.8071 8.49487e-17
4397.84839 8.6682e-17
4400.88967 8.87399e-17
4403.93096 8.6827e-17
4406.97224 8.45803e-17
4410.01352 8.38036e-17
4413.05481 8.09799e-17
4416.09609 8.77618e-17
4419.13737 9.22622e-17
4422.17866 8.9915e-17
4425.21994 8.24095e-17
4428.26122 8.71164e-17
4431.30251 8.90911e-17
4434.34379 8.7744e-17
4437.38508 7.89258e-17
4440.42636 8.51811e-17
4443.46764 9.03876e-17
4446.50893 9.18635e-17
4449.55021 8.96174e-17
4452.59149 8.32089e-17
4455.63278 8.45723e-17
4458.67406 8.68014e-17
4461.71534 8.16897e-17
4464.75663 7.86424e-17
4467.79791 8.75156e-17
4470.83919 8.57093e-17
4473.88048 8.40163e-17
4476.92176 8.24846e-17
4479.96305 8.72064e-17
4483.00433 8.60348e-17
4486.04561 8.51316e-17
4489.0869 8.91551e-17
4492.12818 9.34811e-17
4495.16946 9.42393e-17
4498.21075 8.86559e-17
4501.25203 8.38963e-17
4504.29331 8.37042e-17
4507.3346 9.36497e-17
4510.37588 9.81656e-17
4513.41716 8.76372e-17
4516.45845 9.06102e-17
4519.49973 9.40216e-17
4522.54102 8.84955e-17
4525.5823 8.54789e-17
4528.62358 8.92122e-17
4531.66487 9.19075e-17
4534.70615 9.24355e-17
4537.74743 9.38289e-17
4540.78872 9.1523e-17
4543.83 9.66163e-17
4546.87128 9.8033e-17
4549.91257 9.58381e-17
4552.95385 9.22891e-17
4555.99513 9.37566e-17
4559.03642 9.46926e-17
4562.0777 9.48948e-17
4565.11899 9.99034e-17
4568.16027 9.72197e-17
4571.20155 9.54507e-17
4574.24284 9.5812e-17
4577.28412 9.44068e-17
4580.3254 9.67616e-17
4583.36669 9.8786e-17
4586.40797 1.01025e-16
4589.44925 1.01467e-16
4592.49054 9.69862e-17
4595.53182 9.78992e-17
4598.57311 9.54521e-17
4601.61439 9.55637e-17
4604.65567 9.46792e-17
4607.69696 9.46172e-17
4610.73824 9.23697e-17
4613.77952 9.7192e-17
4616.82081 9.88988e-17
4619.86209 9.89219e-17
4622.90337 9.66459e-17
4625.94466 9.21667e-17
4628.98594 9.09233e-17
4632.02722 9.36241e-17
4635.06851 9.08395e-17
4638.10979 9.74711e-17
4641.15108 9.59627e-17
4644.19236 9.47379e-17
4647.23364 9.79856e-17
4650.27493 9.37781e-17
4653.31621 9.06775e-17
4656.35749 9.27806e-17
4659.39878 9.98785e-17
4662.44006 9.91896e-17
4665.48134 9.07429e-17
4668.52263 9.51695e-17
4671.56391 9.4027e-17
4674.60519 9.13049e-17
4677.64648 9.27078e-17
4680.68776 9.55079e-17
4683.72905 9.38639e-17
4686.77033 9.61518e-17
4689.81161 9.38422e-17
4692.8529 9.28081e-17
4695.89418 8.70536e-17
4698.93546 9.7258e-17
4701.97675 9.8451e-17
4705.01803 8.64311e-17
4708.05931 9.21863e-17
4711.1006 9.3732e-17
4714.14188 9.10431e-17
4717.18316 9.6298e-17
4720.22445 9.34988e-17
4723.26573 9.22144e-17
4726.30702 9.18877e-17
4729.3483 9.01888e-17
4732.38958 9.31271e-17
4735.43087 9.2094e-17
4738.47215 9.20933e-17
4741.51343 9.59569e-17
4744.55472 9.51912e-17
4747.596 9.29457e-17
4750.63728 9.32032e-17
4753.67857 9.05648e-17
4756.71985 9.51973e-17
4759.76113 9.4125e-17
4762.80242 9.1823e-17
4765.8437 9.40615e-17
4768.88499 9.61425e-17
4771.92627 8.87083e-17
4774.96755 9.19733e-17
4778.00884 9.18821e-17
4781.05012 9.16017e-17
4784.0914 9.158e-17
4787.13269 9.37925e-17
4790.17397 9.59001e-17
4793.21525 9.28531e-17
4796.25654 9.40402e-17
4799.29782 9.24776e-17
4802.33911 9.18433e-17
4805.38039 9.03678e-17
4808.42167 9.48916e-17
4811.46296 9.34562e-17
4814.50424 9.25057e-17
4817.54552 9.19442e-17
4820.58681 9.21315e-17
4823.62809 9.40959e-17
4826.66937 8.93055e-17
4829.71066 9.32732e-17
4832.75194 9.58687e-17
4835.79322 9.69174e-17
4838.83451 9.29995e-17
4841.87579 8.81757e-17
4844.91708 9.18851e-17
4847.95836 9.23104e-17
4850.99964 9.09797e-17
4854.04093 9.43384e-17
4857.08221 8.5518e-17
4860.12349 8.38126e-17
4863.16478 8.71506e-17
4866.20606 9.05007e-17
4869.24734 8.96153e-17
4872.28863 8.8031e-17
4875.32991 8.61623e-17
4878.37119 8.33747e-17
4881.41248 8.35785e-17
4884.45376 8.64952e-17
4887.49505 8.68742e-17
4890.53633 7.38238e-17
4893.57761 7.10152e-17
4896.6189 8.52027e-17
4899.66018 8.98145e-17
4902.70146 8.56668e-17
4905.74275 8.11647e-17
4908.78403 8.22807e-17
4911.82531 7.84766e-17
4914.8666 8.26892e-17
4917.90788 8.69612e-17
4920.94916 8.31926e-17
4923.99045 7.78323e-17
4927.03173 7.87819e-17
4930.07302 8.09429e-17
4933.1143 8.26987e-17
4936.15558 8.46141e-17
4939.19687 7.99659e-17
4942.23815 8.32086e-17
4945.27943 8.45749e-17
4948.32072 8.34201e-17
4951.362 7.6709e-17
4954.40328 7.6063e-17
4957.44457 7.68878e-17
4960.48585 7.24258e-17
4963.52714 7.31497e-17
4966.56842 7.62532e-17
4969.6097 7.80761e-17
4972.65099 7.69294e-17
4975.69227 7.28945e-17
4978.73355 7.70252e-17
4981.77484 7.49729e-17
4984.81612 7.35653e-17
4987.8574 7.78488e-17
4990.89869 8.0023e-17
4993.93997 7.57429e-17
4996.98125 8.07822e-17
5000.02254 8.53649e-17
5003.06382 8.26734e-17
5006.10511 8.00019e-17
5009.14639 7.71378e-17
5012.18767 7.91365e-17
5015.22896 8.0985e-17
5018.27024 8.15831e-17
5021.31152 7.80612e-17
5024.35281 7.59231e-17
5027.39409 7.58883e-17
5030.43537 7.7354e-17
5033.47666 7.67576e-17
5036.51794 8.25949e-17
5039.55922 7.92787e-17
5042.60051 7.92462e-17
5045.64179 8.53084e-17
5048.68308 8.02974e-17
5051.72436 8.31763e-17
5054.76564 7.73897e-17
5057.80693 7.59237e-17
5060.84821 7.78679e-17
5063.88949 7.89032e-17
5066.93078 7.97254e-17
5069.97206 8.01961e-17
5073.01334 8.15227e-17
5076.05463 7.93011e-17
5079.09591 8.31343e-17
5082.13719 8.63221e-17
5085.17848 7.96355e-17
5088.21976 7.51001e-17
5091.26105 7.9548e-17
5094.30233 8.71591e-17
5097.34361 9.08451e-17
5100.3849 8.75879e-17
5103.42618 8.92048e-17
5106.46746 8.42626e-17
5109.50875 7.81829e-17
5112.55003 8.44405e-17
5115.59131 8.63063e-17
5118.6326 7.85253e-17
5121.67388 7.6597e-17
5124.71516 8.66903e-17
5127.75645 8.52658e-17
5130.79773 8.15569e-17
5133.83902 8.23755e-17
5136.8803 7.783e-17
5139.92158 7.91011e-17
5142.96287 8.10591e-17
5146.00415 7.67517e-17
5149.04543 7.95733e-17
5152.08672 8.34008e-17
5155.128 8.32533e-17
5158.16928 8.49153e-17
5161.21057 8.28152e-17
5164.25185 8.28205e-17
5167.29314 8.579e-17
5170.33442 8.50532e-17
5173.3757 8.29257e-17
5176.41699 8.20208e-17
5179.45827 8.15921e-17
5182.49955 8.68978e-17
5185.54084 7.82199e-17
5188.58212 6.97542e-17
5191.6234 8.21328e-17
5194.66469 8.40664e-17
5197.70597 8.19657e-17
5200.74725 8.71224e-17
5203.78854 8.92591e-17
5206.82982 8.79732e-17
5209.87111 8.46704e-17
5212.91239 8.74962e-17
5215.95367 8.60987e-17
5218.99496 8.2129e-17
5222.03624 8.1814e-17
5225.07752 8.46725e-17
5228.11881 8.29926e-17
5231.16009 7.71077e-17
5234.20137 8.16215e-17
5237.24266 8.13572e-17
5240.28394 8.11707e-17
5243.32522 8.14561e-17
5246.36651 7.7788e-17
5249.40779 8.31301e-17
5252.44908 8.02412e-17
5255.49036 7.49406e-17
5258.53164 8.13461e-17
5261.57293 8.37116e-17
5264.61421 8.18933e-17
5267.65549 8.30069e-17
5270.69678 7.99068e-17
5273.73806 7.99982e-17
5276.77934 8.01067e-17
5279.82063 7.91861e-17
5282.86191 8.03213e-17
5285.90319 7.96109e-17
5288.94448 7.65913e-17
5291.98576 7.62951e-17
5295.02705 7.43547e-17
5298.06833 7.71785e-17
5301.10961 7.98124e-17
5304.1509 8.2994e-17
5307.19218 7.89881e-17
5310.23346 8.06977e-17
5313.27475 8.1293e-17
5316.31603 7.97952e-17
5319.35731 7.55209e-17
5322.3986 7.77317e-17
5325.43988 7.5166e-17
5328.48117 6.63205e-17
5331.52245 7.53628e-17
5334.56373 7.41739e-17
5337.60502 7.64174e-17
5340.6463 7.65197e-17
5343.68758 7.99463e-17
5346.72887 7.88066e-17
5349.77015 7.73291e-17
5352.81143 7.6134e-17
5355.85272 8.04658e-17
5358.894 7.95428e-17
5361.93528 8.27445e-17
5364.97657 8.32278e-17
5368.01785 8.01469e-17
5371.05914 8.1701e-17
5374.10042 8.09369e-17
5377.1417 8.07969e-17
5380.18299 8.55574e-17
5383.22427 8.1513e-17
5386.26555 7.86415e-17
5389.30684 8.17448e-17
5392.34812 8.89926e-17
5395.3894 9.13997e-17
5398.43069 8.63057e-17
5401.47197 8.07785e-17
5404.51325 8.15561e-17
5407.55454 8.18546e-17
5410.59582 8.05027e-17
5413.63711 8.02528e-17
5416.67839 8.50353e-17
5419.71967 8.1001e-17
5422.76096 7.81844e-17
5425.80224 8.03718e-17
5428.84352 7.76091e-17
5431.88481 7.70076e-17
5434.92609 7.42967e-17
5437.96737 7.43217e-17
5441.00866 7.61557e-17
5444.04994 7.84708e-17
5447.09122 7.74901e-17
5450.13251 7.55593e-17
5453.17379 7.75173e-17
5456.21508 7.93207e-17
5459.25636 7.75071e-17
5462.29764 7.75049e-17
5465.33893 8.53834e-17
5468.38021 8.45382e-17
5471.42149 8.94022e-17
5474.46278 8.67816e-17
5477.50406 7.79338e-17
5480.54534 7.66328e-17
5483.58663 7.11799e-17
5486.62791 6.7638e-17
5489.6692 6.52827e-17
5492.71048 7.2168e-17
5495.75176 7.88741e-17
5498.79305 7.54362e-17
5501.83433 7.44489e-17
5504.87561 7.6676e-17
5507.9169 7.77005e-17
5510.95818 7.49304e-17
5513.99946 7.63636e-17
5517.04075 7.5759e-17
5520.08203 7.94066e-17
5523.12331 8.09024e-17
5526.1646 7.95687e-17
5529.20588 8.02166e-17
5532.24717 8.18436e-17
5535.28845 7.86492e-17
5538.32973 7.58322e-17
5541.37102 7.52415e-17
5544.4123 7.71916e-17
5547.45358 7.774e-17
5550.49487 7.72999e-17
5553.53615 7.43356e-17
5556.57743 7.60878e-17
5559.61872 7.73325e-17
5562.66 7.4671e-17
5565.70128 7.09003e-17
5568.74257 6.70724e-17
5571.78385 6.08918e-17
5574.82514 6.54644e-17
5577.86642 7.17272e-17
5580.9077 7.63403e-17
5583.94899 7.81099e-17
5586.99027 7.17362e-17
5590.03155 6.97972e-17
5593.07284 7.1582e-17
5596.11412 6.90426e-17
5599.1554 7.03155e-17
5602.19669 7.53715e-17
5605.23797 7.74624e-17
5608.27925 7.58434e-17
5611.32054 7.40928e-17
5614.36182 7.06729e-17
5617.40311 6.53872e-17
5620.44439 6.95906e-17
5623.48567 7.4466e-17
5626.52696 7.16967e-17
5629.56824 7.22956e-17
5632.60952 7.60625e-17
5635.65081 7.45103e-17
5638.69209 7.21898e-17
5641.73337 7.18871e-17
5644.77466 6.51392e-17
5647.81594 6.37159e-17
5650.85722 6.51007e-17
5653.89851 6.59401e-17
5656.93979 6.54597e-17
5659.98108 7.35788e-17
5663.02236 7.9089e-17
5666.06364 7.3529e-17
5669.10493 6.85693e-17
5672.14621 6.71311e-17
5675.18749 6.89209e-17
5678.22878 6.70706e-17
5681.27006 6.2869e-17
5684.31134 6.87866e-17
5687.35263 6.85051e-17
5690.39391 6.88436e-17
5693.4352 6.87969e-17
5696.47648 6.87417e-17
5699.51776 6.88258e-17
5702.55905 7.4392e-17
5705.60033 7.53827e-17
5708.64161 7.86817e-17
5711.6829 7.68775e-17
5714.72418 7.99039e-17
5717.76546 7.47422e-17
5720.80675 7.19124e-17
5723.84803 7.01939e-17
5726.88931 7.30879e-17
5729.9306 6.92472e-17
5732.97188 6.54653e-17
5736.01317 7.00028e-17
5739.05445 6.95736e-17
5742.09573 6.85005e-17
5745.13702 6.32483e-17
5748.1783 6.13921e-17
5751.21958 6.73035e-17
5754.26087 6.7437e-17
5757.30215 6.99792e-17
5760.34343 6.968e-17
5763.38472 6.98386e-17
5766.426 7.08391e-17
5769.46728 6.74557e-17
5772.50857 6.81613e-17
5775.54985 6.88007e-17
5778.59114 6.7566e-17
5781.63242 6.98528e-17
5784.6737 7.31173e-17
5787.71499 7.68391e-17
5790.75627 7.51969e-17
5793.79755 7.07826e-17
5796.83884 6.88324e-17
5799.88012 6.52717e-17
5802.9214 6.45114e-17
5805.96269 7.0731e-17
5809.00397 7.42218e-17
5812.04525 6.91173e-17
5815.08654 7.32606e-17
5818.12782 8.4923e-17
5821.16911 9.17601e-17
5824.21039 8.80431e-17
5827.25167 8.67242e-17
5830.29296 8.18067e-17
5833.33424 7.37445e-17
5836.37552 6.82151e-17
5839.41681 7.14285e-17
5842.45809 7.77659e-17
5845.49937 7.74623e-17
5848.54066 7.37286e-17
5851.58194 6.91015e-17
5854.62323 6.59643e-17
5857.66451 7.26009e-17
5860.70579 7.4003e-17
5863.74708 6.83453e-17
5866.78836 6.75032e-17
5869.82964 7.01803e-17
5872.87093 8.12898e-17
5875.91221 1.0729e-16
5878.95349 1.25624e-16
5881.99478 1.22331e-16
5885.03606 1.02828e-16
5888.07734 8.81716e-17
5891.11863 7.16662e-17
5894.15991 7.78084e-17
5897.2012 8.76076e-17
5900.24248 7.49728e-17
5903.28376 6.78939e-17
5906.32505 6.66005e-17
5909.36633 6.69609e-17
5912.40761 6.61385e-17
5915.4489 6.61338e-17
5918.49018 7.22858e-17
5921.53146 7.20733e-17
5924.57275 6.94376e-17
5927.61403 6.95963e-17
5930.65531 6.91198e-17
5933.6966 6.45133e-17
5936.73788 6.27508e-17
5939.77917 6.88115e-17
5942.82045 6.82406e-17
5945.86173 7.08861e-17
5948.90302 6.52811e-17
5951.9443 6.40408e-17
5954.98558 7.11111e-17
5958.02687 6.95682e-17
5961.06815 6.93138e-17
5964.10943 7.17643e-17
5967.15072 6.98762e-17
5970.192 6.6763e-17
5973.23328 7.30049e-17
5976.27457 7.25028e-17
5979.31585 7.52428e-17
5982.35714 6.92365e-17
5985.39842 7.00905e-17
5988.4397 7.51658e-17
5991.48099 7.25773e-17
5994.52227 6.83323e-17
5997.56355 7.01959e-17
6000.60484 6.90619e-17
6003.64612 6.70297e-17
6006.6874 6.57104e-17
6009.72869 6.69294e-17
6012.76997 6.79971e-17
6015.81126 6.7996e-17
6018.85254 7.01855e-17
6021.89382 7.22978e-17
6024.93511 7.19078e-17
6027.97639 6.76441e-17
6031.01767 6.49255e-17
6034.05896 6.74318e-17
6037.10024 7.15701e-17
6040.14152 7.23522e-17
6043.18281 6.83677e-17
6046.22409 7.06208e-17
6049.26537 6.77088e-17
6052.30666 6.59654e-17
6055.34794 7.13984e-17
6058.38923 7.12172e-17
6061.43051 6.78921e-17
6064.47179 6.88002e-17
6067.51308 6.45812e-17
6070.55436 6.45738e-17
6073.59564 6.96971e-17
6076.63693 6.89566e-17
6079.67821 6.69362e-17
6082.71949 6.56428e-17
6085.76078 6.65825e-17
6088.80206 6.61957e-17
6091.84334 7.13847e-17
6094.88463 7.31473e-17
6097.92591 6.91584e-17
6100.9672 6.38678e-17
6104.00848 6.44794e-17
6107.04976 6.48485e-17
6110.09105 6.68297e-17
6113.13233 6.82418e-17
6116.17361 6.51885e-17
6119.2149 6.53841e-17
6122.25618 6.44965e-17
6125.29746 6.30734e-17
6128.33875 6.17903e-17
6131.38003 6.26731e-17
6134.42131 6.89778e-17
6137.4626 6.88658e-17
6140.50388 6.7912e-17
6143.54517 6.36465e-17
6146.58645 7.07166e-17
6149.62773 7.1303e-17
6152.66902 6.54115e-17
6155.7103 6.13788e-17
6158.75158 6.54339e-17
6161.79287 6.88489e-17
6164.83415 6.18178e-17
6167.87543 5.83842e-17
6170.91672 6.39676e-17
6173.958 6.70403e-17
6176.99928 6.60733e-17
6180.04057 6.35513e-17
6183.08185 6.15887e-17
6186.12314 6.41006e-17
6189.16442 6.46588e-17
6192.2057 6.03814e-17
6195.24699 6.54489e-17
6198.28827 6.88528e-17
6201.32955 6.39494e-17
6204.37084 6.43078e-17
6207.41212 6.30934e-17
6210.4534 6.12709e-17
6213.49469 6.42146e-17
6216.53597 6.65512e-17
6219.57726 6.93707e-17
6222.61854 6.92444e-17
6225.65982 6.24609e-17
6228.70111 6.63862e-17
6231.74239 6.48235e-17
6234.78367 6.31579e-17
6237.82496 6.77486e-17
6240.86624 6.48243e-17
6243.90752 6.3787e-17
6246.94881 6.35569e-17
6249.99009 5.99349e-17
6253.03137 6.22065e-17
6256.07266 6.46138e-17
6259.11394 6.3351e-17
6262.15523 6.24266e-17
6265.19651 6.42776e-17
6268.23779 6.99274e-17
6271.27908 6.79844e-17
6274.32036 5.89411e-17
6277.36164 5.8336e-17
6280.40293 6.21439e-17
6283.44421 6.46143e-17
6286.48549 6.53173e-17
6289.52678 6.16252e-17
6292.56806 6.29858e-17
6295.60934 6.37942e-17
6298.65063 6.09324e-17
6301.69191 6.43109e-17
6304.7332 6.81491e-17
6307.77448 6.33683e-17
6310.81576 6.55535e-17
6313.85705 6.51634e-17
6316.89833 5.94038e-17
6319.93961 6.18161e-17
6322.9809 6.27059e-17
6326.02218 5.85031e-17
6329.06346 5.83369e-17
6332.10475 6.58873e-17
6335.14603 6.60166e-17
6338.18731 6.20696e-17
6341.2286 5.65388e-17
6344.26988 5.7253e-17
6347.31117 6.05822e-17
6350.35245 6.3114e-17
6353.39373 6.71015e-17
6356.43502 6.61321e-17
6359.4763 6.47289e-17
6362.51758 6.25923e-17
6365.55887 5.8999e-17
6368.60015 5.89922e-17
6371.64143 6.34471e-17
6374.68272 6.56922e-17
6377.724 6.7107e-17
6380.76529 6.77807e-17
6383.80657 6.31392e-17
6386.84785 5.82776e-17
6389.88914 6.28835e-17
6392.93042 6.72046e-17
6395.9717 6.48644e-17
6399.01299 6.44569e-17
6402.05427 6.5015e-17
6405.09555 6.09876e-17
6408.13684 6.04174e-17
6411.17812 6.25633e-17
6414.2194 6.10233e-17
6417.26069 5.78632e-17
6420.30197 5.76145e-17
6423.34326 5.83664e-17
6426.38454 5.79917e-17
6429.42582 6.02311e-17
6432.46711 6.13985e-17
6435.50839 5.90346e-17
6438.54967 5.89789e-17
6441.59096 5.99434e-17
6444.63224 6.09424e-17
6447.67352 6.05004e-17
6450.71481 6.27437e-17
6453.75609 6.25966e-17
6456.79737 6.04035e-17
6459.83866 5.71069e-17
6462.87994 5.89955e-17
6465.92123 5.91483e-17
6468.96251 5.6966e-17
6472.00379 6.11974e-17
6475.04508 6.11039e-17
6478.08636 5.7552e-17
6481.12764 5.64713e-17
6484.16893 5.6609e-17
6487.21021 5.88185e-17
6490.25149 5.88136e-17
6493.29278 5.58883e-17
6496.33406 5.55714e-17
6499.37534 5.59721e-17
6502.41663 5.48404e-17
6505.45791 5.55942e-17
6508.4992 5.70143e-17
6511.54048 5.82e-17
6514.58176 5.70963e-17
6517.62305 5.22985e-17
6520.66433 5.18521e-17
6523.70561 5.30838e-17
6526.7469 5.7584e-17
6529.78818 5.70775e-17
6532.82946 5.5909e-17
6535.87075 5.61919e-17
6538.91203 5.74261e-17
6541.95331 5.62241e-17
6544.9946 5.27503e-17
6548.03588 5.67295e-17
6551.07717 5.74747e-17
6554.11845 5.40763e-17
6557.15973 5.75868e-17
6560.20102 5.84202e-17
6563.2423 6.11764e-17
6566.28358 5.90523e-17
6569.32487 5.82045e-17
6572.36615 5.42738e-17
6575.40743 5.76488e-17
6578.44872 5.58839e-17
6581.49 5.06686e-17
6584.53129 5.40278e-17
6587.57257 5.86655e-17
6590.61385 6.31109e-17
6593.65514 5.65816e-17
6596.69642 5.03274e-17
6599.7377 5.19736e-17
6602.77899 5.58735e-17
6605.82027 5.93474e-17
6608.86155 5.73084e-17
6611.90284 5.69487e-17
6614.94412 5.98852e-17
6617.9854 5.93875e-17
6621.02669 6.03505e-17
6624.06797 5.70315e-17
6627.10926 5.69309e-17
6630.15054 5.61572e-17
6633.19182 5.68345e-17
6636.23311 5.98245e-17
6639.27439 5.77927e-17
6642.31567 5.47306e-17
6645.35696 5.20551e-17
6648.39824 5.61228e-17
6651.43952 6.53307e-17
6654.48081 6.59087e-17
6657.52209 6.36179e-17
6660.56337 5.71722e-17
6663.60466 5.31877e-17
6666.64594 5.68339e-17
6669.68723 5.78199e-17
6672.72851 5.79947e-17
6675.76979 6.03834e-17
6678.81108 5.99055e-17
6681.85236 5.74978e-17
6684.89364 5.3127e-17
6687.93493 5.17093e-17
6690.97621 5.75192e-17
6694.01749 5.9042e-17
6697.05878 5.58466e-17
6700.10006 5.38338e-17
6703.14134 5.60322e-17
6706.18263 5.71289e-17
6709.22391 5.40142e-17
6712.2652 5.59083e-17
6715.30648 6.01513e-17
6718.34776 5.69344e-17
6721.38905 5.35627e-17
6724.43033 5.47665e-17
6727.47161 5.49833e-17
6730.5129 5.59454e-17
6733.55418 6.00849e-17
6736.59546 6.07876e-17
6739.63675 5.44491e-17
6742.67803 5.05965e-17
6745.71932 5.30104e-17
6748.7606 5.61136e-17
6751.80188 5.67906e-17
6754.84317 5.82443e-17
6757.88445 5.31916e-17
6760.92573 4.8462e-17
6763.96702 5.18082e-17
6767.0083 4.85236e-17
6770.04958 4.73972e-17
6773.09087 5.24863e-17
6776.13215 5.32819e-17
6779.17343 5.07984e-17
6782.21472 5.29923e-17
6785.256 5.41425e-17
6788.29729 5.14867e-17
6791.33857 5.44416e-17
6794.37985 5.63734e-17
6797.42114 5.38534e-17
6800.46242 5.20204e-17
6803.5037 5.28278e-17
6806.54499 5.14102e-17
6809.58627 5.52806e-17
6812.62755 6.01989e-17
6815.66884 5.87459e-17
6818.71012 5.26292e-17
6821.7514 4.97235e-17
6824.79269 4.97339e-17
6827.83397 5.81897e-17
6830.87526 6.1747e-17
6833.91654 5.83393e-17
6836.95782 5.68219e-17
6839.99911 5.44219e-17
6843.04039 5.50878e-17
6846.08167 5.55419e-17
6849.12296 5.31836e-17
6852.16424 5.25521e-17
6855.20552 5.1515e-17
6858.24681 4.65368e-17
6861.28809 4.77343e-17
6864.32937 4.99355e-17
6867.37066 4.60223e-17
6870.41194 4.73708e-17
6873.45323 4.39416e-17
6876.49451 3.95213e-17
6879.53579 4.26466e-17
6882.57708 4.54058e-17
6885.61836 4.55378e-17
6888.65964 4.61606e-17
6891.70093 5.07253e-17
6894.74221 5.39057e-17
6897.78349 4.69369e-17
6900.82478 4.35381e-17
6903.86606 4.66919e-17
6906.90735 5.00202e-17
6909.94863 5.25423e-17
6912.98991 5.0556e-17
6916.0312 5.44392e-17
6919.07248 5.17633e-17
6922.11376 5.02589e-17
6925.15505 4.87165e-17
6928.19633 4.92995e-17
6931.23761 4.97275e-17
6934.2789 5.24129e-17
6937.32018 5.62151e-17
6940.36146 5.51832e-17
6943.40275 5.21875e-17
6946.44403 5.53228e-17
6949.48532 5.72548e-17
6952.5266 4.88061e-17
6955.56788 4.8888e-17
6958.60917 5.21957e-17
6961.65045 5.53181e-17
6964.69173 4.8635e-17
6967.73302 5.11142e-17
6970.7743 5.852e-17
6973.81558 5.10484e-17
6976.85687 4.7459e-17
6979.89815 5.48672e-17
6982.93943 5.888e-17
6985.98072 5.4177e-17
6989.022 4.84204e-17
6992.06329 4.75172e-17
6995.10457 5.41121e-17
6998.14585 5.66525e-17
7001.18714 5.05426e-17
7004.22842 5.16265e-17
7007.2697 4.46162e-17
7010.31099 4.37914e-17
7013.35227 4.8725e-17
7016.39355 5.08674e-17
7019.43484 4.99089e-17
7022.47612 4.80876e-17
7025.5174 4.62676e-17
7028.55869 4.99106e-17
7031.59997 4.61775e-17
7034.64126 4.23736e-17
7037.68254 4.34378e-17
7040.72382 4.72429e-17
7043.76511 4.80914e-17
7046.80639 4.23932e-17
7049.84767 4.59796e-17
7052.88896 5.07284e-17
7055.93024 4.68514e-17
7058.97152 4.52746e-17
7062.01281 4.88556e-17
7065.05409 5.16999e-17
7068.09537 5.23974e-17
7071.13666 5.09486e-17
7074.17794 4.69105e-17
7077.21923 4.42842e-17
7080.26051 4.01778e-17
7083.30179 3.93648e-17
7086.34308 4.38612e-17
7089.38436 4.16916e-17
7092.42564 3.90068e-17
7095.46693 4.1451e-17
7098.50821 4.12189e-17
7101.54949 4.45131e-17
7104.59078 4.1495e-17
7107.63206 4.04893e-17
7110.67335 4.70901e-17
7113.71463 4.71436e-17
7116.75591 4.63099e-17
7119.7972 4.72108e-17
7122.83848 4.7207e-17
7125.87976 4.4315e-17
7128.92105 4.40137e-17
7131.96233 4.51301e-17
7135.00361 4.2143e-17
7138.0449 4.28394e-17
7141.08618 5.00343e-17
7144.12746 5.17877e-17
7147.16875 4.9682e-17
7150.21003 4.98566e-17
7153.25132 4.49961e-17
7156.2926 3.97282e-17
7159.33388 3.85288e-17
7162.37517 4.1728e-17
7165.41645 4.3628e-17
7168.45773 4.45059e-17
7171.49902 4.53421e-17
7174.5403 4.56527e-17
7177.58158 4.08943e-17
7180.62287 3.94992e-17
7183.66415 4.44405e-17
7186.70543 4.57477e-17
7189.74672 4.32385e-17
7192.788 4.02293e-17
7195.82929 3.90516e-17
7198.87057 4.23264e-17
7201.91185 4.12537e-17
7204.95314 4.00551e-17
7207.99442 4.19086e-17
7211.0357 4.54426e-17
7214.07699 4.59364e-17
7217.11827 4.82137e-17
7220.15955 5.04528e-17
7223.20084 5.23946e-17
7226.24212 4.583e-17
7229.2834 4.29053e-17
7232.32469 4.44728e-17
7235.36597 3.77188e-17
7238.40726 3.18491e-17
7241.44854 3.40232e-17
7244.48982 4.41847e-17
7247.53111 4.71847e-17
7250.57239 4.41375e-17
7253.61367 4.47492e-17
7256.65496 4.76519e-17
7259.69624 4.95616e-17
7262.73752 4.7049e-17
7265.77881 4.40563e-17
7268.82009 4.37877e-17
7271.86138 4.01809e-17
7274.90266 3.67671e-17
7277.94394 3.6343e-17
7280.98523 3.70854e-17
7284.02651 3.70477e-17
7287.06779 3.5912e-17
7290.10908 4.12928e-17
7293.15036 4.68119e-17
7296.19164 5.0101e-17
7299.23293 4.63992e-17
7302.27421 4.90232e-17
7305.31549 4.62407e-17
7308.35678 4.50609e-17
7311.39806 4.17911e-17
7314.43935 3.70799e-17
7317.48063 3.65276e-17
7320.52191 3.74759e-17
7323.5632 4.1682e-17
7326.60448 5.10306e-17
7329.64576 5.40733e-17
7332.68705 4.82116e-17
7335.72833 4.80533e-17
7338.76961 5.26565e-17
7341.8109 5.19112e-17
7344.85218 4.45097e-17
7347.89346 3.75177e-17
7350.93475 3.71477e-17
7353.97603 4.05224e-17
7357.01732 4.36958e-17
7360.0586 4.898e-17
7363.09988 4.66343e-17
7366.14117 4.82417e-17
7369.18245 5.44467e-17
7372.22373 5.20007e-17
7375.26502 5.37993e-17
7378.3063 5.79353e-17
7381.34758 5.21403e-17
7384.38887 4.36357e-17
7387.43015 3.85259e-17
7390.47143 3.34427e-17
7393.51272 3.16279e-17
7396.554 3.44352e-17
7399.59529 4.14599e-17
7402.63657 4.5258e-17
7405.67785 4.36552e-17
7408.71914 4.87079e-17
7411.76042 5.1096e-17
7414.8017 4.99284e-17
7417.84299 5.35734e-17
7420.88427 5.2863e-17
7423.92555 4.96908e-17
7426.96684 4.10464e-17
7430.00812 3.79608e-17
7433.0494 3.73131e-17
7436.09069 3.3888e-17
7439.13197 3.28005e-17
7442.17326 4.13016e-17
7445.21454 4.01983e-17
7448.25582 4.00613e-17
7451.29711 4.51464e-17
7454.33839 4.67995e-17
7457.37967 4.80844e-17
7460.42096 4.71433e-17
7463.46224 4.69677e-17
7466.50352 5.1667e-17
7469.54481 4.59899e-17
7472.58609 3.68883e-17
7475.62738 3.35025e-17
7478.66866 3.43781e-17
7481.70994 3.43678e-17
7484.75123 3.73178e-17
7487.79251 3.9306e-17
7490.83379 3.98561e-17
7493.87508 3.64544e-17
7496.91636 3.82551e-17
7499.95764 4.39949e-17
7502.99893 4.4986e-17
7506.04021 4.57965e-17
7509.08149 4.56058e-17
7512.12278 4.18627e-17
7515.16406 3.94859e-17
7518.20535 4.01513e-17
7521.24663 3.85912e-17
7524.28791 3.82159e-17
7527.3292 3.37749e-17
7530.37048 3.36956e-17
7533.41176 4.18997e-17
7536.45305 4.40823e-17
7539.49433 4.29818e-17
7542.53561 4.47514e-17
7545.5769 4.87391e-17
7548.61818 5.09786e-17
7551.65946 4.49982e-17
7554.70075 3.92421e-17
7557.74203 4.01721e-17
7560.78332 4.05591e-17
7563.8246 3.45346e-17
7566.86588 3.40578e-17
7569.90717 3.16507e-17
7572.94845 3.6726e-17
7575.98973 4.32366e-17
7579.03102 4.49308e-17
7582.0723 4.24844e-17
7585.11358 4.46556e-17
7588.15487 4.60257e-17
7591.19615 4.35041e-17
7594.23743 4.07979e-17
7597.27872 2.80755e-17
7600.32 2.47262e-17
7603.36129 2.60743e-17
7606.40257 1.83072e-17
7609.44385 2.4746e-17
7612.48514 2.2041e-17
7615.52642 2.65072e-17
7618.5677 3.5755e-17
7621.60899 3.6985e-17
7624.65027 3.38471e-17
7627.69155 3.84088e-17
7630.73284 3.97123e-17
7633.77412 3.3662e-17
7636.81541 3.39953e-17
7639.85669 3.01546e-17
7642.89797 2.64099e-17
7645.93926 2.6907e-17
7648.98054 2.76298e-17
7652.02182 3.02808e-17
7655.06311 4.22219e-17
7658.10439 4.08239e-17
7661.14567 3.58052e-17
7664.18696 3.72464e-17
7667.22824 4.16453e-17
7670.26952 5.11646e-17
7673.31081 5.50882e-17
7676.35209 5.04766e-17
7679.39338 4.85915e-17
7682.43466 4.34968e-17
7685.47594 4.23858e-17
7688.51723 4.07283e-17
7691.55851 3.06267e-17
7694.59979 2.93239e-17
7697.64108 2.978e-17
7700.68236 3.49973e-17
7703.72364 4.30494e-17
7706.76493 6.59014e-17
7709.80621 9.19925e-17
7712.84749 1.00927e-16
7715.88878 9.93284e-17
7718.93006 8.8547e-17
7721.97135 7.23613e-17
7725.01263 6.42055e-17
7728.05391 5.23796e-17
7731.0952 4.58532e-17
7734.13648 3.66548e-17
7737.17776 3.09269e-17
7740.21905 3.8601e-17
7743.26033 5.56498e-17
7746.30161 6.01413e-17
7749.3429 6.08374e-17
7752.38418 6.30064e-17
7755.42546 5.83426e-17
7758.46675 4.67012e-17
7761.50803 4.50063e-17
7764.54932 5.7102e-17
7767.5906 5.00422e-17
7770.63188 3.83366e-17
7773.67317 3.10189e-17
7776.71445 3.81145e-17
7779.75573 3.91552e-17
7782.79702 4.65559e-17
7785.8383 4.36604e-17
7788.87958 3.32945e-17
7791.92087 3.08868e-17
7794.96215 3.59344e-17
7798.00344 4.07492e-17
7801.04472 4.4121e-17
7804.086 4.86369e-17
7807.12729 5.06738e-17
7810.16857 5.22492e-17
7813.20985 4.71029e-17
7816.25114 3.95586e-17
7819.29242 3.56195e-17
7822.3337 3.19432e-17
7825.37499 3.37406e-17
7828.41627 3.53507e-17
7831.45755 3.49274e-17
7834.49884 3.83313e-17
7837.54012 4.31723e-17
7840.58141 5.02254e-17
7843.62269 5.37597e-17
7846.66397 4.5372e-17
7849.70526 4.58801e-17
7852.74654 5.51931e-17
7855.78782 5.71541e-17
7858.82911 4.96797e-17
7861.87039 4.52484e-17
7864.91167 3.87448e-17
7867.95296 3.35323e-17
7870.99424 2.50205e-17
7874.03552 2.28656e-17
7877.07681 3.067e-17
7880.11809 3.51051e-17
7883.15938 3.43475e-17
7886.20066 3.92458e-17
7889.24194 5.00311e-17
7892.28323 5.22032e-17
7895.32451 5.43821e-17
7898.36579 4.50288e-17
7901.40708 4.09095e-17
7904.44836 4.00727e-17
7907.48964 3.41382e-17
7910.53093 2.52698e-17
7913.57221 1.96153e-17
7916.61349 2.49052e-17
7919.65478 2.71381e-17
7922.69606 2.62599e-17
7925.73735 4.00756e-17
7928.77863 5.06074e-17
7931.81991 5.10274e-17
7934.8612 4.82819e-17
7937.90248 4.73134e-17
7940.94376 4.47405e-17
7943.98505 4.41623e-17
7947.02633 4.59506e-17
7950.06761 4.43228e-17
7953.1089 3.44149e-17
7956.15018 3.05081e-17
7959.19146 2.8939e-17
7962.23275 2.45253e-17
7965.27403 2.59795e-17
7968.31532 2.37026e-17
7971.3566 2.40394e-17
7974.39788 3.15468e-17
7977.43917 3.84451e-17
7980.48045 4.69786e-17
7983.52173 5.37847e-17
7986.56302 5.75799e-17
7989.6043 5.42975e-17
7992.64558 5.46691e-17
7995.68687 5.79144e-17
7998.72815 5.18094e-17
8001.76944 4.56152e-17
8004.81072 4.26712e-17
8007.852 3.35901e-17
8010.89329 3.08858e-17
8013.93457 3.04264e-17
8016.97585 2.62951e-17
8020.01714 2.76312e-17
8023.05842 2.82147e-17
8026.0997 2.68586e-17
8029.14099 2.71964e-17
8032.18227 2.67119e-17
8035.22355 2.99181e-17
8038.26484 3.62871e-17
8041.30612 4.18933e-17
8044.34741 4.78432e-17
8047.38869 4.80847e-17
8050.42997 4.4382e-17
8053.47126 4.52851e-17
8056.51254 3.98166e-17
8059.55382 3.597e-17
8062.59511 3.08872e-17
8065.63639 2.90232e-17
8068.67767 3.11869e-17
8071.71896 3.26071e-17
8074.76024 3.01728e-17
8077.80152 3.23025e-17
8080.84281 3.48675e-17
8083.88409 3.40943e-17
8086.92538 4.18036e-17
8089.96666 4.85272e-17
8093.00794 4.65303e-17
8096.04923 4.23743e-17
8099.09051 4.0812e-17
8102.13179 3.09209e-17
8105.17308 3.99819e-17
8108.21436 4.40114e-17
8111.25564 4.57799e-17
8114.29693 4.57037e-17
8117.33821 3.4623e-17
8120.37949 2.92824e-17
8123.42078 3.11269e-17
8126.46206 3.11247e-17
8129.50335 3.49838e-17
8132.54463 2.99536e-17
8135.58591 2.51923e-17
8138.6272 2.5926e-17
8141.66848 2.63225e-17
8144.70976 3.05104e-17
8147.75105 2.90799e-17
8150.79233 2.23809e-17
8153.83361 2.85856e-17
8156.8749 3.55694e-17
8159.91618 3.37923e-17
8162.95747 3.55635e-17
8165.99875 3.99996e-17
8169.04003 4.45463e-17
8172.08132 4.31371e-17
8175.1226 3.56735e-17
8178.16388 2.33212e-17
8181.20517 1.9422e-17
8184.24645 1.83111e-17
8187.28773 1.79319e-17
8190.32902 1.24281e-17
8193.3703 1.65071e-17
8196.41158 2.99006e-17
8199.45287 3.24561e-17
8202.49415 2.88406e-17
8205.53544 3.03852e-17
8208.57672 3.25187e-17
8211.618 3.16977e-17
8214.65929 2.91627e-17
8217.70057 3.38734e-17
8220.74185 3.70667e-17
8223.78314 3.91619e-17
8226.82442 3.86342e-17
8229.8657 3.79907e-17
8232.90699 3.89114e-17
8235.94827 3.98955e-17
8238.98955 3.46302e-17
8242.03084 3.04511e-17
8245.07212 3.49207e-17
8248.11341 2.9383e-17
8251.15469 2.26626e-17
8254.19597 2.70693e-17
8257.23726 3.28489e-17
8260.27854 3.416e-17
8263.31982 3.4459e-17
8266.36111 2.71331e-17
8269.40239 2.28173e-17
8272.44367 2.24328e-17
8275.48496 2.40022e-17
8278.52624 2.92683e-17
8281.56752 2.90861e-17
8284.60881 2.77239e-17
8287.65009 3.65626e-17
8290.69138 4.31252e-17
8293.73266 4.17828e-17
8296.77394 3.83693e-17
8299.81523 3.80005e-17
8302.85651 3.59611e-17
8305.89779 3.22499e-17
8308.93908 3.47561e-17
8311.98036 3.44152e-17
8315.02164 2.37764e-17
8318.06293 2.31249e-17
8321.10421 3.23743e-17
8324.14549 2.87025e-17
8327.18678 2.79876e-17
8330.22806 3.41183e-17
8333.26935 3.53377e-17
8336.31063 4.17182e-17
8339.35191 3.12966e-17
8342.3932 4.1601e-17
8345.43448 4.38493e-17
8348.47576 3.49946e-17
8351.51705 3.45185e-17
8354.55833 3.27924e-17
8357.59961 3.44737e-17
8360.6409 3.57708e-17
8363.68218 2.31587e-17
8366.72347 2.21515e-17
8369.76475 2.67692e-17
8372.80603 2.62064e-17
8375.84732 2.88484e-17
8378.8886 3.27684e-17
8381.92988 2.99437e-17
8384.97117 2.62004e-17
8388.01245 3.43042e-17
8391.05373 4.36915e-17
8394.09502 4.32855e-17
8397.1363 3.919e-17
8400.17758 3.61147e-17
8403.21887 3.62475e-17
8406.26015 3.37828e-17
8409.30144 2.60062e-17
8412.34272 2.84706e-17
8415.384 2.69235e-17
8418.42529 2.46077e-17
8421.46657 2.21939e-17
8424.50785 3.06744e-17
8427.54914 3.835e-17
8430.59042 4.21125e-17
8433.6317 4.47921e-17
8436.67299 4.64321e-17
8439.71427 4.75544e-17
8442.75555 3.91478e-17
8445.79684 3.72224e-17
8448.83812 3.05616e-17
8451.87941 2.53308e-17
8454.92069 2.0047e-17
8457.96197 1.9077e-17
8461.00326 8.52797e-18
8464.04454 9.87239e-18
8467.08582 2.00054e-17
8470.12711 1.98386e-17
8473.16839 2.28901e-17
8476.20967 3.39333e-17
8479.25096 3.5427e-17
8482.29224 2.9721e-17
8485.33352 3.33007e-17
8488.37481 4.07538e-17
8491.41609 3.85356e-17
8494.45738 3.89491e-17
8497.49866 5.10482e-17
8500.53994 5.11981e-17
8503.58123 3.37632e-17
8506.62251 2.03472e-17
8509.66379 1.80259e-17
8512.70508 1.1737e-17
8515.74636 8.54817e-18
8518.78764 1.7548e-17
8521.82893 1.459e-17
8524.87021 1.54357e-17
8527.9115 2.38545e-17
8530.95278 2.79176e-17
8533.99406 3.86314e-17
8537.03535 4.32566e-17
8540.07663 4.62743e-17
8543.11791 4.20564e-17
8546.1592 3.43132e-17
8549.20048 2.92357e-17
8552.24176 3.08174e-17
8555.28305 3.00611e-17
8558.32433 1.46795e-17
8561.36561 2.03198e-17
8564.4069 2.77132e-17
8567.44818 2.41422e-17
8570.48947 1.98942e-17
8573.53075 2.71471e-17
8576.57203 3.25323e-17
8579.61332 2.79781e-17
8582.6546 3.19001e-17
8585.69588 3.8326e-17
8588.73717 4.0272e-17
8591.77845 4.16056e-17
8594.81973 3.75965e-17
8597.86102 3.58309e-17
8600.9023 2.88683e-17
8603.94358 2.14086e-17
8606.98487 2.42395e-17
8610.02615 3.13158e-17
8613.06744 3.3958e-17
8616.10872 2.17468e-17
8619.15 1.83035e-17
8622.19129 2.28369e-17
8625.23257 2.84097e-17
8628.27385 4.78841e-17
8631.31514 5.76675e-17
8634.35642 4.19065e-17
8637.3977 3.56142e-17
8640.43899 3.63841e-17
8643.48027 3.97788e-17
8646.52155 2.68159e-17
8649.56284 2.41952e-17
8652.60412 1.81215e-17
8655.64541 1.35589e-17
8658.68669 1.83728e-17
8661.72797 1.69031e-17
8664.76926 7.68125e-18
8667.81054 9.62075e-18
8670.85182 2.63729e-17
8673.89311 3.61492e-17
8676.93439 3.09344e-17
8679.97567 3.36697e-17
8683.01696 4.00467e-17
8686.05824 3.86972e-17
8689.09953 4.8244e-17
8692.14081 4.04859e-17
8695.18209 2.90512e-17
8698.22338 2.69892e-17
8701.26466 3.4287e-17
8704.30594 3.74422e-17
8707.34723 3.28808e-17
8710.38851 3.28237e-17
8713.42979 3.04594e-17
8716.47108 3.28438e-17
8719.51236 2.59037e-17
8722.55364 2.32585e-17
8725.59493 2.35058e-17
8728.63621 2.18105e-17
8731.6775 1.42862e-17
8734.71878 1.48401e-17
8737.76006 2.0584e-17
8740.80135 2.31468e-17
8743.84263 3.04746e-17
8746.88391 3.66004e-17
8749.9252 3.57817e-17
8752.96648 4.20493e-17
8756.00776 4.51186e-17
8759.04905 4.42366e-17
8762.09033 4.22128e-17
8765.13161 2.34959e-17
8768.1729 1.31553e-17
8771.21418 1.36533e-17
8774.25547 1.39653e-17
8777.29675 2.52037e-17
8780.33803 2.55877e-17
8783.37932 1.99739e-17
8786.4206 2.7145e-17
8789.46188 2.09156e-17
8792.50317 2.30891e-17
8795.54445 3.13636e-17
8798.58573 2.78615e-17
8801.62702 2.46919e-17
8804.6683 2.34197e-17
8807.70958 2.81715e-17
8810.75087 3.43698e-17
8813.79215 4.59909e-17
8816.83344 4.97295e-17
8819.87472 3.81156e-17
8822.916 3.07097e-17
8825.95729 3.27144e-17
8828.99857 3.14313e-17
8832.03985 2.41523e-17
8835.08114 1.83427e-17
8838.12242 1.91454e-17
8841.1637 2.10921e-17
8844.20499 1.98012e-17
8847.24627 2.42026e-17
8850.28755 2.71479e-17
8853.32884 2.72723e-17
8856.37012 2.37336e-17
8859.41141 2.51999e-17
8862.45269 3.30967e-17
8865.49397 3.43689e-17
8868.53526 3.84447e-17
8871.57654 4.55185e-17
8874.61782 4.88464e-17
8877.65911 5.22593e-17
8880.70039 5.73247e-17
8883.74167 4.92114e-17
8886.78296 4.25753e-17
8889.82424 3.23417e-17
8892.86553 2.10204e-17
8895.90681 2.07181e-17
8898.94809 2.39717e-17
8901.98938 1.69979e-17
8905.03066 1.00033e-17
8908.07194 1.32135e-17
8911.11323 4.93057e-18
8914.15451 6.83373e-18
8917.19579 2.64034e-17
8920.23708 3.54863e-17
8923.27836 2.73227e-17
8926.31964 2.36159e-17
8929.36093 3.18907e-17
8932.40221 4.0657e-17
8935.4435 3.18092e-17
8938.48478 2.00038e-17
8941.52606 1.90947e-17
8944.56735 1.79681e-17
8947.60863 2.68816e-17
8950.64991 2.64667e-17
8953.6912 1.67991e-17
8956.73248 1.78e-17
8959.77376 1.79489e-17
8962.81505 1.74366e-17
8965.85633 1.51389e-17
8968.89761 2.23981e-17
8971.9389 2.49945e-17
8974.98018 1.41012e-17
8978.02147 1.60387e-17
8981.06275 3.27385e-17
8984.10403 4.36206e-17
8987.14532 3.91257e-17
8990.1866 1.93169e-17
8993.22788 3.03814e-17
8996.26917 3.76562e-17
8999.31045 3.3166e-17
9002.35173 4.56793e-17
9005.39302 4.39805e-17
9008.4343 2.66232e-17
9011.47558 9.27915e-18
9014.51687 9.08274e-18
9017.55815 2.39036e-17
9020.59944 2.67454e-17
9023.64072 2.97158e-17
9026.682 4.26052e-17
9029.72329 4.48057e-17
9032.76457 3.73463e-17
9035.80585 4.6922e-17
9038.84714 3.4455e-17
9041.88842 -4.78492e-17
9044.9297 -1.80371e-17
9047.97099 4.79925e-17
9051.01227 4.78217e-17
9054.05356 3.84585e-17
9057.09484 2.64176e-17
9060.13612 2.31451e-17
9063.17741 2.90164e-17
9066.21869 1.24835e-17
9069.25997 2.03637e-17
9072.30126 1.37996e-17
9075.34254 1.9693e-17
9078.38382 3.53627e-17
9081.42511 4.98877e-17
9084.46639 3.38647e-17
9087.50767 3.2574e-17
9090.54896 3.75895e-17
9093.59024 2.7676e-17
9096.63153 2.57738e-17
9099.67281 2.79605e-17
9102.71409 4.20833e-17
9105.75538 5.0378e-17
9108.79666 4.725e-17
9111.83794 5.0456e-17
9114.87923 5.26061e-17
9117.92051 5.1669e-17
9120.96179 3.18452e-17
9124.00308 1.86092e-17
9127.04436 1.41385e-17
9130.08564 1.78205e-18
9133.12693 8.73724e-18
9136.16821 1.92835e-17
9139.2095 1.4968e-17
9142.25078 2.51555e-17
9145.29206 4.45854e-18
