# Wavelength Flux
# STATUS = PUBLIC
# OBJECT = DES17X1amf
# TELESCOPE = Magellan
# INSTRUMENT =
# DATE-OBS = 2017-11-10
# MJD =
# EXPTIME =
# SLIT =
# DISPERSER =
# SOURCE = 2019MNRAS.487.2215A
# FILTER =
# FLUX_STANDARD =
# EXTINCTION_CORRECTED =
# PHOTOMETRY_CALIBRATED =
# FLUX_UNITS =
# QUALITY = MEDIUM
# MIN_WAVE =
# MAX_WAVE =
# COMMENT =
4150.94 -2.00087e-16
4152.74 -4.09677e-16
4154.55 -3.46858e-16
4156.35 -3.59473e-16
4158.15 2.19839e-16
4159.96 3.71235e-16
4161.76 3.26579e-16
4163.56 -3.06694e-17
4165.37 1.97213e-16
4167.17 1.31378e-16
4168.98 -4.02932e-16
4170.78 -1.20081e-16
4172.58 4.75722e-16
4174.39 4.5724e-16
4176.19 2.47707e-16
4177.99 9.409e-17
4179.8 3.93384e-16
4181.6 1.93158e-17
4183.4 2.00417e-16
4185.21 1.72802e-16
4187.01 1.98262e-16
4188.81 1.00396e-16
4190.62 -9.39177e-17
4192.42 -6.99203e-17
4194.22 6.78437e-17
4196.03 -6.85964e-17
4197.83 -2.14921e-16
4199.63 7.46394e-17
4201.44 -1.2354e-16
4203.24 1.52468e-16
4205.05 1.49523e-16
4206.85 -2.31094e-16
4208.65 -1.30732e-16
4210.46 -8.46133e-17
4212.26 1.12857e-16
4214.06 -1.13435e-16
4215.87 1.19508e-16
4217.67 2.75648e-16
4219.47 -8.45447e-17
4221.28 2.23329e-16
4223.08 -7.4896e-18
4224.88 -5.51012e-17
4226.69 4.37859e-17
4228.49 -1.77915e-16
4230.29 1.432e-16
4232.1 3.07133e-16
4233.9 2.00049e-16
4235.71 -6.81589e-17
4237.51 4.37205e-17
4239.31 1.16148e-16
4241.12 8.519e-17
4242.92 -9.04614e-17
4244.72 1.2737e-16
4246.53 2.5663e-16
4248.33 1.65048e-16
4250.13 -3.94462e-18
4251.94 -2.311e-16
4253.74 2.18418e-16
4255.54 2.48179e-16
4257.35 3.27198e-16
4259.15 7.36353e-18
4260.96 -2.18923e-16
4262.76 6.61877e-17
4264.56 4.44201e-16
4266.37 3.08346e-16
4268.17 4.14018e-17
4269.97 6.79258e-17
4271.78 -1.51605e-16
4273.58 -1.35947e-16
4275.38 -1.80138e-17
4277.19 7.24743e-17
4278.99 3.82111e-17
4280.79 1.76377e-16
4282.6 -2.3613e-17
4284.4 6.94293e-17
4286.2 1.89074e-16
4288.01 1.68943e-16
4289.81 1.17083e-16
4291.62 2.50775e-16
4293.42 2.38431e-17
4295.22 2.44862e-18
4297.03 4.29455e-17
4298.83 7.80176e-17
4300.63 1.09661e-16
4302.44 1.961e-16
4304.24 5.01201e-17
4306.04 -8.80132e-17
4307.85 7.65434e-17
4309.65 1.12394e-16
4311.45 2.07127e-16
4313.26 1.44942e-16
4315.06 -8.69907e-18
4316.86 2.54181e-16
4318.67 1.90771e-16
4320.47 8.7888e-17
4322.28 6.55039e-17
4324.08 1.32472e-16
4325.88 -3.37515e-17
4327.69 -1.62702e-16
4329.49 1.6489e-16
4331.29 1.99258e-16
4333.1 2.09098e-17
4334.9 2.66225e-16
4336.7 1.67259e-16
4338.51 6.73729e-17
4340.31 1.43259e-16
4342.11 6.09623e-17
4343.92 5.66734e-17
4345.72 6.82012e-17
4347.52 1.39397e-16
4349.33 4.18238e-17
4351.13 6.56714e-17
4352.94 1.03552e-17
4354.74 1.03632e-16
4356.54 1.80377e-16
4358.35 -1.36358e-17
4360.15 4.01292e-17
4361.95 2.74976e-17
4363.76 3.98632e-17
4365.56 -2.0172e-17
4367.36 -1.54738e-17
4369.17 -5.47329e-17
4370.97 -9.7524e-17
4372.77 6.39721e-17
4374.58 1.2039e-16
4376.38 8.53152e-17
4378.18 3.01147e-17
4379.99 2.00495e-16
4381.79 1.5692e-16
4383.6 5.79155e-17
4385.4 -7.05794e-17
4387.2 3.6254e-17
4389.01 1.79194e-16
4390.81 6.5463e-17
4392.61 1.08289e-16
4394.42 1.09678e-16
4396.22 3.38032e-17
4398.02 7.8883e-17
4399.83 1.14737e-16
4401.63 5.27233e-17
4403.43 4.02023e-17
4405.24 9.135e-17
4407.04 7.67292e-17
4408.84 1.92451e-17
4410.65 7.00313e-17
4412.45 5.64947e-17
4414.26 1.0002e-16
4416.06 1.02806e-16
4417.86 1.03394e-16
4419.67 1.12984e-16
4421.47 2.19589e-16
4423.27 7.61519e-17
4425.08 1.08426e-16
4426.88 1.71412e-16
4428.68 6.5609e-17
4430.49 1.03841e-16
4432.29 1.62759e-16
4434.09 -9.9085e-17
4435.9 -5.47419e-17
4437.7 -3.80634e-17
4439.5 4.3488e-17
4441.31 2.89192e-17
4443.11 -6.80914e-17
4444.92 -6.6271e-17
4446.72 7.04672e-18
4448.52 1.13346e-18
4450.33 -5.55283e-19
4452.13 5.28287e-19
4453.93 5.65072e-17
4455.74 1.42732e-16
4457.54 9.23005e-19
4459.34 -2.56117e-17
4461.15 -8.31976e-18
4462.95 1.24416e-16
4464.75 1.65978e-16
4466.56 6.40583e-17
4468.36 1.34635e-16
4470.16 1.82589e-16
4471.97 6.01159e-17
4473.77 -2.35579e-17
4475.58 8.49023e-17
4477.38 1.98638e-16
4479.18 5.52056e-17
4480.99 -2.88023e-17
4482.79 9.22517e-17
4484.59 1.09501e-16
4486.4 1.13948e-16
4488.2 7.18988e-17
4490.0 8.51763e-17
4491.81 -1.22506e-17
4493.61 -9.57768e-17
4495.41 4.09199e-17
4497.22 2.66621e-17
4499.02 6.17864e-17
4500.82 1.52732e-16
4502.63 9.13836e-17
4504.43 1.03058e-16
4506.24 1.16915e-16
4508.04 3.02102e-17
4509.84 4.67885e-17
4511.65 1.20251e-16
4513.45 1.61822e-16
4515.25 1.53542e-16
4517.06 1.38276e-16
4518.86 1.44846e-16
4520.66 1.18339e-17
4522.47 -3.35707e-17
4524.27 1.29264e-16
4526.07 8.6633e-17
4527.88 9.47112e-17
4529.68 1.02237e-16
4531.48 6.70114e-17
4533.29 1.55863e-17
4535.09 4.17862e-17
4536.9 1.03909e-16
4538.7 1.40506e-16
4540.5 1.77635e-16
4542.31 8.6317e-17
4544.11 4.80627e-17
4545.91 5.74542e-17
4547.72 1.39143e-16
4549.52 1.14839e-16
4551.32 7.49335e-17
4553.13 5.75703e-17
4554.93 1.11045e-16
4556.73 9.33951e-17
4558.54 2.92805e-17
4560.34 -1.11793e-18
4562.15 7.94992e-17
4563.95 -1.73822e-18
4565.75 2.41078e-17
4567.56 1.12113e-16
4569.36 1.21884e-16
4571.16 8.65429e-17
4572.97 9.56148e-17
4574.77 4.59611e-18
4576.57 -4.41835e-17
4578.38 7.16629e-17
4580.18 7.71878e-17
4581.98 5.19227e-17
4583.79 5.7727e-17
4585.59 5.64325e-17
4587.39 2.26944e-17
4589.2 1.70571e-16
4591.0 1.07279e-16
4592.81 2.56881e-17
4594.61 -9.05463e-18
4596.41 -2.98497e-17
4598.22 8.01917e-17
4600.02 4.80524e-17
4601.82 1.40876e-16
4603.63 1.3861e-16
4605.43 4.06705e-17
4607.23 4.73871e-17
4609.04 9.62939e-17
4610.84 -4.39394e-18
4612.64 -1.9663e-17
4614.45 7.87173e-17
4616.25 1.17719e-16
4618.05 5.62881e-17
4619.86 -7.74268e-18
4621.66 7.96383e-17
4623.46 1.03869e-16
4625.27 1.24171e-16
4627.07 1.21456e-16
4628.88 1.34015e-16
4630.68 1.47979e-16
4632.48 8.49525e-17
4634.29 3.57286e-17
4636.09 3.36489e-17
4637.89 8.65513e-17
4639.7 5.32332e-17
4641.5 2.48469e-17
4643.3 5.43181e-17
4645.11 2.87531e-17
4646.91 1.61392e-17
4648.71 8.97165e-17
4650.52 5.1156e-17
4652.32 3.06639e-17
4654.12 3.30789e-17
4655.93 1.11816e-16
4657.73 7.98054e-17
4659.54 5.47043e-17
4661.34 8.55165e-17
4663.14 1.01411e-16
4664.95 7.6866e-17
4666.75 6.57038e-17
4668.55 6.78614e-17
4670.36 5.03629e-17
4672.16 4.87989e-17
4673.96 8.0895e-17
4675.77 7.84175e-18
4677.57 2.78387e-18
4679.37 9.72659e-17
4681.18 7.2844e-17
4682.98 2.24457e-17
4684.79 2.86296e-17
4686.59 1.28683e-16
4688.39 4.42891e-17
4690.2 2.59315e-17
4692.0 4.91968e-17
4693.8 6.96014e-17
4695.61 4.50685e-17
4697.41 5.71094e-17
4699.21 7.08597e-17
4701.02 7.21462e-17
4702.82 7.0328e-17
4704.62 5.27812e-17
4706.43 1.0802e-16
4708.23 1.30675e-16
4710.03 3.24912e-17
4711.84 7.97504e-17
4713.64 6.51253e-17
4715.45 2.88959e-17
4717.25 -1.37997e-17
4719.05 -5.94218e-18
4720.86 3.94638e-17
4722.66 6.18982e-17
4724.46 9.81465e-17
4726.27 6.51723e-17
4728.07 2.23629e-17
4729.87 3.83166e-17
4731.68 5.11475e-17
4733.48 7.48347e-17
4735.28 9.15161e-17
4737.09 1.09094e-16
4738.89 1.16363e-16
4740.69 4.93813e-17
4742.5 3.6952e-17
4744.3 8.57174e-17
4746.1 5.62771e-17
4747.91 5.86249e-17
4749.71 4.49352e-17
4751.52 -6.90202e-18
4753.32 6.40869e-17
4755.12 6.56966e-17
4756.93 5.7956e-17
4758.73 7.13314e-17
4760.53 2.79929e-17
4762.34 2.02984e-17
4764.14 -2.60643e-17
4765.94 -1.18914e-19
4767.75 2.30379e-17
4769.55 2.69568e-17
4771.35 1.90111e-18
4773.16 1.34546e-17
4774.96 1.92747e-17
4776.77 -3.97338e-18
4778.57 5.30972e-17
4780.37 1.16384e-16
4782.18 9.80557e-17
4783.98 1.01016e-16
4785.78 9.26941e-17
4787.59 3.64843e-17
4789.39 6.25666e-17
4791.19 9.02359e-17
4793.0 7.89057e-17
4794.8 9.68755e-17
4796.6 6.82936e-17
4798.41 9.88013e-17
4800.21 4.90474e-17
4802.01 9.58094e-17
4803.82 1.01668e-16
4805.62 1.06586e-16
4807.43 8.35166e-17
4809.23 8.30074e-17
4811.03 4.94772e-17
4812.84 1.17402e-16
4814.64 6.31249e-17
4816.44 4.26863e-17
4818.25 9.06809e-17
4820.05 8.96194e-17
4821.85 9.03974e-17
4823.66 1.43558e-16
4825.46 4.7712e-17
4827.26 8.68909e-17
4829.07 1.0338e-16
4830.87 3.59845e-17
4832.67 1.05467e-16
4834.48 7.68754e-17
4836.28 9.44124e-17
4838.09 8.3956e-17
4839.89 7.93024e-17
4841.69 9.30128e-17
4843.5 7.05921e-17
4845.3 1.97659e-17
4847.1 4.50804e-17
4848.91 1.01364e-16
4850.71 2.93272e-17
4852.51 3.66797e-17
4854.32 1.0888e-16
4856.12 1.23474e-16
4857.92 9.94418e-17
4859.73 8.92294e-17
4861.53 9.38655e-17
4863.33 9.08299e-17
4865.14 1.13056e-16
4866.94 9.68971e-17
4868.75 6.49987e-17
4870.55 8.59657e-17
4872.35 9.04536e-17
4874.16 6.832e-17
4875.96 6.12816e-17
4877.76 1.22419e-16
4879.57 1.50931e-16
4881.37 1.34602e-16
4883.17 9.50811e-17
4884.98 5.61474e-17
4886.78 7.51143e-17
4888.58 5.54915e-17
4890.39 6.66165e-17
4892.19 9.85554e-17
4893.99 1.14826e-16
4895.8 1.23879e-16
4897.6 8.19581e-17
4899.41 8.92896e-17
4901.21 7.83276e-17
4903.01 6.81481e-17
4904.82 8.39916e-17
4906.62 6.77201e-17
4908.42 6.52367e-17
4910.23 1.15419e-16
4912.03 9.71351e-17
4913.83 1.11269e-16
4915.64 1.01925e-16
4917.44 9.19858e-17
4919.24 6.09627e-17
4921.05 4.92976e-17
4922.85 6.57167e-17
4924.65 5.52124e-17
4926.46 7.10056e-17
4928.26 6.77534e-17
4930.07 8.2013e-17
4931.87 1.47829e-16
4933.67 1.28452e-16
4935.48 8.08944e-17
4937.28 5.23983e-17
4939.08 4.76089e-17
4940.89 7.60814e-17
4942.69 7.02359e-17
4944.49 7.38683e-17
4946.3 6.74079e-17
4948.1 9.70969e-17
4949.9 8.76738e-17
4951.71 5.19699e-17
4953.51 3.58189e-17
4955.31 1.03659e-16
4957.12 8.26162e-17
4958.92 1.38311e-17
4960.73 2.64386e-17
4962.53 6.92531e-17
4964.33 7.86729e-17
4966.14 1.00862e-16
4967.94 1.1906e-16
4969.74 9.20863e-17
4971.55 5.95505e-17
4973.35 8.07315e-17
4975.15 1.30764e-16
4976.96 1.09e-16
4978.76 5.94176e-17
4980.56 6.09866e-17
4982.37 9.17636e-17
4984.17 8.54421e-17
4985.98 3.51614e-17
4987.78 3.6885e-17
4989.58 7.51287e-17
4991.39 8.32596e-17
4993.19 3.94378e-17
4994.99 3.67523e-17
4996.8 7.29781e-17
4998.6 5.76411e-17
5000.4 3.91344e-17
5002.21 6.25991e-17
5004.01 8.90913e-17
5005.81 5.79547e-17
5007.62 4.72536e-17
5009.42 7.50804e-17
5011.22 7.71446e-17
5013.03 7.01457e-17
5014.83 2.88599e-17
5016.63 4.34991e-17
5018.44 8.66109e-17
5020.24 3.18897e-17
5022.05 8.63642e-17
5023.85 6.79308e-17
5025.65 1.52699e-17
5027.46 4.22595e-17
5029.26 1.01803e-16
5031.06 7.50907e-17
5032.87 5.89722e-17
5034.67 4.00119e-17
5036.47 5.68278e-17
5038.28 3.70963e-17
5040.08 2.44092e-17
5041.88 4.21542e-17
5043.69 7.15008e-17
5045.49 1.00687e-16
5047.29 5.79309e-17
5049.1 4.31122e-17
5050.9 6.12246e-17
5052.71 6.28732e-17
5054.51 6.93023e-17
5056.31 9.08275e-17
5058.12 8.61837e-17
5059.92 7.46808e-17
5061.72 6.76511e-17
5063.53 6.71414e-17
5065.33 4.46515e-17
5067.13 8.89833e-17
5068.94 9.34854e-17
5070.74 6.03427e-17
5072.54 8.10333e-17
5074.35 7.08515e-17
5076.15 8.3597e-17
5077.96 9.84929e-17
5079.76 7.62408e-17
5081.56 8.52424e-17
5083.37 6.70916e-17
5085.17 5.5933e-17
5086.97 5.48273e-17
5088.78 5.76498e-17
5090.58 5.84816e-17
5092.38 5.33281e-17
5094.19 6.67561e-17
5095.99 6.12331e-17
5097.79 4.16043e-17
5099.6 5.43341e-17
5101.4 7.85491e-17
5103.2 9.95552e-17
5105.01 6.7106e-17
5106.81 4.12383e-17
5108.62 5.64962e-17
5110.42 3.87051e-17
5112.22 4.12149e-17
5114.03 6.45801e-17
5115.83 7.43487e-17
5117.63 5.85182e-17
5119.44 1.53049e-17
5121.24 4.3336e-17
5123.04 6.6684e-17
5124.85 7.2159e-17
5126.65 3.55138e-17
5128.45 1.88543e-17
5130.26 5.23308e-17
5132.06 3.62744e-17
5133.86 6.74324e-17
5135.67 7.89645e-17
5137.47 3.18437e-17
5139.27 -5.41327e-18
5141.08 3.05397e-17
5142.88 5.10105e-17
5144.69 5.01949e-17
5146.49 5.61173e-17
5148.29 8.54299e-17
5150.1 6.76541e-17
5151.9 6.06553e-17
5153.7 9.91818e-17
5155.51 9.40611e-17
5157.31 6.31867e-17
5159.11 5.79652e-17
5160.92 6.52891e-17
5162.72 6.28624e-17
5164.52 4.50558e-17
5166.33 3.95443e-17
5168.13 4.84796e-17
5169.94 5.23421e-17
5171.74 6.88144e-17
5173.54 8.44586e-17
5175.35 8.10695e-17
5177.15 9.2437e-17
5178.95 7.0646e-17
5180.76 1.90217e-17
5182.56 7.93607e-17
5184.36 6.57698e-17
5186.17 6.93227e-17
5187.97 4.05158e-17
5189.77 5.82815e-17
5191.58 7.19616e-17
5193.38 1.03694e-16
5195.18 5.58594e-17
5196.99 6.72568e-17
5198.79 7.70237e-17
5200.6 6.14916e-17
5202.4 7.68626e-17
5204.2 9.79135e-17
5206.01 5.74963e-17
5207.81 5.66743e-17
5209.61 4.23114e-17
5211.42 5.03349e-17
5213.22 5.70165e-17
5215.02 6.43187e-17
5216.83 8.57529e-17
5218.63 1.03395e-16
5220.43 8.20352e-17
5222.24 4.89337e-17
5224.04 7.78997e-17
5225.84 7.08108e-17
5227.65 7.27161e-17
5229.45 7.99117e-17
5231.26 5.58592e-17
5233.06 1.09335e-16
5234.86 8.34125e-17
5236.67 6.86046e-17
5238.47 6.52535e-17
5240.27 9.08011e-17
5242.08 9.79929e-17
5243.88 1.12233e-16
5245.68 9.75683e-17
5247.49 8.41667e-17
5249.29 8.43279e-17
5251.09 3.92362e-17
5252.9 4.69671e-17
5254.7 8.21408e-17
5256.5 9.6164e-17
5258.31 1.30729e-16
5260.11 1.33594e-16
5261.92 9.77147e-17
5263.72 1.03197e-16
5265.52 8.36614e-17
5267.33 6.37299e-17
5269.13 8.97457e-17
5270.93 9.70387e-17
5272.74 9.82753e-17
5274.54 1.14705e-16
5276.34 1.08482e-16
5278.15 7.56666e-17
5279.95 8.49941e-17
5281.75 6.46551e-17
5283.56 7.727e-17
5285.36 8.75151e-17
5287.16 1.33569e-16
5288.97 1.15752e-16
5290.77 8.64692e-17
5292.58 8.74547e-17
5294.38 1.23542e-16
5296.18 1.15242e-16
5297.99 1.05517e-16
5299.79 1.13857e-16
5301.59 1.20313e-16
5303.4 1.30257e-16
5305.2 1.42954e-16
5307.0 1.45328e-16
5308.81 1.16379e-16
5310.61 1.06539e-16
5312.41 1.06781e-16
5314.22 9.85818e-17
5316.02 1.18848e-16
5317.82 1.3544e-16
5319.63 1.46874e-16
5321.43 1.29291e-16
5323.24 8.73832e-17
5325.04 1.36479e-16
5326.84 1.2998e-16
5328.65 9.30555e-17
5330.45 1.38633e-16
5332.25 1.30811e-16
5334.06 1.0676e-16
5335.86 1.21702e-16
5337.66 1.30183e-16
5339.47 1.6922e-16
5341.27 1.77579e-16
5343.07 1.39311e-16
5344.88 1.36046e-16
5346.68 1.57668e-16
5348.48 1.50861e-16
5350.29 1.26973e-16
5352.09 1.35884e-16
5353.9 1.19872e-16
5355.7 1.10073e-16
5357.5 1.51545e-16
5359.31 1.5649e-16
5361.11 1.46901e-16
5362.91 1.44067e-16
5364.72 1.2825e-16
5366.52 1.38273e-16
5368.32 1.3267e-16
5370.13 1.38159e-16
5371.93 1.49018e-16
5373.73 1.39077e-16
5375.54 1.29757e-16
5377.34 1.44507e-16
5379.15 1.28328e-16
5380.95 1.3557e-16
5382.75 1.36173e-16
5384.56 1.41608e-16
5386.36 1.5482e-16
5388.16 1.05588e-16
5389.97 1.26275e-16
5391.77 1.32264e-16
5393.57 1.21896e-16
5395.38 9.80698e-17
5397.18 9.17912e-17
5398.98 1.29848e-16
5400.79 1.49919e-16
5402.59 1.38531e-16
5404.39 1.3604e-16
5406.2 1.55087e-16
5408.0 1.49562e-16
5409.8 1.32429e-16
5411.61 1.65252e-16
5413.41 1.64663e-16
5415.22 1.33031e-16
5417.02 1.27523e-16
5418.82 1.33114e-16
5420.63 1.08122e-16
5422.43 1.4728e-16
5424.23 1.3885e-16
5426.04 1.4664e-16
5427.84 1.36736e-16
5429.64 1.11788e-16
5431.45 1.25372e-16
5433.25 1.14941e-16
5435.05 1.03886e-16
5436.86 1.21554e-16
5438.66 1.20989e-16
5440.46 1.33836e-16
5442.27 1.26838e-16
5444.07 1.17436e-16
5445.88 1.13059e-16
5447.68 1.23282e-16
5449.48 1.29942e-16
5451.29 1.0035e-16
5453.09 1.13656e-16
5454.89 9.15287e-17
5456.7 1.05476e-16
5458.5 1.42837e-16
5460.3 1.26466e-16
5462.11 1.42137e-16
5463.91 1.32759e-16
5465.71 9.69517e-17
5467.52 9.86632e-17
5469.32 1.03644e-16
5471.12 1.16117e-16
5472.93 1.08024e-16
5474.73 1.18987e-16
5476.54 1.28324e-16
5478.34 1.21754e-16
5480.14 8.21762e-17
5481.95 1.27475e-16
5483.75 1.39795e-16
5485.55 9.11836e-17
5487.36 9.79424e-17
5489.16 1.34418e-16
5490.96 1.36453e-16
5492.77 1.07055e-16
5494.57 1.46753e-16
5496.37 1.28413e-16
5498.18 1.1611e-16
5499.98 1.28455e-16
5501.79 1.26697e-16
5503.59 1.00371e-16
5505.39 1.34994e-16
5507.2 1.35607e-16
5509.0 1.31911e-16
5510.8 1.12338e-16
5512.61 1.059e-16
5514.41 1.1913e-16
5516.21 1.22007e-16
5518.02 1.30603e-16
5519.82 1.08482e-16
5521.62 1.19292e-16
5523.43 1.40754e-16
5525.23 1.4002e-16
5527.03 1.53251e-16
5528.84 1.33785e-16
5530.64 1.03537e-16
5532.44 8.19616e-17
5534.25 6.65944e-17
5536.05 1.19783e-16
5537.86 1.28785e-16
5539.66 1.49941e-16
5541.46 1.20317e-16
5543.27 1.44557e-16
5545.07 1.31258e-16
5546.87 1.0028e-16
5548.68 1.36192e-16
5550.48 1.34383e-16
5552.28 9.85506e-17
5554.09 1.13686e-16
5555.89 1.24608e-16
5557.69 1.23769e-16
5559.5 9.65366e-17
5561.3 9.08998e-17
5563.1 1.12747e-16
5564.91 1.17195e-16
5566.71 1.02207e-16
5568.52 9.4285e-17
5570.32 1.23645e-16
5572.12 1.04588e-16
5573.93 6.70667e-17
5575.73 1.59988e-16
5577.53 1.12419e-16
5579.34 1.48973e-16
5581.14 1.66513e-16
5582.94 1.16315e-16
5584.75 1.14127e-16
5586.55 1.14646e-16
5588.35 1.48832e-16
5590.16 1.22284e-16
5591.96 1.42427e-16
5593.77 1.44584e-16
5595.57 1.42363e-16
5597.37 1.55546e-16
5599.18 1.57871e-16
5600.98 1.2447e-16
5602.78 1.00403e-16
5604.59 1.53048e-16
5606.39 1.49815e-16
5608.19 1.56779e-16
5610.0 1.57693e-16
5611.8 1.33866e-16
5613.6 1.26318e-16
5615.41 1.42934e-16
5617.21 1.25787e-16
5619.01 1.51803e-16
5620.82 1.52062e-16
5622.62 1.57879e-16
5624.43 1.45076e-16
5626.23 1.16068e-16
5628.03 1.09502e-16
5629.84 1.03523e-16
5631.64 9.15633e-17
5633.44 9.52653e-17
5635.25 9.81463e-17
5637.05 9.52541e-17
5638.85 1.01325e-16
5640.66 1.33623e-16
5642.46 1.76816e-16
5644.26 1.69921e-16
5646.07 1.35758e-16
5647.87 1.47064e-16
5649.67 1.62772e-16
5651.48 1.18937e-16
5653.28 1.17492e-16
5655.09 1.58548e-16
5656.89 1.43267e-16
5658.69 1.46834e-16
5660.5 1.16253e-16
5662.3 8.1849e-17
5664.1 1.26409e-16
5665.91 1.30179e-16
5667.71 1.59726e-16
5669.51 1.21755e-16
5671.32 8.99844e-17
5673.12 1.0851e-16
5674.92 1.14224e-16
5676.73 1.24087e-16
5678.53 1.23128e-16
5680.33 1.43146e-16
5682.14 1.42244e-16
5683.94 1.31179e-16
5685.75 1.34865e-16
5687.55 1.2788e-16
5689.35 1.49747e-16
5691.16 1.5482e-16
5692.96 1.69987e-16
5694.76 1.28506e-16
5696.57 1.46462e-16
5698.37 1.20466e-16
5700.17 1.73806e-16
5701.98 1.57947e-16
5703.78 9.4229e-17
5705.58 1.1102e-16
5707.39 1.22113e-16
5709.19 1.27425e-16
5710.99 1.36543e-16
5712.8 1.34393e-16
5714.6 1.51122e-16
5716.41 1.36195e-16
5718.21 1.31142e-16
5720.01 1.20679e-16
5721.82 1.13171e-16
5723.62 1.54054e-16
5725.42 1.50501e-16
5727.23 1.39535e-16
5729.03 1.13085e-16
5730.83 1.18496e-16
5732.64 1.44334e-16
5734.44 1.48783e-16
5736.24 1.33783e-16
5738.05 1.53673e-16
5739.85 1.48805e-16
5741.65 1.42771e-16
5743.46 1.38679e-16
5745.26 1.2377e-16
5747.07 1.3414e-16
5748.87 1.28731e-16
5750.67 1.2057e-16
5752.48 1.30264e-16
5754.28 1.25295e-16
5756.08 1.37011e-16
5757.89 8.89995e-17
5759.69 8.55134e-17
5761.49 1.17731e-16
5763.3 1.38622e-16
5765.1 1.28826e-16
5766.9 1.07095e-16
5768.71 1.21408e-16
5770.51 1.25075e-16
5772.31 1.0797e-16
5774.12 9.3188e-17
5775.92 1.37311e-16
5777.73 1.4256e-16
5779.53 9.97454e-17
5781.33 1.00024e-16
5783.14 1.16314e-16
5784.94 1.43404e-16
5786.74 1.47567e-16
5788.55 1.4611e-16
5790.35 1.29326e-16
5792.15 1.13459e-16
5793.96 1.14444e-16
5795.76 1.22144e-16
5797.56 1.17056e-16
5799.37 1.22746e-16
5801.17 1.32622e-16
5802.97 1.44895e-16
5804.78 1.26798e-16
5806.58 1.38807e-16
5808.39 1.56704e-16
5810.19 1.49784e-16
5811.99 1.39683e-16
5813.8 1.32759e-16
5815.6 1.31846e-16
5817.4 1.33197e-16
5819.21 1.39846e-16
5821.01 1.37187e-16
5822.81 1.22063e-16
5824.62 1.46704e-16
5826.42 1.47894e-16
5828.22 1.22497e-16
5830.03 1.4073e-16
5831.83 1.11714e-16
5833.63 1.33871e-16
5835.44 1.29165e-16
5837.24 1.16829e-16
5839.05 1.04113e-16
5840.85 1.30038e-16
5842.65 1.43152e-16
5844.46 1.17595e-16
5846.26 1.25346e-16
5848.06 1.45971e-16
5849.87 1.32044e-16
5851.67 1.1764e-16
5853.47 1.07602e-16
5855.28 9.67074e-17
5857.08 1.31485e-16
5858.88 1.68091e-16
5860.69 1.26512e-16
5862.49 1.31988e-16
5864.29 1.20045e-16
5866.1 1.16956e-16
5867.9 1.47311e-16
5869.71 2.02758e-16
5871.51 1.55104e-16
5873.31 1.35623e-16
5875.12 1.53903e-16
5876.92 1.38677e-16
5878.72 1.24054e-16
5880.53 1.23161e-16
5882.33 1.25169e-16
5884.13 1.41614e-16
5885.94 1.45063e-16
5887.74 1.17343e-16
5889.54 1.28189e-16
5891.35 1.25238e-16
5893.15 1.77461e-16
5894.96 1.48658e-16
5896.76 1.34999e-16
5898.56 1.11136e-16
5900.37 1.25083e-16
5902.17 1.23155e-16
5903.97 1.3933e-16
5905.78 1.41828e-16
5907.58 1.43058e-16
5909.38 1.22242e-16
5911.19 1.12323e-16
5912.99 1.39217e-16
5914.79 1.31287e-16
5916.6 1.29509e-16
5918.4 1.31118e-16
5920.2 9.68625e-17
5922.01 1.42073e-16
5923.81 1.29233e-16
5925.62 1.45478e-16
5927.42 1.4025e-16
5929.22 1.61984e-16
5931.03 1.18248e-16
5932.83 1.14124e-16
5934.63 1.56846e-16
5936.44 1.13608e-16
5938.24 1.22205e-16
5940.04 1.19931e-16
5941.85 8.30054e-17
5943.65 1.26118e-16
5945.45 1.45361e-16
5947.26 1.16723e-16
5949.06 1.31243e-16
5950.86 1.3546e-16
5952.67 1.36914e-16
5954.47 1.16987e-16
5956.27 1.36401e-16
5958.08 1.49783e-16
5959.88 1.01423e-16
5961.69 1.52099e-16
5963.49 1.72993e-16
5965.29 1.3252e-16
5967.1 1.39871e-16
5968.9 1.46293e-16
5970.7 1.30763e-16
5972.51 1.37385e-16
5974.31 1.45414e-16
5976.11 1.26584e-16
5977.92 1.12949e-16
5979.72 1.2894e-16
5981.52 1.26069e-16
5983.33 1.04852e-16
5985.13 1.2296e-16
5986.94 1.21093e-16
5988.74 1.25487e-16
5990.54 1.32804e-16
5992.35 1.45493e-16
5994.15 1.20482e-16
5995.95 1.14099e-16
5997.76 1.38923e-16
5999.56 1.04891e-16
6001.36 1.13216e-16
6003.17 1.21809e-16
6004.97 1.48316e-16
6006.77 1.67705e-16
6008.58 1.5477e-16
6010.38 1.4812e-16
6012.18 1.48498e-16
6013.99 1.40449e-16
6015.79 1.06314e-16
6017.6 1.11885e-16
6019.4 1.38536e-16
6021.2 1.47237e-16
6023.01 1.1517e-16
6216.44 1.16882e-16
6218.43 1.02125e-16
6220.41 1.00527e-16
6222.4 1.05584e-16
6224.39 1.2853e-16
6226.38 1.27004e-16
6228.36 1.06298e-16
6230.35 7.77363e-17
6232.34 1.02617e-16
6234.33 1.10195e-16
6236.32 1.32198e-16
6238.3 1.35481e-16
6240.29 1.07718e-16
6242.28 1.15398e-16
6244.27 1.15496e-16
6246.26 9.53972e-17
6248.24 8.11101e-17
6250.23 1.05693e-16
6252.22 1.16825e-16
6254.21 1.02471e-16
6256.19 1.07869e-16
6258.18 9.13623e-17
6260.17 8.01446e-17
6262.16 9.29055e-17
6264.15 1.15728e-16
6266.13 9.68008e-17
6268.12 1.13657e-16
6270.11 1.17757e-16
6272.1 1.11554e-16
6274.08 1.19257e-16
6276.07 1.04772e-16
6278.06 1.34258e-16
6280.05 1.01076e-16
6282.04 9.97783e-17
6284.02 1.21107e-16
6286.01 1.10939e-16
6288.0 1.07669e-16
6289.99 9.79185e-17
6291.98 1.18854e-16
6293.96 1.13724e-16
6295.95 1.0341e-16
6297.94 1.08595e-16
6299.93 8.95818e-17
6301.92 9.7167e-17
6303.9 1.02927e-16
6305.89 1.08481e-16
6307.88 1.22236e-16
6309.87 1.27081e-16
6311.85 1.42397e-16
6313.84 1.22739e-16
6315.83 1.00005e-16
6317.82 1.18795e-16
6319.81 1.08525e-16
6321.79 1.04161e-16
6323.78 1.13693e-16
6325.77 1.08446e-16
6327.76 1.2981e-16
6329.75 1.0702e-16
6331.73 9.39618e-17
6333.72 1.17615e-16
6335.71 1.10071e-16
6337.7 1.23642e-16
6339.68 1.08899e-16
6341.67 1.13767e-16
6343.66 1.25342e-16
6345.65 1.16829e-16
6347.64 9.48849e-17
6349.62 1.32529e-16
6351.61 1.37019e-16
6353.6 1.02019e-16
6355.59 1.0522e-16
6357.57 1.3025e-16
6359.56 1.50326e-16
6361.55 1.25806e-16
6363.54 9.81729e-17
6365.53 1.02572e-16
6367.51 1.19806e-16
6369.5 1.50952e-16
6371.49 1.37737e-16
6373.48 1.21733e-16
6375.47 1.24486e-16
6377.45 1.20375e-16
6379.44 1.43224e-16
6381.43 9.65347e-17
6383.42 9.08507e-17
6385.4 1.29188e-16
6387.39 1.05187e-16
6389.38 1.00574e-16
6391.37 1.20798e-16
6393.36 1.39257e-16
6395.34 1.24305e-16
6397.33 1.3062e-16
6399.32 1.20367e-16
6401.31 1.2371e-16
6403.3 1.09394e-16
6405.28 9.05272e-17
6407.27 1.1627e-16
6409.26 1.08818e-16
6411.25 1.16051e-16
6413.23 1.33033e-16
6415.22 1.28238e-16
6417.21 1.33261e-16
6419.2 1.49374e-16
6421.19 1.24627e-16
6423.17 1.1791e-16
6425.16 1.47151e-16
6427.15 1.40284e-16
6429.14 1.28763e-16
6431.12 1.19423e-16
6433.11 1.43862e-16
6435.1 1.25284e-16
6437.09 1.23517e-16
6439.08 1.27434e-16
6441.06 1.22463e-16
6443.05 1.41677e-16
6445.04 1.26009e-16
6447.03 1.28054e-16
6449.02 1.27484e-16
6451.0 1.27857e-16
6452.99 1.37803e-16
6454.98 1.33171e-16
6456.97 1.21978e-16
6458.96 1.1851e-16
6460.94 9.91856e-17
6462.93 1.11344e-16
6464.92 1.42388e-16
6466.91 1.28678e-16
6468.89 1.37906e-16
6470.88 1.1188e-16
6472.87 1.10907e-16
6474.86 1.28255e-16
6476.85 1.2984e-16
6478.83 1.40852e-16
6480.82 1.38987e-16
6482.81 1.46438e-16
6484.8 1.46788e-16
6486.79 1.16895e-16
6488.77 1.18605e-16
6490.76 1.1101e-16
6492.75 1.20082e-16
6494.74 1.39429e-16
6496.72 1.21878e-16
6498.71 1.28821e-16
6500.7 1.37513e-16
6502.69 1.02645e-16
6504.68 1.00079e-16
6506.66 1.21094e-16
6508.65 1.15875e-16
6510.64 1.5679e-16
6512.63 1.27239e-16
6514.61 1.23002e-16
6516.6 1.00834e-16
6518.59 1.05109e-16
6520.58 1.09097e-16
6522.57 9.65617e-17
6524.55 7.55132e-17
6526.54 1.14955e-16
6528.53 1.27798e-16
6530.52 1.16217e-16
6532.51 1.17299e-16
6534.49 1.17588e-16
6536.48 1.10106e-16
6538.47 1.15367e-16
6540.46 1.01802e-16
6542.44 1.06806e-16
6544.43 1.10231e-16
6546.42 1.31854e-16
6548.41 9.46852e-17
6550.4 1.02227e-16
6552.38 1.17376e-16
6554.37 1.10676e-16
6556.36 1.14133e-16
6558.35 1.17888e-16
6560.34 1.07731e-16
6562.32 1.14413e-16
6564.31 1.18836e-16
6566.3 1.23663e-16
6568.29 1.33118e-16
6570.27 1.35574e-16
6572.26 1.18364e-16
6574.25 1.24967e-16
6576.24 1.61761e-16
6578.23 1.6797e-16
6580.21 1.18009e-16
6582.2 1.23144e-16
6584.19 1.23866e-16
6586.18 1.39517e-16
6588.17 1.21047e-16
6590.15 1.13572e-16
6592.14 1.16346e-16
6594.13 1.07982e-16
6596.12 1.19312e-16
6598.1 1.27551e-16
6600.09 1.13714e-16
6602.08 1.41809e-16
6604.07 1.22156e-16
6606.06 1.28758e-16
6608.04 1.20554e-16
6610.03 1.30678e-16
6612.02 1.32542e-16
6614.01 1.49347e-16
6616.0 1.41364e-16
6617.98 1.20882e-16
6619.97 1.13107e-16
6621.96 1.40977e-16
6623.95 1.28581e-16
6625.93 1.27031e-16
6627.92 1.34008e-16
6629.91 1.05458e-16
6631.9 1.09058e-16
6633.89 1.12512e-16
6635.87 1.02989e-16
6637.86 1.02303e-16
6639.85 1.20602e-16
6641.84 1.07616e-16
6643.83 1.316e-16
6645.81 1.23823e-16
6647.8 1.28608e-16
6649.79 1.08351e-16
6651.78 1.15595e-16
6653.76 1.22081e-16
6655.75 1.24206e-16
6657.74 1.07932e-16
6659.73 1.28489e-16
6661.72 1.25508e-16
6663.7 1.13034e-16
6665.69 1.31211e-16
6667.68 1.2933e-16
6669.67 1.05267e-16
6671.65 1.2592e-16
6673.64 1.0529e-16
6675.63 1.12099e-16
6677.62 1.24927e-16
6679.61 1.07855e-16
6681.59 1.19971e-16
6683.58 1.28319e-16
6685.57 1.04507e-16
6687.56 9.76768e-17
6689.55 1.11846e-16
6691.53 1.08186e-16
6693.52 1.2169e-16
6695.51 1.0651e-16
6697.5 8.05906e-17
6699.48 1.11917e-16
6701.47 1.29075e-16
6703.46 1.17734e-16
6705.45 1.24304e-16
6707.44 1.21936e-16
6709.42 1.22361e-16
6711.41 1.26254e-16
6713.4 1.20942e-16
6715.39 1.0963e-16
6717.38 1.09281e-16
6719.36 1.14367e-16
6721.35 1.17661e-16
6723.34 1.08077e-16
6725.33 1.18939e-16
6727.31 1.06659e-16
6729.3 1.19575e-16
6731.29 1.18657e-16
6733.28 1.03801e-16
6735.27 1.23701e-16
6737.25 1.26444e-16
6739.24 1.05161e-16
6741.23 1.12438e-16
6743.22 1.00913e-16
6745.21 1.03291e-16
6747.19 1.23594e-16
6749.18 1.15484e-16
6751.17 9.32241e-17
6753.16 8.13493e-17
6755.14 9.00231e-17
6757.13 1.22387e-16
6759.12 1.04417e-16
6761.11 1.13299e-16
6763.1 1.13012e-16
6765.08 1.21622e-16
6767.07 1.14616e-16
6769.06 1.34082e-16
6771.05 1.2429e-16
6773.04 1.20711e-16
6775.02 1.25291e-16
6777.01 1.19568e-16
6779.0 1.17729e-16
6780.99 1.14819e-16
6782.97 1.23668e-16
6784.96 1.11589e-16
6786.95 9.68336e-17
6788.94 1.06841e-16
6790.93 1.12314e-16
6792.91 1.10537e-16
6794.9 1.14654e-16
6796.89 1.10135e-16
6798.88 1.1864e-16
6800.87 1.14456e-16
6802.85 8.89586e-17
6804.84 9.41363e-17
6806.83 1.14855e-16
6808.82 9.65205e-17
6810.8 9.63212e-17
6812.79 1.0852e-16
6814.78 1.22979e-16
6816.77 1.25914e-16
6818.76 1.21327e-16
6820.74 1.07908e-16
6822.73 9.81246e-17
6824.72 9.4348e-17
6826.71 9.24004e-17
6828.7 1.21174e-16
6830.68 1.24586e-16
6832.67 1.11773e-16
6834.66 9.30678e-17
6836.65 9.48368e-17
6838.63 1.2151e-16
6840.62 1.17975e-16
6842.61 1.04326e-16
6844.6 1.04853e-16
6846.59 1.22196e-16
6848.57 1.14994e-16
6850.56 1.18872e-16
6852.55 1.19189e-16
6854.54 9.61838e-17
6856.52 1.24195e-16
6858.51 1.11852e-16
6860.5 1.32493e-16
6862.49 1.19979e-16
6864.48 5.49919e-17
6866.46 7.81415e-17
6868.45 8.09918e-17
6870.44 8.25217e-17
6872.43 8.03689e-17
6874.42 8.15006e-17
6876.4 9.49513e-17
6878.39 9.41136e-17
6880.38 1.21809e-16
6882.37 1.19814e-16
6884.35 8.9578e-17
6886.34 1.0377e-16
6888.33 1.30527e-16
6890.32 1.12275e-16
6892.31 9.88379e-17
6894.29 9.95551e-17
6896.28 1.08764e-16
6898.27 1.10959e-16
6900.26 1.076e-16
6902.25 9.71582e-17
6904.23 9.57282e-17
6906.22 9.08013e-17
6908.21 9.04333e-17
6910.2 1.11954e-16
6912.18 1.2884e-16
6914.17 9.05267e-17
6916.16 1.06158e-16
6918.15 1.18271e-16
6920.14 1.04903e-16
6922.12 1.04177e-16
6924.11 1.03415e-16
6926.1 1.13086e-16
6928.09 1.09426e-16
6930.08 1.08389e-16
6932.06 1.01692e-16
6934.05 7.9879e-17
6936.04 9.16737e-17
6938.03 1.18442e-16
6940.01 1.18767e-16
6942.0 1.28311e-16
6943.99 1.37692e-16
6945.98 1.26675e-16
6947.97 1.16964e-16
6949.95 9.43878e-17
6951.94 8.67824e-17
6953.93 9.61092e-17
6955.92 1.17198e-16
6957.91 1.18078e-16
6959.89 1.22852e-16
6961.88 1.02495e-16
6963.87 7.32638e-17
6965.86 8.78913e-17
6967.84 1.18781e-16
6969.83 1.06419e-16
6971.82 1.2855e-16
6973.81 1.24161e-16
6975.8 9.9567e-17
6977.78 1.02219e-16
6979.77 9.48453e-17
6981.76 9.16507e-17
6983.75 1.03632e-16
6985.74 1.01104e-16
6987.72 1.13514e-16
6989.71 1.12999e-16
6991.7 1.1437e-16
6993.69 9.09636e-17
6995.67 1.01893e-16
6997.66 1.0054e-16
6999.65 9.44989e-17
7001.64 1.01223e-16
7003.63 7.78098e-17
7005.61 8.93593e-17
7007.6 1.26904e-16
7009.59 8.89576e-17
7011.58 9.46862e-17
7013.56 9.91647e-17
7015.55 8.56491e-17
7017.54 9.65286e-17
7019.53 8.23975e-17
7021.52 7.8971e-17
7023.5 7.71117e-17
7025.49 1.08044e-16
7027.48 1.12123e-16
7029.47 1.15315e-16
7031.46 1.06697e-16
7033.44 9.90202e-17
7035.43 9.51997e-17
7037.42 8.28479e-17
7039.41 7.08209e-17
7041.4 7.51965e-17
7043.38 9.80407e-17
7045.37 8.32808e-17
7047.36 8.20382e-17
7049.35 9.14257e-17
7051.33 1.10236e-16
7053.32 1.0328e-16
7055.31 1.05175e-16
7057.3 1.128e-16
7059.29 8.88951e-17
7061.27 8.81169e-17
7063.26 9.59245e-17
7065.25 8.8114e-17
7067.24 8.5324e-17
7069.22 8.69151e-17
7071.21 7.97458e-17
7073.2 8.74713e-17
7075.19 9.56387e-17
7077.18 1.05845e-16
7079.16 1.00368e-16
7081.15 9.13915e-17
7083.14 9.60151e-17
7085.13 9.68518e-17
7087.12 1.08742e-16
7089.1 1.07573e-16
7091.09 9.27797e-17
7093.08 9.14246e-17
7095.07 1.06255e-16
7097.05 9.28002e-17
7099.04 8.91637e-17
7101.03 1.08739e-16
7103.02 9.09725e-17
7105.01 8.86e-17
7106.99 9.09709e-17
7108.98 9.03505e-17
7110.97 1.059e-16
7112.96 1.04321e-16
7114.95 7.72151e-17
7116.93 6.43156e-17
7118.92 8.41662e-17
7120.91 1.0558e-16
7122.9 9.20392e-17
7124.88 7.05926e-17
7126.87 8.69374e-17
7128.86 9.7699e-17
7130.85 8.56177e-17
7132.84 9.7157e-17
7134.82 9.98629e-17
7136.81 9.30451e-17
7138.8 1.03068e-16
7140.79 9.01597e-17
7142.78 8.94526e-17
7144.76 1.07459e-16
7146.75 1.03674e-16
7148.74 9.54958e-17
7150.73 1.00282e-16
7152.71 1.25825e-16
7154.7 9.23628e-17
7156.69 7.71969e-17
7158.68 7.51432e-17
7160.67 7.47441e-17
7162.65 8.47012e-17
7164.64 1.08321e-16
7166.63 1.00467e-16
7168.62 1.0222e-16
7170.6 8.38436e-17
7172.59 8.83682e-17
7174.58 8.19476e-17
7176.57 8.42322e-17
7178.56 7.76084e-17
7180.54 7.10785e-17
7182.53 9.46811e-17
7184.52 7.69131e-17
7186.51 6.91536e-17
7188.5 7.52252e-17
7190.48 9.18622e-17
7192.47 7.23721e-17
7194.46 8.33046e-17
7196.45 7.84063e-17
7198.44 9.1506e-17
7200.42 7.32359e-17
7202.41 5.76707e-17
7204.4 7.9705e-17
7206.39 9.42369e-17
7208.37 8.63552e-17
7210.36 7.91734e-17
7212.35 8.057e-17
7214.34 8.8996e-17
7216.33 9.89602e-17
7218.31 1.0412e-16
7220.3 9.65502e-17
7222.29 7.98791e-17
7224.28 8.07202e-17
7226.27 7.68568e-17
7228.25 6.75178e-17
7230.24 7.52172e-17
7232.23 9.10225e-17
7234.22 7.89187e-17
7236.2 7.04446e-17
7238.19 6.89053e-17
7240.18 6.52932e-17
7242.17 4.06773e-17
7244.16 1.14805e-16
7246.14 1.24553e-16
7248.13 7.40038e-17
7250.12 8.98731e-17
7252.11 1.01157e-16
7254.09 8.61228e-17
7256.08 1.01183e-16
7258.07 9.55283e-17
7260.06 7.30812e-17
7262.05 7.0714e-17
7264.03 9.49857e-17
7266.02 8.43967e-17
7268.01 7.30401e-17
7270.0 6.91438e-17
7271.99 6.28774e-17
7273.97 4.46763e-17
7275.96 6.63495e-17
7277.95 9.17101e-17
7279.94 7.4977e-17
7281.92 7.16439e-17
7283.91 9.99619e-17
7285.9 1.08354e-16
7287.89 6.33521e-17
7289.88 5.86483e-17
7291.86 6.90351e-17
7293.85 7.55004e-17
7295.84 7.491e-17
7297.83 8.19962e-17
7299.82 4.78632e-17
7301.8 3.24972e-17
7303.79 6.75529e-17
7305.78 9.87977e-17
7307.77 9.43935e-17
7309.75 5.27189e-17
7311.74 5.99394e-17
7313.73 8.3551e-17
7315.72 7.93201e-17
7317.71 9.21678e-17
7319.69 9.31533e-17
7321.68 7.77869e-17
7323.67 6.71492e-17
7325.66 6.81739e-17
7327.65 8.07073e-17
7329.63 7.47764e-17
7331.62 6.82841e-17
7333.61 7.69842e-17
7335.6 6.9691e-17
7337.58 7.36468e-17
7339.57 5.52189e-17
7341.56 6.22519e-17
7343.55 7.60877e-17
7345.54 7.62951e-17
7347.52 7.32753e-17
7349.51 7.37114e-17
7351.5 5.89107e-17
7353.49 5.92672e-17
7355.48 7.94402e-17
7357.46 9.9963e-17
7359.45 8.81164e-17
7361.44 7.41203e-17
7363.43 8.56114e-17
7365.41 6.55995e-17
7367.4 7.44736e-17
7369.39 6.34037e-17
7371.38 7.7276e-17
7373.37 7.54012e-17
7375.35 8.67388e-17
7377.34 8.42415e-17
7379.33 6.32841e-17
7381.32 6.25897e-17
7383.31 7.80903e-17
7385.29 5.66329e-17
7387.28 7.9584e-17
7389.27 7.66065e-17
7391.26 6.19346e-17
7393.24 7.78247e-17
7395.23 8.70579e-17
7397.22 7.45263e-17
7399.21 7.10821e-17
7401.2 8.71647e-17
7403.18 6.52109e-17
7405.17 5.56883e-17
7407.16 7.74362e-17
7409.15 6.49893e-17
7411.13 6.05449e-17
7413.12 5.49134e-17
7415.11 6.55942e-17
7417.1 9.21961e-17
7419.09 6.04333e-17
7421.07 6.64072e-17
7423.06 5.93031e-17
7425.05 6.53082e-17
7427.04 7.13225e-17
7429.03 7.3897e-17
7431.01 6.54793e-17
7433.0 6.77539e-17
7434.99 9.12752e-17
7436.98 7.44223e-17
7438.96 6.6795e-17
7440.95 6.82155e-17
7442.94 6.9178e-17
7444.93 6.80067e-17
7446.92 7.03987e-17
7448.9 6.97551e-17
7450.89 6.42049e-17
7452.88 6.58174e-17
7454.87 9.61412e-17
7456.86 7.3588e-17
7458.84 7.13147e-17
7460.83 6.30014e-17
7462.82 5.75436e-17
7464.81 6.07178e-17
7466.79 6.87052e-17
7468.78 7.5778e-17
7470.77 6.95758e-17
7472.76 6.03308e-17
7474.75 5.46616e-17
7476.73 7.3173e-17
7478.72 7.37681e-17
7480.71 4.89425e-17
7482.7 6.43952e-17
7484.69 6.90285e-17
7486.67 5.55677e-17
7488.66 4.98063e-17
7490.65 5.53383e-17
7492.64 7.25698e-17
7494.62 6.77861e-17
7496.61 7.26788e-17
7498.6 8.10886e-17
7500.59 7.18923e-17
7502.58 5.73305e-17
7504.56 5.70044e-17
7506.55 6.38327e-17
7508.54 6.39085e-17
7510.53 7.62203e-17
7512.52 7.1129e-17
7514.5 6.43067e-17
7516.49 6.01364e-17
7518.48 7.39412e-17
7520.47 6.66136e-17
7522.45 3.32406e-17
7524.44 6.43311e-17
7526.43 7.65004e-17
7528.42 7.78182e-17
7530.41 9.00091e-17
7532.39 7.90007e-17
7534.38 6.57877e-17
7536.37 5.54305e-17
7538.36 6.32047e-17
7540.35 6.40145e-17
7542.33 8.16688e-17
7544.32 6.63245e-17
7546.31 4.5808e-17
7548.3 5.92063e-17
7550.28 7.31567e-17
7552.27 6.32674e-17
7554.26 6.76966e-17
7556.25 6.50049e-17
7558.24 6.39538e-17
7560.22 8.70868e-17
7562.21 7.79848e-17
7564.2 4.816e-17
7566.19 4.98011e-17
7568.17 6.94204e-17
7570.16 7.13208e-17
7572.15 5.86511e-17
7574.14 4.59651e-17
7576.13 7.37031e-17
7578.11 6.90677e-17
7580.1 6.62461e-17
7582.09 6.69092e-17
7584.08 7.28675e-17
7586.07 6.90187e-17
7588.05 7.25462e-17
7590.04 5.22915e-17
7592.03 3.95769e-17
7594.02 5.26709e-17
7596.0 2.27032e-17
7597.99 2.00381e-18
7599.98 2.0248e-17
7601.97 2.13669e-17
7603.96 7.43658e-18
7605.94 1.40531e-17
7607.93 2.64215e-17
7609.92 1.85797e-17
7611.91 2.69157e-17
7613.9 3.9879e-17
7615.88 5.59666e-17
7617.87 4.80964e-17
7619.86 4.88715e-17
7621.85 4.85559e-17
7623.83 3.59144e-17
7625.82 4.61112e-17
7627.81 4.1924e-17
7629.8 2.95787e-17
7631.79 3.73748e-17
7633.77 4.61215e-17
7635.76 4.50415e-17
7637.75 4.13605e-17
7639.74 3.32305e-17
7641.73 3.44685e-17
7643.71 4.19438e-17
7645.7 4.99526e-17
7647.69 3.46301e-17
7649.68 3.66076e-17
7651.66 3.90309e-17
7653.65 5.08075e-17
7655.64 4.44593e-17
7657.63 3.42804e-17
7659.62 5.7358e-17
7661.6 4.11781e-17
7663.59 4.71174e-17
7665.58 6.15438e-17
7667.57 5.35475e-17
7669.56 4.93646e-17
7671.54 6.23778e-17
7673.53 6.06248e-17
7675.52 5.98482e-17
7677.51 4.85523e-17
7679.49 3.62697e-17
7681.48 5.08794e-17
7683.47 5.07584e-17
7685.46 6.19799e-17
7687.45 5.40365e-17
7689.43 3.40445e-17
7691.42 4.01753e-17
7693.41 6.88024e-17
7695.4 6.35047e-17
7697.39 4.34936e-17
7699.37 3.48568e-17
7701.36 4.06055e-17
7703.35 4.19971e-17
7705.34 3.32822e-17
7707.32 3.77085e-17
7709.31 3.68248e-17
7711.3 3.47501e-17
7713.29 3.20932e-17
7715.28 2.36987e-17
7717.26 5.09832e-17
7719.25 4.74941e-17
7721.24 4.73733e-17
7723.23 7.40234e-17
7725.22 5.10712e-17
7727.2 3.4595e-17
7729.19 3.57548e-17
7731.18 4.69062e-17
7733.17 5.18578e-17
7735.15 5.68545e-17
7737.14 5.70607e-17
7739.13 6.9575e-17
7741.12 6.07265e-17
7743.11 3.96677e-17
7745.09 5.13031e-17
7747.08 5.19263e-17
7749.07 7.34396e-17
7751.06 7.96478e-17
7753.04 4.77239e-17
7755.03 5.4335e-17
7757.02 4.80051e-17
7759.01 3.48879e-17
7761.0 3.42353e-17
7762.98 5.75586e-17
7764.97 6.08905e-17
7766.96 5.1198e-17
7768.95 7.05398e-17
7770.94 5.03272e-17
7772.92 4.37914e-17
7774.91 4.9637e-17
7776.9 5.19359e-17
7778.89 4.45261e-17
7780.88 4.32186e-17
7782.86 5.49186e-17
7784.85 5.86694e-17
7786.84 4.43789e-17
7788.83 4.91704e-17
7790.81 7.16667e-17
7792.8 5.00582e-17
7794.79 5.39263e-17
7796.78 7.08011e-17
7798.77 6.10733e-17
7800.75 3.5334e-17
7802.74 3.36193e-17
7804.73 4.31045e-17
7806.72 4.39778e-17
7808.7 7.02225e-17
7810.69 6.203e-17
7812.68 5.04409e-17
7814.67 5.20256e-17
7816.66 3.89691e-17
7818.64 4.23651e-17
7820.63 5.7364e-17
7822.62 5.27053e-17
7824.61 4.47623e-17
7826.6 4.14565e-17
7828.58 3.89464e-17
7830.57 5.00148e-17
7832.56 4.68756e-17
7834.55 3.82536e-17
7836.53 4.57033e-17
7838.52 3.82375e-17
7840.51 5.3015e-17
7842.5 3.98891e-17
7844.49 4.6336e-17
7846.47 5.23454e-17
7848.46 3.9375e-17
7850.45 3.17041e-17
7852.44 4.7426e-17
7854.43 7.55471e-17
7856.41 9.05897e-17
7858.4 5.33545e-17
7860.39 3.56372e-17
7862.38 3.68348e-17
7864.36 2.60823e-17
7866.35 2.89505e-17
7868.34 3.46171e-17
7870.33 2.77792e-17
7872.32 3.71155e-17
7874.3 4.76694e-17
7876.29 4.59904e-17
7878.28 3.5033e-17
7880.27 4.07858e-17
7882.26 5.19165e-17
7884.24 5.4493e-17
7886.23 4.03858e-17
7888.22 3.0826e-17
7890.21 7.02044e-17
7892.19 5.11318e-17
7894.18 4.71888e-17
7896.17 3.90269e-17
7898.16 2.59333e-17
7900.15 3.15976e-17
7902.13 3.48586e-17
7904.12 3.48933e-17
7906.11 4.67145e-17
7908.1 5.2767e-17
7910.08 5.87813e-17
7912.07 6.43725e-17
7914.06 9.06361e-17
7916.05 4.65987e-17
7918.04 3.67068e-17
7920.02 2.29983e-17
7922.01 4.45693e-17
7924.0 3.42494e-17
7925.99 4.16931e-17
7927.98 4.21629e-17
7929.96 4.92403e-17
7931.95 4.20576e-17
7933.94 3.47373e-17
7935.93 3.58357e-17
7937.92 3.06676e-17
7939.9 3.74159e-17
7941.89 4.27269e-17
7943.88 4.58991e-17
7945.87 3.17505e-17
7947.85 3.99841e-17
7949.84 5.34726e-17
7951.83 6.91186e-17
7953.82 4.76693e-17
7955.81 3.47286e-17
7957.79 4.03037e-17
7959.78 5.30063e-17
7961.77 4.20785e-17
7963.76 3.22129e-17
7965.74 1.3517e-17
7967.73 3.27581e-17
7969.72 2.46089e-17
7971.71 1.81942e-17
7973.7 3.43671e-17
7975.68 4.71324e-17
7977.67 4.15519e-17
7979.66 3.84126e-17
7981.65 3.09247e-17
7983.64 1.92776e-17
7985.62 6.04436e-17
7987.61 4.80401e-17
7989.6 2.31354e-17
7991.59 5.39408e-17
7993.57 4.29261e-17
7995.56 4.5461e-17
7997.55 2.40365e-17
7999.54 3.75317e-17
8001.53 3.64499e-17
8003.51 4.47052e-17
8005.5 3.7485e-17
8007.49 3.97117e-17
8009.48 2.42592e-17
8011.47 2.27404e-17
8013.45 4.78616e-17
8015.44 3.9553e-17
8017.43 3.77103e-17
8019.42 4.41823e-17
8021.4 3.78654e-17
8023.39 4.9432e-17
8025.38 4.76396e-17
8027.37 5.00073e-17
8029.36 2.71324e-17
8031.34 2.41791e-17
8033.33 1.77443e-17
8035.32 3.26683e-17
8037.31 3.17964e-17
8039.3 2.72606e-17
8041.28 3.21176e-17
8043.27 3.82824e-17
8045.26 4.09273e-17
8047.25 3.7569e-17
8049.23 3.99399e-17
8051.22 4.48007e-17
8053.21 4.31909e-17
8055.2 4.4357e-17
8057.19 2.69777e-17
8059.17 2.83665e-17
8061.16 3.37446e-17
8063.15 3.76789e-17
8065.14 2.38564e-17
8067.12 3.1811e-17
8069.11 3.4981e-17
8071.1 2.68046e-17
8073.09 3.35643e-17
8075.08 3.67415e-17
8077.06 2.17355e-17
8079.05 3.6244e-17
8081.04 3.90679e-17
8083.03 3.77806e-17
8085.02 3.67499e-17
8087.0 2.56256e-17
8088.99 3.74539e-17
8090.98 5.18516e-17
8092.97 3.72111e-17
8094.96 4.00493e-17
8096.94 2.41682e-17
8098.93 2.97232e-17
8100.92 3.68781e-17
8102.91 3.69868e-17
8104.89 3.30304e-17
8106.88 4.32154e-17
8108.87 3.1643e-17
8110.86 3.4391e-17
8112.85 3.72572e-17
8114.83 3.92756e-17
8116.82 3.42027e-17
8118.81 3.87556e-17
8120.8 3.89162e-17
8122.79 1.89129e-17
8124.77 2.04665e-17
8126.76 2.97237e-17
8128.75 3.39065e-17
8130.74 3.93259e-17
8132.72 2.9998e-17
8134.71 3.08797e-17
8136.7 3.79833e-17
8138.69 3.34759e-17
8140.68 4.32978e-17
8142.66 2.4183e-17
8144.65 4.23252e-17
8146.64 4.72983e-17
8148.63 3.86013e-17
8150.61 3.86373e-17
8152.6 4.15617e-17
8154.59 2.06761e-17
8156.58 2.88784e-17
8158.57 3.85437e-17
8160.55 3.54724e-17
8162.54 3.60392e-17
8164.53 2.92044e-17
8166.52 2.36988e-17
8168.51 2.81837e-17
8170.49 3.31844e-17
8172.48 3.3778e-17
8174.47 2.14191e-17
8176.46 1.54133e-17
8178.44 2.10325e-17
8180.43 2.87988e-17
8182.42 2.11339e-17
8184.41 2.27255e-17
8186.4 3.21958e-17
8188.38 4.15538e-17
8190.37 3.60321e-17
8192.36 2.25457e-17
8194.35 2.43675e-17
8196.33 3.76831e-17
8198.32 4.14952e-17
8200.31 3.205e-17
8202.3 2.79708e-17
8204.29 3.08167e-17
8206.27 3.13768e-17
8208.26 2.90603e-17
8210.25 2.33869e-17
8212.24 3.36446e-17
8214.23 3.56881e-17
8216.21 2.58416e-17
8218.2 1.4645e-17
8220.19 2.50861e-17
8222.18 3.01047e-17
8224.17 1.68595e-17
8226.15 2.94659e-17
8228.14 2.89412e-17
8230.13 2.76121e-17
8232.12 1.85574e-17
8234.1 1.31259e-17
8236.09 2.40667e-17
8238.08 3.70651e-17
8240.07 3.95373e-17
8242.06 3.63921e-17
8244.04 3.94381e-17
8246.03 3.10854e-17
8248.02 2.73657e-17
8250.01 3.40682e-17
8252.0 3.30269e-17
8253.98 1.97318e-17
8255.97 2.48201e-17
8257.96 2.62227e-17
8259.95 2.23523e-17
8261.93 3.30162e-17
8263.92 2.33342e-17
8265.91 2.72128e-17
8267.9 3.93689e-17
8269.89 3.42572e-17
8271.87 3.67575e-17
8273.86 2.62452e-17
8275.85 2.76486e-17
8277.84 3.35029e-17
8279.83 3.27856e-17
8281.81 2.59464e-17
8283.8 1.59768e-17
8285.79 1.69912e-17
8287.78 2.54443e-17
8289.76 1.53782e-17
8291.75 1.95533e-17
8293.74 1.41084e-17
8295.73 2.48836e-17
8297.72 1.69936e-17
8299.7 3.20702e-17
8301.69 3.46838e-17
8303.68 3.23955e-17
8305.67 2.18893e-17
8307.66 3.17438e-17
8309.64 3.32497e-17
8311.63 2.82257e-17
8313.62 3.42818e-17
8315.61 3.11704e-17
8317.59 2.99891e-17
8319.58 4.2216e-17
8321.57 2.40003e-17
8323.56 3.66271e-17
8325.55 5.72994e-17
8327.53 3.03684e-17
8329.52 3.24349e-17
8331.51 4.14128e-17
8333.5 2.13989e-17
8335.48 2.83459e-17
8337.47 4.83775e-17
8339.46 1.61621e-17
8341.45 2.8301e-17
8343.44 2.41049e-17
8345.42 9.28898e-18
8347.41 -1.11427e-17
8349.4 -2.79525e-18
8351.39 3.49077e-17
8353.38 3.57296e-17
8355.36 1.07704e-17
8357.35 3.65189e-17
8359.34 3.63714e-17
8361.33 2.98377e-17
8363.31 3.7574e-17
8365.3 2.76714e-17
8367.29 3.80142e-17
8369.28 3.11747e-17
8371.27 8.37949e-18
8373.25 1.72644e-17
8375.24 3.77275e-17
8377.23 3.71354e-17
8379.22 3.0434e-17
8381.21 3.90119e-17
8383.19 4.59881e-17
8385.18 3.01879e-17
8387.17 2.66197e-17
8389.16 2.38037e-17
8391.14 1.29793e-17
8393.13 3.80231e-17
8395.12 3.52688e-17
8397.11 2.73238e-17
8399.1 7.01052e-18
8401.08 1.31077e-17
8403.07 1.44036e-17
8405.06 3.89047e-17
8407.05 3.77373e-17
8409.04 3.91547e-17
8411.02 4.35842e-17
8413.01 2.23202e-17
8415.0 2.23455e-17
8416.99 2.70326e-17
8418.97 2.81193e-17
8420.96 4.36268e-17
8422.95 2.98472e-17
8424.94 1.98502e-17
8426.93 3.52915e-17
8428.91 3.74321e-17
8430.9 2.85477e-17
8432.89 3.33697e-17
8434.88 5.35193e-18
8436.87 -2.40183e-18
8438.85 1.20781e-17
8440.84 2.22915e-17
8442.83 2.73399e-17
8444.82 2.39892e-17
8446.8 3.07908e-17
8448.79 3.44962e-17
8450.78 1.93437e-17
8452.77 2.48404e-17
8454.76 1.92033e-17
8456.74 1.72984e-17
8458.73 2.0536e-17
8460.72 6.76871e-18
8462.71 5.07556e-18
8464.7 6.16262e-17
8466.68 4.30501e-17
8468.67 3.67655e-17
8470.66 5.17754e-17
8472.65 3.84002e-17
8474.63 3.40694e-17
8476.62 3.02598e-17
8478.61 3.22041e-17
8480.6 3.02174e-17
8482.59 2.81179e-17
8484.57 2.66761e-17
8486.56 2.71758e-17
8488.55 3.38008e-17
8490.54 3.21737e-17
8492.53 2.97828e-17
8494.51 2.508e-17
8496.5 2.85157e-17
8498.49 2.61668e-17
8500.48 3.6104e-17
8502.46 4.34679e-17
8504.45 4.3663e-17
8506.44 4.10983e-17
8508.43 4.03014e-17
8510.42 2.41415e-17
8512.4 2.01212e-17
8514.39 2.80822e-17
8516.38 2.66159e-17
8518.37 3.13519e-17
8520.35 2.89741e-17
8522.34 3.07263e-17
8524.33 3.78502e-17
8526.32 3.29404e-17
8528.31 2.74291e-17
8530.29 3.27754e-17
8532.28 3.57441e-17
8534.27 4.09702e-17
8536.26 2.96915e-17
8538.25 2.99699e-17
8540.23 3.25715e-17
8542.22 2.4925e-17
8544.21 2.52343e-17
8546.2 2.87676e-17
8548.18 2.97756e-17
8550.17 1.32986e-17
8552.16 2.08804e-17
8554.15 3.21094e-17
8556.14 3.01755e-17
8558.12 3.21741e-17
8560.11 3.46249e-17
8562.1 3.31066e-17
8564.09 2.30442e-17
8566.08 1.70285e-17
8568.06 1.96941e-17
8570.05 3.38694e-17
8572.04 3.98345e-17
8574.03 2.92093e-17
8576.01 2.79762e-17
8578.0 3.3651e-17
8579.99 3.82085e-17
8581.98 2.84575e-17
8583.97 1.32637e-17
8585.95 1.4805e-17
8587.94 2.57919e-17
8589.93 2.27699e-17
8591.92 3.32564e-17
8593.91 4.41001e-17
8595.89 3.42139e-17
8597.88 2.55763e-17
8599.87 2.62612e-17
8601.86 2.59447e-17
8603.84 2.51678e-17
8605.83 2.64269e-17
8607.82 3.2715e-17
8609.81 3.06491e-17
8611.8 3.00127e-17
8613.78 1.6627e-17
8615.77 2.10394e-17
8617.76 4.58665e-17
8619.75 3.92027e-17
8621.74 3.13402e-17
8623.72 2.76487e-17
8625.71 2.34202e-17
8627.7 2.14034e-17
8629.69 1.28945e-17
8631.67 2.47936e-17
8633.66 4.1266e-17
8635.65 3.99176e-17
8637.64 3.40004e-17
8639.63 4.08134e-17
8641.61 2.00813e-17
8643.6 3.7553e-17
8645.59 3.72724e-17
8647.58 2.01256e-17
8649.57 2.52184e-17
8651.55 1.69396e-17
8653.54 2.58594e-17
8655.53 2.30252e-17
8657.52 2.94906e-17
8659.5 3.09713e-17
8661.49 3.04276e-17
8663.48 5.06469e-17
8665.47 4.59931e-17
8667.46 2.20552e-17
8669.44 2.72399e-17
8671.43 2.23014e-17
8673.42 7.81014e-18
8675.41 2.49864e-17
8677.39 2.86238e-17
8679.38 3.00271e-17
8681.37 2.24923e-17
8683.36 3.3417e-17
8685.35 3.74691e-17
8687.33 2.46071e-17
8689.32 4.18081e-17
8691.31 3.55614e-17
8693.3 2.79254e-17
8695.29 2.49128e-17
8697.27 1.79589e-17
8699.26 2.54152e-17
8701.25 4.02576e-17
8703.24 4.83519e-17
8705.22 3.71189e-17
8707.21 2.8492e-17
8709.2 2.999e-17
8711.19 2.87326e-17
8713.18 1.40944e-17
8715.16 1.69462e-17
8717.15 2.36073e-17
8719.14 2.4829e-17
8721.13 3.23139e-17
8723.12 3.78176e-17
8725.1 2.11364e-17
8727.09 2.59867e-17
8729.08 3.58268e-17
8731.07 3.30283e-17
8733.05 3.92928e-17
8735.04 2.85401e-17
8737.03 2.89471e-17
8739.02 1.86307e-17
8741.01 2.47897e-17
8742.99 2.35708e-17
8744.98 2.81244e-17
8746.97 1.27599e-17
8748.96 1.4425e-17
8750.95 2.55713e-17
8752.93 3.05371e-17
8754.92 3.14106e-17
8756.91 4.95924e-17
8758.9 5.95137e-17
8760.88 5.63149e-17
8762.87 1.12709e-17
8764.86 1.90281e-17
8766.85 1.88429e-17
8768.84 3.24635e-17
8770.82 3.77435e-17
8772.81 4.6528e-17
8774.8 5.58852e-18
8776.79 1.00744e-17
8778.78 -4.45593e-18
8780.76 6.99417e-18
8782.75 1.32665e-17
8784.74 -2.47685e-18
8786.73 1.15243e-17
8788.71 2.46287e-17
8790.7 3.62371e-17
8792.69 2.58563e-17
8794.68 3.34421e-17
8796.67 3.09281e-17
8798.65 1.62302e-17
8800.64 2.27135e-17
8802.63 2.05756e-17
8804.62 3.33244e-17
8806.61 3.08027e-17
8808.59 2.77258e-17
8810.58 2.83036e-17
8812.57 1.87506e-17
8814.56 2.95621e-17
8816.54 2.18431e-17
8818.53 1.27376e-17
8820.52 1.67626e-17
8822.51 3.55173e-17
8824.5 -5.38385e-18
8826.48 2.83268e-17
8828.47 -1.42952e-17
8830.46 1.69703e-18
8832.45 -2.57578e-17
8834.43 7.41472e-18
8836.42 3.5126e-17
8838.41 3.94129e-17
8840.4 5.32703e-17
8842.39 1.40473e-17
8844.37 1.7172e-17
8846.36 3.35077e-17
8848.35 2.44813e-17
8850.34 2.47737e-17
8852.33 6.86569e-18
8854.31 1.61493e-17
8856.3 3.0097e-17
8858.29 2.96602e-17
8860.28 2.52589e-17
8862.26 3.38033e-17
8864.25 3.08028e-17
8866.24 2.68142e-17
8868.23 1.45322e-17
8870.22 2.35069e-17
8872.2 2.83225e-17
8874.19 1.68837e-17
8876.18 1.65542e-17
8878.17 3.5775e-17
8880.16 2.1454e-17
8882.14 1.69842e-17
8884.13 3.91683e-17
8886.12 6.2758e-17
8888.11 3.45228e-17
8890.09 1.88744e-17
8892.08 9.31192e-18
8894.07 1.49592e-17
8896.06 2.58571e-17
8898.05 1.52e-17
8900.03 1.81146e-17
8902.02 1.32001e-17
8904.01 6.08134e-18
8906.0 2.15875e-17
8907.99 2.27643e-17
8909.97 1.59757e-17
8911.96 2.45233e-17
8913.95 3.02649e-17
8915.94 3.6568e-18
8917.92 -7.72217e-18
8919.91 1.95226e-17
8921.9 2.3637e-17
8923.89 4.85666e-17
8925.88 4.98059e-17
8927.86 2.53438e-17
8929.85 2.73205e-17
8931.84 3.40781e-17
8933.83 3.02272e-17
8935.82 2.18291e-17
8937.8 2.09156e-17
8939.79 1.09139e-17
8941.78 1.73584e-17
8943.77 2.79255e-17
8945.75 2.11228e-17
8947.74 2.60069e-17
8949.73 2.24136e-17
8951.72 1.57091e-17
8953.71 1.21728e-17
8955.69 3.17083e-17
8957.68 4.92232e-17
8959.67 4.08447e-17
8961.66 4.43234e-17
8963.65 2.19621e-17
8965.63 6.03112e-19
8967.62 1.50282e-17
8969.61 2.68051e-17
8971.6 2.56081e-17
8973.58 1.79934e-17
8975.57 1.62201e-17
8977.56 2.44589e-17
8979.55 3.29198e-17
8981.54 3.49372e-17
8983.52 2.30526e-17
8985.51 1.24538e-17
8987.5 2.67364e-17
8989.49 4.88054e-17
8991.47 4.94535e-17
8993.46 2.92134e-17
8995.45 7.52005e-18
8997.44 1.86904e-17
8999.43 2.09932e-17
9001.41 1.23153e-18
9003.4 9.14665e-19
9005.39 -3.21171e-19
9007.38 -2.28604e-18
9009.37 1.15487e-17
9011.35 2.64502e-17
9013.34 1.54816e-17
9015.33 2.25784e-17
9017.32 1.69679e-17
9019.3 1.56983e-17
9021.29 2.64464e-17
9023.28 2.47686e-17
9025.27 3.08365e-17
9027.26 2.58152e-17
9029.24 2.34823e-17
9031.23 3.23718e-17
9033.22 3.22368e-17
9035.21 2.45086e-17
9037.2 3.111e-17
9039.18 4.14985e-17
9041.17 2.02454e-17
9043.16 2.05377e-17
9045.15 2.07686e-17
9047.13 5.83668e-18
9049.12 1.10253e-17
9051.11 2.11947e-17
9053.1 1.40056e-17
9055.09 1.184e-17
9057.07 1.00369e-17
9059.06 1.02844e-17
9061.05 9.84838e-18
9063.04 1.17116e-17
9065.03 2.56747e-17
9067.01 2.06012e-17
9069.0 1.76824e-17
9070.99 2.28787e-17
9072.98 3.79869e-17
9074.96 3.38917e-17
9076.95 3.04488e-17
9078.94 1.77168e-17
9080.93 1.83779e-17
9082.92 1.84741e-17
9084.9 1.25873e-17
9086.89 1.41436e-17
9088.88 2.06624e-17
9090.87 1.52343e-17
9092.86 1.56988e-17
9094.84 1.73746e-17
9096.83 1.29528e-17
9098.82 1.60268e-17
9100.81 2.99002e-17
9102.79 1.65478e-17
9104.78 7.73052e-18
9106.77 1.71756e-17
9108.76 3.30899e-18
9110.75 1.665e-17
9112.73 2.318e-17
9114.72 1.66135e-17
9116.71 2.50957e-17
9118.7 2.40081e-17
9120.69 1.6895e-17
9122.67 1.86534e-17
9124.66 1.73271e-17
9126.65 1.88971e-17
9128.64 2.06265e-17
9130.62 2.03393e-17
9132.61 6.88666e-18
9134.6 1.02017e-17
9136.59 2.1079e-17
9138.58 2.12756e-17
9140.56 2.40027e-17
9142.55 2.25716e-17
9144.54 1.30091e-17
9146.53 1.11781e-17
9148.52 1.72051e-17
9150.5 1.37878e-17
9152.49 1.45191e-17
9154.48 9.44075e-18
9156.47 1.78397e-17
9158.45 1.80478e-17
9160.44 1.82986e-17
9162.43 1.71987e-17
9164.42 2.3108e-17
9166.41 2.73365e-17
9168.39 2.50544e-17
9170.38 1.18391e-17
9172.37 2.06451e-17
9174.36 9.49976e-18
9176.34 4.98641e-18
9178.33 1.44079e-17
9180.32 1.88154e-17
9182.31 6.88427e-18
9184.3 1.86269e-17
9186.28 2.14133e-17
9188.27 1.831e-17
9190.26 1.57682e-17
9192.25 1.57868e-17
9194.24 9.45796e-18
9196.22 1.731e-17
9198.21 1.48439e-17
9200.2 4.2398e-18
9202.19 1.04381e-17
9204.17 1.64789e-17
9206.16 1.65326e-17
9208.15 1.95504e-17
9210.14 1.66494e-17
9212.13 1.00392e-17
9214.11 1.57151e-17
9216.1 1.90848e-17
9218.09 1.21506e-17
9220.08 9.80413e-18
9222.07 7.75613e-18
9224.05 8.50679e-18
9226.04 9.04185e-18
9228.03 1.26807e-17
9230.02 2.01429e-17
9232.0 2.26914e-17
9233.99 9.60082e-18
9235.98 1.07746e-17
9237.97 2.2983e-17
9239.96 2.5069e-17
9241.94 2.41895e-17
9243.93 2.49461e-17
9245.92 1.82616e-17
9247.91 1.05795e-17
9249.9 9.41118e-18
9251.88 1.09963e-17
9253.87 8.77417e-18
9255.86 4.38985e-18
9257.85 1.51995e-17
9259.83 2.11634e-17
9261.82 2.64379e-17
9263.81 2.69291e-17
9265.8 1.78064e-17
9267.79 1.52623e-17
9269.77 1.78178e-17
9271.76 1.70091e-17
9273.75 1.81086e-17
9275.74 1.96211e-17
9277.73 1.76958e-17
9279.71 1.55923e-17
9281.7 1.26987e-17
9283.69 1.22035e-17
9285.68 1.43316e-17
9287.67 1.80839e-17
9289.65 2.23402e-17
9291.64 1.60916e-17
9293.63 2.23349e-17
9295.62 2.90357e-17
9297.6 1.93349e-17
9299.59 1.78702e-17
9301.58 1.36185e-17
9303.57 8.92983e-18
9305.56 3.16282e-17
9307.54 1.6983e-17
9309.53 1.93253e-17
9311.52 4.88266e-17
9313.51 2.35273e-17
9315.49 1.73413e-17
9317.48 3.68279e-17
9319.47 3.17287e-17
9321.46 2.45376e-17
9323.45 -2.6382e-19
9325.43 4.91688e-18
9327.42 -2.06001e-17
9329.41 -2.93803e-17
9331.4 1.13727e-18
9333.38 1.26954e-17
9335.37 1.80643e-17
9337.36 3.66456e-17
9339.35 1.83323e-17
9341.34 2.55432e-17
9343.32 2.95541e-17
9345.31 1.61063e-17
9347.3 1.99719e-17
9349.29 2.2114e-17
9351.28 1.87325e-17
9353.26 1.21657e-17
9355.25 7.68089e-20
9357.24 9.33915e-18
9359.23 1.22779e-17
9361.21 1.35634e-17
9363.2 1.83652e-17
9365.19 8.88772e-18
9367.18 3.58507e-18
9369.17 -3.27834e-18
9371.15 1.29365e-18
9373.14 -4.572e-17
9375.13 -6.21401e-17
9377.12 5.18994e-18
9379.11 1.26325e-17
9381.09 8.29714e-18
9383.08 -1.40294e-19
9385.07 2.13729e-17
9387.06 2.41118e-17
9389.04 1.57497e-17
9391.03 1.38527e-17
9393.02 6.81531e-18
9395.01 1.59722e-18
9397.0 6.86708e-18
9398.98 -4.11375e-18
9400.97 7.05296e-18
9402.96 1.45956e-17
9404.95 2.08699e-17
9406.94 1.75114e-17
9408.92 1.70283e-17
9410.91 2.23099e-17
9412.9 2.20465e-17
9414.89 1.1824e-17
9416.88 3.2701e-18
9418.86 3.06731e-19
9420.85 3.44545e-18
9422.84 2.02475e-17
9424.83 1.38922e-17
9426.81 1.21594e-17
9428.8 8.83309e-18
9430.79 1.24318e-17
9432.78 1.42439e-17
9434.77 2.11972e-17
9436.75 2.29827e-17
9438.74 -4.63774e-18
9440.73 -1.55774e-17
9442.72 -9.655e-18
9444.71 -2.63885e-17
9446.69 -8.67374e-18
9448.68 8.33026e-18
9450.67 1.49504e-18
9452.66 9.56262e-18
9454.64 -3.68761e-18
9456.63 -3.09648e-18
9458.62 3.75907e-18
9460.61 1.13203e-17
9462.6 2.67696e-17
9464.58 2.41139e-17
9466.57 1.6671e-17
9468.56 1.91146e-17
9470.55 1.45434e-17
9472.53 1.10652e-17
9474.52 2.69231e-17
9476.51 8.73908e-18
9478.5 -2.32287e-18
9480.49 3.03712e-17
9482.47 1.08431e-18
9484.46 -1.52296e-17
9486.45 1.90243e-17
9488.44 2.2932e-17
9490.42 1.35058e-17
9492.41 8.27092e-18
9494.4 3.28914e-18
9496.39 3.12093e-18
9498.38 1.7972e-17
9500.36 1.90286e-17
9502.35 -4.74579e-18
9504.34 -3.34709e-18
9506.33 1.64283e-17
9508.32 1.07387e-17
9510.3 4.47468e-19
9512.29 -9.13003e-19
9514.28 -9.41819e-19
9516.27 -4.55413e-18
9518.25 -4.1944e-18
9520.24 1.96551e-18
9522.23 2.17236e-17
9524.22 1.03341e-17
9526.21 9.08969e-18
9528.19 2.92205e-17
9530.18 1.38666e-17
9532.17 6.9998e-18
9534.16 9.39285e-18
9536.15 1.1766e-17
9538.13 3.30818e-18
9540.12 4.01109e-18
9542.11 2.36057e-17
9544.1 1.52285e-17
9546.08 1.69584e-17
9548.07 2.19791e-17
9550.06 2.63156e-17
9552.05 1.69736e-17
9554.04 1.77287e-17
9556.02 1.22806e-17
9558.01 1.86003e-18
9560.0 -7.22761e-18
9561.99 6.5791e-18
9563.98 1.07773e-17
9565.96 -2.56641e-18
9567.95 1.28758e-17
9569.94 4.30726e-17
9571.93 2.28151e-17
9573.92 3.70748e-18
9575.9 1.59583e-17
9577.89 1.29228e-17
9579.88 1.53379e-17
9581.87 1.17376e-17
9583.85 9.57392e-18
9585.84 1.15574e-17
9587.83 1.24589e-17
9589.82 8.68575e-18
9591.81 2.32967e-18
9593.79 4.74601e-18
9595.78 1.6986e-17
9597.77 1.31527e-17
9599.76 1.56201e-17
9601.75 1.20944e-17
9603.73 1.25518e-17
9605.72 2.40116e-17
9607.71 1.07501e-17
9609.7 1.79739e-17
9611.68 6.33895e-18
9613.67 1.28438e-18
9615.66 -3.98043e-18
9617.65 7.04853e-18
9619.64 7.73523e-19
9621.62 -2.76361e-18
9623.61 2.50972e-17
9625.6 1.46502e-17
9627.59 1.83613e-17
9629.57 2.93712e-17
9631.56 2.11958e-17
9633.55 2.20332e-17
9635.54 4.02795e-19
9637.53 3.93654e-18
9639.51 4.4809e-18
9641.5 7.18873e-18
9643.49 9.08246e-18
9645.48 1.55114e-17
9647.47 1.81057e-17
9649.45 1.45052e-17
9651.44 1.48992e-17
9653.43 1.05968e-17
9655.42 1.5026e-17
9657.4 1.33564e-17
9659.39 1.4474e-17
9661.38 3.33001e-18
9663.37 -3.90732e-18
9665.36 3.29063e-18
9667.34 1.70685e-17
9669.33 2.06751e-17
9671.32 2.60528e-17
9673.31 1.52566e-17
9675.29 1.68542e-17
9677.28 2.87267e-17
9679.27 2.91765e-17
9681.26 1.80101e-18
9683.25 8.71619e-18
9685.23 2.47303e-17
9687.22 1.19149e-17
9689.21 1.56355e-17
9691.2 8.29237e-18
9693.19 5.62909e-18
9695.17 1.26419e-17
9697.16 2.06704e-17
9699.15 5.85519e-18
9701.14 9.60156e-19
9703.12 2.3241e-17
9705.11 1.58555e-17
9707.1 1.24316e-17
9709.09 1.10978e-17
9711.08 3.77225e-18
9713.06 9.9863e-18
9715.05 1.62682e-17
9717.04 2.63428e-17
9719.03 2.48121e-17
9721.02 1.88105e-17
9723.0 2.01582e-17
9724.99 8.64263e-18
9726.98 5.03228e-18
9728.97 1.2465e-17
9730.96 1.61007e-17
9732.94 1.89255e-17
9734.93 1.72934e-17
9736.92 2.05779e-17
9738.91 2.21568e-17
9740.89 1.47854e-17
9742.88 1.34684e-17
9744.87 2.0397e-17
9746.86 2.62314e-17
9748.85 2.05955e-17
9750.83 1.23333e-17
9752.82 1.5554e-17
9754.81 9.5954e-18
9756.8 1.2819e-17
9758.79 8.91921e-18
9760.77 4.00626e-18
9762.76 9.731e-18
9764.75 1.11901e-17
9766.74 4.83419e-18
9768.72 1.31796e-17
9770.71 1.46955e-17
9772.7 9.99273e-18
9774.69 9.36661e-18
9776.68 1.04173e-17
9778.66 1.91943e-17
9780.65 1.4281e-17
9782.64 1.06307e-17
9784.63 1.98276e-17
9786.62 2.21859e-17
9788.6 3.38178e-17
9790.59 3.19925e-17
9792.58 6.11912e-17
9794.57 7.1729e-17
9796.55 1.48489e-17
9798.54 8.93539e-19
9800.53 2.93716e-17
9802.52 4.16592e-17
9804.51 1.26817e-17
9806.49 1.46201e-18
9808.48 -6.87589e-19
9810.47 1.70191e-17
9812.46 1.11179e-18
9814.44 -3.73935e-18
9816.43 8.48716e-18
9818.42 9.74317e-18
9820.41 1.59626e-17
9822.4 1.20134e-17
9824.38 5.0689e-18
9826.37 1.91115e-17
9828.36 1.19815e-17
9830.35 1.2139e-17
9832.33 1.34055e-17
9834.32 2.09191e-17
9836.31 1.72619e-17
9838.3 1.46224e-17
9840.29 1.96287e-17
9842.27 6.12166e-18
9844.26 1.43449e-17
9846.25 2.08382e-17
9848.24 9.31612e-18
9850.23 1.52836e-17
9852.21 3.98158e-17
9854.2 8.13765e-18
9856.19 5.77413e-18
9858.18 2.70282e-18
9860.17 1.16856e-17
9862.15 1.51499e-17
9864.14 1.83428e-17
9866.13 1.38879e-17
9868.12 2.83479e-17
9870.1 4.00672e-17
9872.09 3.79678e-18
9874.08 1.2005e-17
9876.07 2.53888e-17
9878.06 -1.85756e-18
9880.04 2.54296e-18
9882.03 1.83869e-17
9884.02 1.11733e-17
9886.01 9.22459e-18
9888.0 5.57692e-18
9889.98 3.83567e-18
9891.97 9.67759e-18
9893.96 2.26068e-17
9895.95 2.48986e-17
9897.93 1.84235e-17
9899.92 1.75819e-18
9901.91 -3.82139e-18
9903.9 6.00902e-18
9905.89 3.31987e-18
9907.87 -4.81634e-18
9909.86 -7.91913e-18
9911.85 -1.28229e-17
9913.84 -1.70019e-17
9915.83 -9.29582e-18
9917.81 -5.39909e-18
9919.8 2.42428e-18
9921.79 -9.85267e-18
9923.78 2.69314e-18
9925.76 8.1721e-19
9927.75 -7.57326e-18
9929.74 9.91386e-18
9931.73 5.34386e-18
9933.72 7.00438e-18
9935.7 6.95701e-18
9937.69 1.05495e-17
9939.68 1.98332e-17
9941.67 9.10625e-18
9943.66 1.81445e-17
9945.64 5.7403e-18
9947.63 -6.89067e-18
9949.62 -2.68345e-17
9951.61 -2.92773e-17
9953.59 -9.60155e-18
9955.58 8.56739e-18
9957.57 7.2569e-18
9959.56 3.97572e-17
9961.55 1.9105e-17
9963.53 2.71668e-17
9965.52 2.80284e-17
9967.51 1.60192e-17
9969.5 3.72361e-17
9971.48 2.40206e-17
9973.47 1.26654e-17
9975.46 1.01566e-17
9977.45 -5.29218e-18
9979.44 8.23334e-18
9981.42 -3.02749e-18
9983.41 -2.63322e-18
9985.4 7.1379e-18
9987.39 7.72757e-18
9989.38 -1.18982e-17
9991.36 -6.95942e-18
9993.35 -2.06419e-17
9995.34 -1.57341e-17
9997.33 5.84398e-18
9999.31 2.19698e-17
10001.3 2.29209e-17
10003.3 1.32039e-17
10005.3 5.10577e-19
10007.3 -3.38439e-18
10009.3 5.00614e-18
10011.2 8.95877e-18
10013.2 -1.19458e-17
10015.2 -2.17735e-17
10017.2 -2.66363e-17
10019.2 -3.21364e-17
10021.2 -1.84279e-17
10023.2 1.47865e-17
10025.2 3.91188e-18
10027.1 -7.45976e-18
10029.1 1.69357e-17
10031.1 5.946e-18
10033.1 -8.23732e-18
10035.1 2.54896e-18
10037.1 2.53851e-17
10039.1 9.76189e-18
10041.1 -7.5536e-20
10043.0 3.41538e-18
10045.0 6.19074e-18
10047.0 3.07363e-18
10049.0 -2.08912e-18
10051.0 7.97932e-18
10053.0 3.47105e-18
10055.0 -2.05438e-18
10057.0 6.75081e-18
10059.0 4.25896e-18
10060.9 7.92291e-18
10062.9 9.48098e-18
10064.9 -5.1569e-19
10066.9 -8.01377e-20
10068.9 5.73011e-18
10070.9 1.27875e-17
10072.9 1.175e-17
10074.9 7.55079e-18
10076.8 4.75155e-18
10078.8 5.64325e-18
10080.8 2.42099e-17
10082.8 8.24934e-18
10084.8 -1.82037e-17
10086.8 -2.9641e-18
10088.8 1.29938e-18
10090.8 -1.36738e-18
10092.7 -2.97521e-18
10094.7 -9.67823e-19
10096.7 7.38374e-18
10098.7 8.68003e-18
