"Time (MJD)" B-4332.7 B-4332.7_err B-4369.53 B-4369.53_err I-8568.89 I-8568.89_err R-6695.83 R-6695.83_err V-5351.82 V-5351.82_err V-5467.57 V-5467.57_err "Temp./1e3 (K)" "Temp. Err." "Radius/1e15 (cm)" "Radius Err." "Log10(Bol. Lum)" "Log10(Bol. Err)"
-23.000 -21.198 -0.115 -21.195 -0.112 -21.012 -0.094 -20.985 -0.094 -20.717 -0.051 -20.331 -0.165 19.759 0.394 1.645 0.031 44.468 43.096
-22.600 -21.198 -0.114 -21.195 -0.111 -21.013 -0.094 -20.987 -0.094 -20.721 -0.050 -20.334 -0.165 19.629 0.393 1.657 0.031 44.463 43.092
-22.200 -21.197 -0.113 -21.195 -0.110 -21.015 -0.094 -20.989 -0.093 -20.724 -0.049 -20.337 -0.164 19.497 0.394 1.669 0.032 44.458 43.089
-21.800 -21.197 -0.113 -21.194 -0.110 -21.016 -0.093 -20.990 -0.093 -20.728 -0.049 -20.340 -0.163 19.366 0.396 1.681 0.033 44.452 43.087
-21.400 -21.196 -0.112 -21.194 -0.109 -21.018 -0.093 -20.992 -0.093 -20.731 -0.049 -20.343 -0.162 19.234 0.399 1.694 0.034 44.447 43.087
-21.000 -21.196 -0.112 -21.193 -0.109 -21.019 -0.093 -20.993 -0.093 -20.735 -0.048 -20.345 -0.162 19.102 0.403 1.707 0.035 44.441 43.087
-20.600 -21.195 -0.112 -21.192 -0.109 -21.020 -0.094 -20.995 -0.093 -20.738 -0.048 -20.348 -0.161 18.971 0.408 1.720 0.036 44.436 43.089
-20.200 -21.194 -0.112 -21.192 -0.109 -21.022 -0.094 -20.997 -0.093 -20.742 -0.049 -20.351 -0.161 18.841 0.415 1.733 0.037 44.431 43.092
-19.800 -21.193 -0.112 -21.191 -0.109 -21.023 -0.094 -20.998 -0.094 -20.745 -0.049 -20.354 -0.160 18.711 0.422 1.746 0.038 44.425 43.096
-19.400 -21.192 -0.112 -21.190 -0.109 -21.024 -0.094 -21.000 -0.094 -20.749 -0.049 -20.356 -0.160 18.583 0.431 1.759 0.040 44.420 43.100
-19.000 -21.191 -0.112 -21.189 -0.109 -21.025 -0.095 -21.001 -0.094 -20.752 -0.050 -20.359 -0.160 18.456 0.440 1.773 0.042 44.415 43.105
-18.600 -21.190 -0.112 -21.188 -0.110 -21.027 -0.095 -21.003 -0.095 -20.756 -0.050 -20.362 -0.159 18.330 0.450 1.786 0.043 44.409 43.111
-18.200 -21.189 -0.113 -21.187 -0.110 -21.028 -0.096 -21.004 -0.095 -20.759 -0.051 -20.365 -0.159 18.206 0.460 1.800 0.045 44.404 43.116
-17.800 -21.188 -0.113 -21.186 -0.110 -21.029 -0.097 -21.005 -0.096 -20.762 -0.052 -20.367 -0.159 18.083 0.471 1.813 0.047 44.399 43.122
-17.400 -21.186 -0.114 -21.184 -0.111 -21.030 -0.098 -21.007 -0.097 -20.766 -0.053 -20.370 -0.159 17.962 0.482 1.827 0.049 44.394 43.128
-17.000 -21.185 -0.114 -21.183 -0.112 -21.031 -0.098 -21.008 -0.098 -20.769 -0.054 -20.372 -0.159 17.843 0.494 1.840 0.051 44.388 43.134
-16.600 -21.183 -0.115 -21.182 -0.112 -21.032 -0.099 -21.009 -0.098 -20.773 -0.054 -20.375 -0.159 17.725 0.505 1.854 0.053 44.383 43.140
-16.200 -21.182 -0.116 -21.180 -0.113 -21.033 -0.100 -21.011 -0.099 -20.776 -0.055 -20.377 -0.159 17.609 0.517 1.868 0.056 44.378 43.146
-15.800 -21.180 -0.117 -21.179 -0.114 -21.034 -0.101 -21.012 -0.100 -20.779 -0.056 -20.380 -0.159 17.494 0.529 1.881 0.058 44.373 43.152
-15.400 -21.179 -0.117 -21.177 -0.115 -21.035 -0.102 -21.013 -0.101 -20.783 -0.057 -20.382 -0.160 17.381 0.541 1.895 0.060 44.368 43.158
-15.000 -21.177 -0.118 -21.176 -0.116 -21.036 -0.103 -21.014 -0.102 -20.786 -0.058 -20.385 -0.160 17.270 0.553 1.909 0.063 44.363 43.164
-14.600 -21.175 -0.119 -21.174 -0.117 -21.037 -0.104 -21.015 -0.103 -20.789 -0.059 -20.387 -0.160 17.160 0.565 1.922 0.065 44.358 43.169
-14.200 -21.173 -0.120 -21.172 -0.118 -21.037 -0.105 -21.016 -0.104 -20.792 -0.060 -20.390 -0.160 17.052 0.577 1.936 0.068 44.354 43.174
-13.800 -21.171 -0.121 -21.170 -0.119 -21.038 -0.106 -21.017 -0.105 -20.796 -0.061 -20.392 -0.161 16.945 0.588 1.950 0.071 44.349 43.178
-13.400 -21.169 -0.122 -21.169 -0.120 -21.039 -0.107 -21.018 -0.106 -20.799 -0.062 -20.394 -0.161 16.839 0.600 1.963 0.073 44.344 43.183
-13.000 -21.167 -0.123 -21.167 -0.121 -21.040 -0.108 -21.019 -0.107 -20.802 -0.063 -20.397 -0.161 16.735 0.611 1.977 0.076 44.339 43.187
-12.600 -21.165 -0.125 -21.165 -0.122 -21.040 -0.109 -21.020 -0.108 -20.805 -0.064 -20.399 -0.162 16.633 0.621 1.991 0.079 44.335 43.191
-12.200 -21.163 -0.126 -21.162 -0.124 -21.041 -0.110 -21.021 -0.109 -20.808 -0.065 -20.401 -0.162 16.531 0.632 2.005 0.081 44.330 43.194
-11.800 -21.161 -0.127 -21.160 -0.125 -21.041 -0.111 -21.022 -0.110 -20.811 -0.066 -20.403 -0.163 16.431 0.642 2.018 0.084 44.325 43.197
-11.400 -21.159 -0.128 -21.158 -0.126 -21.042 -0.113 -21.022 -0.111 -20.814 -0.066 -20.405 -0.163 16.333 0.652 2.032 0.087 44.321 43.200
-11.000 -21.156 -0.129 -21.156 -0.127 -21.042 -0.114 -21.023 -0.112 -20.817 -0.067 -20.407 -0.164 16.235 0.661 2.046 0.089 44.316 43.203
-10.600 -21.154 -0.130 -21.154 -0.128 -21.042 -0.115 -21.024 -0.113 -20.819 -0.068 -20.410 -0.164 16.139 0.671 2.060 0.092 44.312 43.205
-10.200 -21.151 -0.132 -21.151 -0.130 -21.043 -0.116 -21.024 -0.114 -20.822 -0.069 -20.412 -0.165 16.043 0.679 2.073 0.095 44.307 43.207
-9.800 -21.149 -0.133 -21.149 -0.131 -21.043 -0.117 -21.025 -0.115 -20.825 -0.069 -20.414 -0.165 15.949 0.688 2.087 0.098 44.303 43.209
-9.400 -21.146 -0.134 -21.146 -0.132 -21.043 -0.118 -21.025 -0.116 -20.827 -0.070 -20.416 -0.166 15.856 0.695 2.101 0.100 44.298 43.210
-9.000 -21.144 -0.135 -21.144 -0.133 -21.043 -0.119 -21.026 -0.117 -20.830 -0.070 -20.418 -0.166 15.764 0.703 2.115 0.103 44.294 43.211
-8.600 -21.141 -0.136 -21.141 -0.135 -21.043 -0.120 -21.026 -0.118 -20.832 -0.071 -20.419 -0.167 15.674 0.710 2.129 0.106 44.290 43.212
-8.200 -21.138 -0.138 -21.138 -0.136 -21.043 -0.121 -21.026 -0.119 -20.835 -0.071 -20.421 -0.167 15.584 0.716 2.142 0.108 44.285 43.212
-7.800 -21.135 -0.139 -21.136 -0.137 -21.043 -0.122 -21.026 -0.120 -20.837 -0.072 -20.423 -0.168 15.495 0.723 2.156 0.111 44.281 43.213
-7.400 -21.133 -0.140 -21.133 -0.138 -21.043 -0.123 -21.027 -0.121 -20.839 -0.072 -20.425 -0.169 15.408 0.728 2.170 0.114 44.277 43.213
-7.000 -21.130 -0.141 -21.130 -0.139 -21.043 -0.124 -21.027 -0.122 -20.842 -0.073 -20.427 -0.169 15.321 0.734 2.184 0.116 44.272 43.212
-6.600 -21.127 -0.142 -21.127 -0.141 -21.043 -0.125 -21.027 -0.123 -20.844 -0.073 -20.429 -0.170 15.235 0.738 2.198 0.119 44.268 43.212
-6.200 -21.124 -0.143 -21.124 -0.142 -21.042 -0.126 -21.027 -0.124 -20.846 -0.073 -20.430 -0.170 15.151 0.743 2.211 0.121 44.264 43.211
-5.800 -21.121 -0.145 -21.121 -0.143 -21.042 -0.127 -21.027 -0.125 -20.848 -0.074 -20.432 -0.171 15.067 0.747 2.225 0.124 44.260 43.210
-5.400 -21.117 -0.146 -21.118 -0.144 -21.042 -0.128 -21.027 -0.126 -20.850 -0.074 -20.434 -0.171 14.985 0.750 2.239 0.126 44.256 43.208
-5.000 -21.114 -0.147 -21.115 -0.145 -21.041 -0.129 -21.026 -0.127 -20.851 -0.074 -20.435 -0.172 14.903 0.753 2.253 0.129 44.251 43.207
-4.600 -21.111 -0.148 -21.112 -0.146 -21.041 -0.130 -21.026 -0.128 -20.853 -0.074 -20.437 -0.172 14.823 0.755 2.267 0.131 44.247 43.205
-4.200 -21.108 -0.149 -21.109 -0.147 -21.040 -0.131 -21.026 -0.128 -20.855 -0.074 -20.438 -0.173 14.743 0.758 2.280 0.133 44.243 43.203
-3.800 -21.104 -0.150 -21.105 -0.148 -21.039 -0.132 -21.025 -0.129 -20.856 -0.074 -20.440 -0.173 14.665 0.759 2.294 0.136 44.239 43.200
-3.400 -21.101 -0.151 -21.102 -0.149 -21.039 -0.133 -21.025 -0.130 -20.857 -0.074 -20.441 -0.174 14.587 0.760 2.308 0.138 44.235 43.198
-3.000 -21.097 -0.152 -21.099 -0.150 -21.038 -0.133 -21.024 -0.131 -20.859 -0.074 -20.443 -0.174 14.511 0.761 2.321 0.140 44.231 43.195
-2.600 -21.094 -0.153 -21.095 -0.151 -21.037 -0.134 -21.024 -0.131 -20.860 -0.074 -20.444 -0.175 14.435 0.761 2.335 0.142 44.227 43.192
-2.200 -21.090 -0.154 -21.092 -0.152 -21.036 -0.135 -21.023 -0.132 -20.861 -0.074 -20.445 -0.175 14.361 0.761 2.348 0.144 44.223 43.188
-1.800 -21.086 -0.155 -21.088 -0.153 -21.035 -0.136 -21.022 -0.133 -20.862 -0.074 -20.447 -0.176 14.288 0.760 2.361 0.146 44.219 43.185
-1.400 -21.083 -0.155 -21.084 -0.154 -21.034 -0.136 -21.021 -0.133 -20.863 -0.074 -20.448 -0.176 14.215 0.759 2.375 0.147 44.215 43.181
-1.000 -21.079 -0.156 -21.081 -0.155 -21.033 -0.137 -21.020 -0.134 -20.863 -0.074 -20.449 -0.176 14.144 0.758 2.388 0.149 44.211 43.177
-0.600 -21.075 -0.157 -21.077 -0.156 -21.032 -0.138 -21.019 -0.135 -20.864 -0.074 -20.450 -0.177 14.075 0.756 2.401 0.151 44.207 43.172
-0.200 -21.071 -0.158 -21.073 -0.156 -21.030 -0.138 -21.018 -0.135 -20.865 -0.073 -20.451 -0.177 14.006 0.753 2.414 0.152 44.203 43.168
0.200 -21.067 -0.159 -21.069 -0.157 -21.029 -0.139 -21.017 -0.136 -20.865 -0.073 -20.453 -0.177 13.938 0.750 2.427 0.153 44.200 43.163
0.600 -21.063 -0.159 -21.065 -0.158 -21.028 -0.140 -21.016 -0.136 -20.865 -0.073 -20.454 -0.178 13.872 0.747 2.439 0.155 44.196 43.158
1.000 -21.059 -0.160 -21.061 -0.159 -21.026 -0.140 -21.015 -0.137 -20.865 -0.073 -20.455 -0.178 13.807 0.743 2.452 0.156 44.192 43.153
1.400 -21.055 -0.161 -21.057 -0.159 -21.024 -0.141 -21.013 -0.137 -20.865 -0.072 -20.456 -0.178 13.743 0.739 2.464 0.157 44.188 43.147
1.800 -21.051 -0.161 -21.053 -0.160 -21.023 -0.141 -21.012 -0.138 -20.865 -0.072 -20.457 -0.179 13.680 0.734 2.476 0.158 44.185 43.142
2.200 -21.047 -0.162 -21.049 -0.160 -21.021 -0.142 -21.011 -0.138 -20.865 -0.071 -20.458 -0.179 13.618 0.729 2.488 0.158 44.181 43.136
2.600 -21.043 -0.163 -21.045 -0.161 -21.019 -0.142 -21.009 -0.139 -20.864 -0.071 -20.458 -0.179 13.558 0.724 2.500 0.159 44.177 43.129
3.000 -21.038 -0.163 -21.041 -0.162 -21.018 -0.142 -21.007 -0.139 -20.864 -0.071 -20.459 -0.179 13.499 0.718 2.511 0.159 44.174 43.123
3.400 -21.034 -0.164 -21.037 -0.162 -21.016 -0.143 -21.006 -0.139 -20.863 -0.070 -20.460 -0.179 13.441 0.712 2.522 0.160 44.170 43.116
3.800 -21.030 -0.164 -21.032 -0.163 -21.014 -0.143 -21.004 -0.140 -20.862 -0.070 -20.461 -0.180 13.385 0.705 2.533 0.160 44.167 43.109
4.200 -21.025 -0.165 -21.028 -0.163 -21.012 -0.143 -21.002 -0.140 -20.862 -0.069 -20.462 -0.180 13.330 0.698 2.544 0.160 44.163 43.102
4.600 -21.021 -0.165 -21.024 -0.163 -21.010 -0.144 -21.000 -0.140 -20.860 -0.069 -20.462 -0.180 13.276 0.690 2.554 0.160 44.160 43.094
5.000 -21.016 -0.165 -21.019 -0.164 -21.007 -0.144 -20.998 -0.140 -20.859 -0.069 -20.463 -0.180 13.223 0.682 2.564 0.160 44.156 43.086
5.400 -21.012 -0.166 -21.015 -0.164 -21.005 -0.144 -20.996 -0.141 -20.858 -0.068 -20.463 -0.180 13.173 0.674 2.574 0.159 44.153 43.078
5.800 -21.007 -0.166 -21.010 -0.164 -21.003 -0.144 -20.994 -0.141 -20.856 -0.068 -20.464 -0.180 13.123 0.666 2.584 0.159 44.149 43.069
6.200 -21.002 -0.166 -21.006 -0.165 -21.001 -0.145 -20.992 -0.141 -20.854 -0.067 -20.465 -0.180 13.074 0.657 2.593 0.158 44.146 43.061
6.600 -20.998 -0.166 -21.001 -0.165 -20.998 -0.145 -20.990 -0.141 -20.853 -0.067 -20.465 -0.180 13.027 0.647 2.601 0.157 44.143 43.052
7.000 -20.993 -0.167 -20.996 -0.165 -20.996 -0.145 -20.987 -0.141 -20.851 -0.066 -20.466 -0.180 12.981 0.638 2.610 0.156 44.139 43.042
7.400 -20.988 -0.167 -20.991 -0.165 -20.993 -0.145 -20.985 -0.141 -20.849 -0.066 -20.466 -0.180 12.937 0.628 2.618 0.155 44.136 43.033
7.800 -20.983 -0.167 -20.987 -0.165 -20.990 -0.145 -20.982 -0.141 -20.846 -0.066 -20.466 -0.180 12.893 0.618 2.626 0.154 44.133 43.023
8.200 -20.978 -0.167 -20.982 -0.166 -20.988 -0.145 -20.980 -0.141 -20.844 -0.065 -20.467 -0.180 12.851 0.608 2.633 0.152 44.129 43.013
8.600 -20.973 -0.167 -20.977 -0.166 -20.985 -0.145 -20.977 -0.141 -20.842 -0.065 -20.467 -0.179 12.809 0.597 2.640 0.151 44.126 43.002
9.000 -20.968 -0.167 -20.972 -0.166 -20.982 -0.145 -20.974 -0.141 -20.839 -0.064 -20.467 -0.179 12.769 0.587 2.647 0.149 44.123 42.992
9.400 -20.963 -0.167 -20.967 -0.166 -20.979 -0.145 -20.972 -0.141 -20.836 -0.064 -20.468 -0.179 12.730 0.576 2.654 0.148 44.120 42.981
9.800 -20.958 -0.167 -20.962 -0.166 -20.976 -0.145 -20.969 -0.141 -20.833 -0.063 -20.468 -0.179 12.692 0.565 2.660 0.146 44.117 42.970
10.200 -20.953 -0.167 -20.957 -0.166 -20.973 -0.145 -20.966 -0.141 -20.830 -0.063 -20.468 -0.179 12.655 0.555 2.666 0.144 44.113 42.959
10.600 -20.948 -0.167 -20.952 -0.165 -20.970 -0.145 -20.963 -0.141 -20.827 -0.063 -20.468 -0.178 12.618 0.544 2.671 0.142 44.110 42.947
11.000 -20.942 -0.167 -20.947 -0.165 -20.967 -0.145 -20.960 -0.141 -20.824 -0.062 -20.468 -0.178 12.583 0.533 2.677 0.140 44.107 42.935
11.400 -20.937 -0.167 -20.941 -0.165 -20.964 -0.144 -20.957 -0.140 -20.821 -0.062 -20.468 -0.178 12.549 0.522 2.682 0.138 44.104 42.923
11.800 -20.932 -0.166 -20.936 -0.165 -20.960 -0.144 -20.954 -0.140 -20.817 -0.061 -20.468 -0.177 12.515 0.511 2.686 0.136 44.101 42.911
12.200 -20.926 -0.166 -20.931 -0.165 -20.957 -0.144 -20.950 -0.140 -20.814 -0.061 -20.468 -0.177 12.483 0.500 2.691 0.134 44.098 42.899
12.600 -20.921 -0.166 -20.925 -0.164 -20.954 -0.144 -20.947 -0.140 -20.810 -0.061 -20.468 -0.176 12.451 0.489 2.695 0.132 44.095 42.886
13.000 -20.915 -0.165 -20.920 -0.164 -20.950 -0.143 -20.944 -0.140 -20.806 -0.060 -20.468 -0.176 12.420 0.478 2.698 0.130 44.092 42.874
13.400 -20.910 -0.165 -20.915 -0.164 -20.947 -0.143 -20.940 -0.139 -20.803 -0.060 -20.468 -0.176 12.390 0.468 2.702 0.127 44.088 42.861
13.800 -20.904 -0.165 -20.909 -0.163 -20.943 -0.143 -20.937 -0.139 -20.799 -0.060 -20.468 -0.175 12.361 0.457 2.705 0.125 44.085 42.849
14.200 -20.899 -0.164 -20.904 -0.163 -20.940 -0.142 -20.933 -0.139 -20.795 -0.060 -20.468 -0.174 12.332 0.447 2.708 0.123 44.082 42.836
14.600 -20.893 -0.164 -20.898 -0.162 -20.936 -0.142 -20.930 -0.138 -20.790 -0.059 -20.468 -0.174 12.304 0.437 2.711 0.121 44.079 42.823
15.000 -20.887 -0.163 -20.892 -0.162 -20.932 -0.142 -20.926 -0.138 -20.786 -0.059 -20.467 -0.173 12.276 0.428 2.713 0.119 44.076 42.810
15.400 -20.882 -0.163 -20.887 -0.161 -20.928 -0.141 -20.922 -0.137 -20.782 -0.059 -20.467 -0.173 12.249 0.418 2.716 0.117 44.073 42.798
15.800 -20.876 -0.162 -20.881 -0.161 -20.925 -0.141 -20.919 -0.137 -20.778 -0.059 -20.467 -0.172 12.223 0.409 2.718 0.115 44.070 42.785
16.200 -20.870 -0.162 -20.875 -0.160 -20.921 -0.140 -20.915 -0.136 -20.773 -0.059 -20.467 -0.171 12.197 0.401 2.720 0.113 44.067 42.773
16.600 -20.864 -0.161 -20.870 -0.160 -20.917 -0.140 -20.911 -0.136 -20.769 -0.058 -20.466 -0.171 12.172 0.393 2.721 0.111 44.064 42.761
17.000 -20.858 -0.160 -20.864 -0.159 -20.913 -0.139 -20.907 -0.135 -20.764 -0.058 -20.466 -0.170 12.147 0.385 2.723 0.109 44.061 42.749
17.400 -20.852 -0.160 -20.858 -0.158 -20.909 -0.138 -20.903 -0.135 -20.759 -0.058 -20.466 -0.169 12.122 0.378 2.724 0.108 44.058 42.738
17.800 -20.846 -0.159 -20.852 -0.158 -20.905 -0.138 -20.899 -0.134 -20.755 -0.058 -20.465 -0.168 12.098 0.372 2.726 0.106 44.055 42.727
18.200 -20.840 -0.158 -20.846 -0.157 -20.900 -0.137 -20.895 -0.134 -20.750 -0.058 -20.465 -0.168 12.074 0.366 2.727 0.105 44.052 42.716
18.600 -20.834 -0.157 -20.840 -0.156 -20.896 -0.137 -20.891 -0.133 -20.745 -0.058 -20.464 -0.167 12.050 0.360 2.728 0.104 44.048 42.707
19.000 -20.828 -0.157 -20.834 -0.155 -20.892 -0.136 -20.887 -0.133 -20.740 -0.058 -20.464 -0.166 12.026 0.356 2.729 0.103 44.045 42.697
19.400 -20.822 -0.156 -20.828 -0.154 -20.888 -0.135 -20.882 -0.132 -20.735 -0.058 -20.463 -0.165 12.003 0.352 2.730 0.102 44.042 42.689
19.800 -20.816 -0.155 -20.822 -0.153 -20.883 -0.135 -20.878 -0.131 -20.730 -0.058 -20.463 -0.164 11.979 0.348 2.730 0.102 44.039 42.681
20.200 -20.810 -0.154 -20.816 -0.153 -20.879 -0.134 -20.874 -0.130 -20.725 -0.058 -20.462 -0.163 11.954 0.346 2.732 0.102 44.036 42.674
20.600 -20.804 -0.153 -20.810 -0.152 -20.875 -0.133 -20.869 -0.130 -20.720 -0.058 -20.461 -0.162 11.931 0.343 2.733 0.101 44.033 42.668
21.000 -20.797 -0.152 -20.804 -0.151 -20.870 -0.132 -20.865 -0.129 -20.715 -0.058 -20.461 -0.161 11.908 0.342 2.733 0.101 44.029 42.662
21.400 -20.791 -0.151 -20.797 -0.150 -20.866 -0.131 -20.861 -0.128 -20.710 -0.058 -20.460 -0.160 11.884 0.341 2.734 0.102 44.026 42.658
21.800 -20.785 -0.150 -20.791 -0.149 -20.861 -0.131 -20.856 -0.127 -20.704 -0.058 -20.459 -0.159 11.861 0.341 2.735 0.102 44.023 42.654
22.200 -20.778 -0.149 -20.785 -0.148 -20.856 -0.130 -20.852 -0.127 -20.699 -0.058 -20.459 -0.158 11.837 0.342 2.736 0.103 44.020 42.651
22.600 -20.772 -0.148 -20.779 -0.146 -20.852 -0.129 -20.847 -0.126 -20.694 -0.058 -20.458 -0.157 11.813 0.343 2.736 0.103 44.017 42.648
23.000 -20.766 -0.147 -20.772 -0.145 -20.847 -0.128 -20.842 -0.125 -20.689 -0.058 -20.457 -0.156 11.789 0.345 2.737 0.104 44.013 42.647
23.400 -20.759 -0.146 -20.766 -0.144 -20.843 -0.127 -20.838 -0.124 -20.683 -0.058 -20.456 -0.155 11.765 0.347 2.738 0.106 44.010 42.645
23.800 -20.753 -0.144 -20.759 -0.143 -20.838 -0.126 -20.833 -0.123 -20.678 -0.058 -20.456 -0.153 11.741 0.349 2.739 0.107 44.007 42.645
24.200 -20.746 -0.143 -20.753 -0.142 -20.833 -0.125 -20.828 -0.122 -20.672 -0.059 -20.455 -0.152 11.716 0.352 2.740 0.108 44.004 42.644
24.600 -20.739 -0.142 -20.746 -0.140 -20.828 -0.124 -20.824 -0.121 -20.667 -0.059 -20.454 -0.151 11.692 0.356 2.742 0.110 44.000 42.645
25.000 -20.733 -0.141 -20.740 -0.139 -20.823 -0.123 -20.819 -0.120 -20.662 -0.059 -20.453 -0.150 11.667 0.360 2.743 0.112 43.997 42.645
25.400 -20.726 -0.139 -20.733 -0.138 -20.819 -0.122 -20.814 -0.119 -20.656 -0.059 -20.452 -0.148 11.641 0.364 2.744 0.114 43.994 42.646
25.800 -20.720 -0.138 -20.727 -0.137 -20.814 -0.121 -20.809 -0.118 -20.651 -0.059 -20.451 -0.147 11.616 0.368 2.746 0.116 43.990 42.647
26.200 -20.713 -0.137 -20.720 -0.135 -20.809 -0.120 -20.804 -0.117 -20.645 -0.059 -20.450 -0.146 11.592 0.373 2.747 0.118 43.987 42.648
26.600 -20.706 -0.135 -20.714 -0.134 -20.804 -0.119 -20.799 -0.116 -20.640 -0.059 -20.450 -0.144 11.566 0.378 2.748 0.120 43.984 42.650
27.000 -20.699 -0.134 -20.707 -0.132 -20.799 -0.118 -20.794 -0.115 -20.634 -0.059 -20.449 -0.143 11.540 0.383 2.750 0.122 43.980 42.651
27.400 -20.693 -0.132 -20.700 -0.131 -20.794 -0.116 -20.789 -0.114 -20.629 -0.059 -20.448 -0.142 11.514 0.389 2.752 0.125 43.977 42.653
27.800 -20.686 -0.131 -20.693 -0.130 -20.789 -0.115 -20.784 -0.113 -20.623 -0.059 -20.447 -0.140 11.487 0.394 2.754 0.127 43.974 42.655
28.200 -20.679 -0.129 -20.687 -0.128 -20.784 -0.114 -20.779 -0.112 -20.618 -0.059 -20.446 -0.139 11.461 0.399 2.756 0.130 43.970 42.656
28.600 -20.672 -0.128 -20.680 -0.127 -20.779 -0.113 -20.774 -0.111 -20.612 -0.059 -20.445 -0.137 11.434 0.405 2.758 0.132 43.967 42.658
29.000 -20.665 -0.126 -20.673 -0.125 -20.774 -0.112 -20.769 -0.110 -20.606 -0.059 -20.444 -0.136 11.406 0.411 2.760 0.135 43.963 42.659
29.400 -20.658 -0.125 -20.666 -0.123 -20.768 -0.110 -20.764 -0.108 -20.601 -0.059 -20.443 -0.134 11.379 0.416 2.762 0.138 43.960 42.661
29.800 -20.651 -0.123 -20.659 -0.122 -20.763 -0.109 -20.759 -0.107 -20.595 -0.059 -20.441 -0.133 11.351 0.422 2.765 0.141 43.956 42.662
30.200 -20.644 -0.122 -20.653 -0.120 -20.758 -0.108 -20.754 -0.106 -20.590 -0.058 -20.440 -0.131 11.323 0.427 2.767 0.143 43.953 42.663
30.600 -20.637 -0.120 -20.646 -0.119 -20.753 -0.107 -20.749 -0.105 -20.584 -0.058 -20.439 -0.130 11.295 0.433 2.770 0.146 43.949 42.664
31.000 -20.630 -0.118 -20.639 -0.117 -20.748 -0.105 -20.744 -0.104 -20.579 -0.058 -20.438 -0.128 11.267 0.438 2.773 0.149 43.946 42.665
31.400 -20.623 -0.117 -20.632 -0.115 -20.742 -0.104 -20.738 -0.102 -20.573 -0.058 -20.437 -0.126 11.239 0.444 2.776 0.152 43.942 42.666
31.800 -20.616 -0.115 -20.625 -0.114 -20.737 -0.102 -20.733 -0.101 -20.567 -0.058 -20.436 -0.125 11.210 0.449 2.778 0.155 43.939 42.666
32.200 -20.609 -0.113 -20.618 -0.112 -20.732 -0.101 -20.728 -0.100 -20.562 -0.057 -20.435 -0.123 11.181 0.454 2.782 0.157 43.935 42.667
32.600 -20.602 -0.112 -20.611 -0.110 -20.727 -0.100 -20.723 -0.098 -20.556 -0.057 -20.434 -0.121 11.152 0.460 2.785 0.160 43.932 42.667
33.000 -20.595 -0.110 -20.604 -0.109 -20.721 -0.098 -20.717 -0.097 -20.551 -0.057 -20.433 -0.120 11.123 0.465 2.788 0.163 43.928 42.667
33.400 -20.588 -0.108 -20.597 -0.107 -20.716 -0.097 -20.712 -0.096 -20.545 -0.056 -20.431 -0.118 11.094 0.469 2.791 0.166 43.925 42.667
33.800 -20.581 -0.106 -20.589 -0.105 -20.711 -0.095 -20.707 -0.094 -20.540 -0.056 -20.430 -0.116 11.065 0.474 2.795 0.169 43.921 42.666
34.200 -20.573 -0.105 -20.582 -0.103 -20.705 -0.094 -20.701 -0.093 -20.534 -0.056 -20.429 -0.114 11.035 0.479 2.799 0.172 43.918 42.666
34.600 -20.566 -0.103 -20.575 -0.101 -20.700 -0.092 -20.696 -0.091 -20.528 -0.055 -20.428 -0.113 11.005 0.483 2.802 0.175 43.914 42.665
35.000 -20.559 -0.101 -20.568 -0.100 -20.694 -0.091 -20.691 -0.090 -20.523 -0.055 -20.427 -0.111 10.975 0.487 2.806 0.177 43.911 42.664
35.400 -20.552 -0.099 -20.561 -0.098 -20.689 -0.089 -20.685 -0.089 -20.517 -0.054 -20.426 -0.109 10.945 0.491 2.810 0.180 43.907 42.662
35.800 -20.544 -0.097 -20.554 -0.096 -20.684 -0.088 -20.680 -0.087 -20.512 -0.054 -20.424 -0.107 10.915 0.495 2.814 0.183 43.904 42.661
36.200 -20.537 -0.095 -20.546 -0.094 -20.678 -0.086 -20.675 -0.086 -20.507 -0.053 -20.423 -0.106 10.884 0.499 2.818 0.186 43.900 42.659
36.600 -20.530 -0.093 -20.539 -0.092 -20.673 -0.085 -20.669 -0.084 -20.501 -0.053 -20.422 -0.104 10.854 0.502 2.823 0.189 43.897 42.657
37.000 -20.523 -0.092 -20.532 -0.090 -20.667 -0.083 -20.664 -0.083 -20.496 -0.052 -20.421 -0.102 10.823 0.506 2.827 0.191 43.893 42.655
37.400 -20.515 -0.090 -20.525 -0.088 -20.662 -0.082 -20.658 -0.081 -20.490 -0.052 -20.419 -0.100 10.792 0.509 2.832 0.194 43.889 42.652
37.800 -20.508 -0.088 -20.517 -0.086 -20.656 -0.080 -20.653 -0.080 -20.485 -0.051 -20.418 -0.098 10.761 0.511 2.837 0.196 43.886 42.650
38.200 -20.500 -0.086 -20.510 -0.084 -20.651 -0.078 -20.647 -0.078 -20.480 -0.050 -20.417 -0.096 10.729 0.514 2.842 0.199 43.882 42.647
38.600 -20.493 -0.084 -20.503 -0.083 -20.645 -0.077 -20.642 -0.077 -20.474 -0.050 -20.416 -0.094 10.697 0.516 2.847 0.202 43.879 42.643
39.000 -20.486 -0.082 -20.495 -0.081 -20.640 -0.075 -20.637 -0.075 -20.469 -0.049 -20.414 -0.092 10.665 0.518 2.853 0.204 43.875 42.640
39.400 -20.478 -0.080 -20.488 -0.079 -20.634 -0.074 -20.631 -0.074 -20.464 -0.049 -20.413 -0.091 10.633 0.519 2.858 0.206 43.872 42.636
39.800 -20.471 -0.078 -20.481 -0.077 -20.628 -0.072 -20.626 -0.072 -20.458 -0.048 -20.412 -0.089 10.601 0.521 2.864 0.209 43.868 42.631
40.200 -20.463 -0.076 -20.473 -0.075 -20.623 -0.070 -20.620 -0.070 -20.453 -0.047 -20.411 -0.087 10.568 0.522 2.870 0.211 43.865 42.627
40.600 -20.456 -0.074 -20.466 -0.073 -20.617 -0.069 -20.614 -0.069 -20.448 -0.047 -20.409 -0.085 10.535 0.523 2.876 0.213 43.861 42.622
41.000 -20.449 -0.072 -20.459 -0.071 -20.612 -0.067 -20.609 -0.067 -20.443 -0.046 -20.408 -0.083 10.502 0.523 2.883 0.215 43.857 42.617
41.400 -20.441 -0.070 -20.451 -0.069 -20.606 -0.065 -20.603 -0.066 -20.438 -0.045 -20.407 -0.081 10.468 0.523 2.889 0.218 43.854 42.611
41.800 -20.434 -0.068 -20.444 -0.067 -20.600 -0.064 -20.598 -0.064 -20.433 -0.044 -20.405 -0.079 10.434 0.523 2.896 0.220 43.850 42.605
42.200 -20.426 -0.066 -20.436 -0.065 -20.595 -0.062 -20.592 -0.063 -20.428 -0.044 -20.404 -0.077 10.400 0.522 2.904 0.222 43.847 42.599
42.600 -20.419 -0.064 -20.429 -0.063 -20.589 -0.060 -20.587 -0.061 -20.423 -0.043 -20.403 -0.075 10.365 0.521 2.911 0.223 43.843 42.592
43.000 -20.411 -0.062 -20.422 -0.061 -20.583 -0.059 -20.581 -0.059 -20.418 -0.042 -20.401 -0.073 10.330 0.520 2.919 0.225 43.840 42.585
43.400 -20.404 -0.060 -20.414 -0.059 -20.578 -0.057 -20.575 -0.058 -20.413 -0.042 -20.400 -0.071 10.294 0.518 2.928 0.227 43.836 42.577
43.800 -20.396 -0.058 -20.407 -0.057 -20.572 -0.055 -20.570 -0.056 -20.408 -0.041 -20.399 -0.069 10.258 0.516 2.937 0.228 43.833 42.569
44.200 -20.388 -0.056 -20.399 -0.055 -20.566 -0.054 -20.564 -0.055 -20.403 -0.040 -20.397 -0.068 10.221 0.513 2.946 0.230 43.829 42.560
44.600 -20.381 -0.054 -20.392 -0.053 -20.561 -0.052 -20.558 -0.053 -20.399 -0.040 -20.396 -0.066 10.183 0.510 2.956 0.231 43.826 42.550
45.000 -20.373 -0.053 -20.384 -0.051 -20.555 -0.050 -20.553 -0.052 -20.394 -0.039 -20.395 -0.064 10.145 0.506 2.966 0.232 43.822 42.540
45.400 -20.366 -0.051 -20.377 -0.050 -20.549 -0.049 -20.547 -0.050 -20.389 -0.039 -20.393 -0.062 10.106 0.502 2.977 0.233 43.819 42.529
45.800 -20.358 -0.049 -20.369 -0.048 -20.543 -0.047 -20.541 -0.048 -20.385 -0.038 -20.392 -0.060 10.066 0.497 2.989 0.234 43.815 42.517
46.200 -20.351 -0.047 -20.362 -0.046 -20.537 -0.045 -20.536 -0.047 -20.380 -0.038 -20.391 -0.058 10.025 0.491 3.002 0.235 43.812 42.505
46.600 -20.343 -0.045 -20.354 -0.044 -20.531 -0.044 -20.530 -0.045 -20.376 -0.037 -20.389 -0.057 9.982 0.485 3.015 0.236 43.808 42.491
47.000 -20.336 -0.043 -20.347 -0.042 -20.526 -0.042 -20.524 -0.044 -20.371 -0.037 -20.388 -0.055 9.939 0.478 3.029 0.236 43.805 42.477
47.400 -20.328 -0.042 -20.340 -0.041 -20.520 -0.041 -20.518 -0.043 -20.367 -0.036 -20.387 -0.053 9.895 0.471 3.044 0.236 43.801 42.461
47.800 -20.321 -0.040 -20.332 -0.039 -20.514 -0.039 -20.512 -0.041 -20.363 -0.036 -20.385 -0.052 9.850 0.463 3.060 0.236 43.798 42.444
48.200 -20.313 -0.038 -20.325 -0.037 -20.508 -0.038 -20.507 -0.040 -20.358 -0.036 -20.384 -0.050 9.804 0.454 3.077 0.235 43.795 42.427
48.600 -20.306 -0.037 -20.317 -0.036 -20.502 -0.036 -20.501 -0.038 -20.354 -0.036 -20.383 -0.049 9.756 0.444 3.095 0.235 43.791 42.408
49.000 -20.298 -0.035 -20.310 -0.034 -20.496 -0.035 -20.495 -0.037 -20.350 -0.036 -20.381 -0.047 9.709 0.434 3.113 0.234 43.788 42.388
49.400 -20.291 -0.033 -20.302 -0.033 -20.490 -0.033 -20.489 -0.036 -20.346 -0.036 -20.380 -0.046 9.660 0.423 3.132 0.232 43.785 42.367
49.800 -20.283 -0.032 -20.295 -0.031 -20.484 -0.032 -20.483 -0.035 -20.342 -0.036 -20.379 -0.044 9.612 0.413 3.152 0.231 43.781 42.345
50.200 -20.276 -0.031 -20.287 -0.030 -20.478 -0.031 -20.477 -0.034 -20.338 -0.036 -20.377 -0.043 9.564 0.401 3.172 0.229 43.778 42.323
50.600 -20.268 -0.029 -20.280 -0.029 -20.472 -0.030 -20.471 -0.032 -20.334 -0.036 -20.376 -0.042 9.517 0.390 3.192 0.226 43.775 42.300
51.000 -20.261 -0.028 -20.273 -0.028 -20.466 -0.029 -20.465 -0.031 -20.330 -0.036 -20.375 -0.041 9.471 0.379 3.211 0.224 43.772 42.277
51.400 -20.253 -0.027 -20.265 -0.027 -20.459 -0.028 -20.459 -0.031 -20.326 -0.036 -20.373 -0.040 9.426 0.368 3.230 0.221 43.769 42.254
51.800 -20.246 -0.026 -20.258 -0.026 -20.453 -0.027 -20.453 -0.030 -20.323 -0.036 -20.372 -0.039 9.382 0.357 3.249 0.219 43.766 42.232
52.200 -20.238 -0.025 -20.251 -0.025 -20.447 -0.026 -20.447 -0.029 -20.319 -0.036 -20.370 -0.038 9.340 0.347 3.267 0.216 43.763 42.210
52.600 -20.231 -0.025 -20.243 -0.024 -20.441 -0.025 -20.441 -0.028 -20.315 -0.037 -20.369 -0.037 9.300 0.338 3.284 0.213 43.760 42.189
53.000 -20.223 -0.024 -20.236 -0.024 -20.434 -0.025 -20.434 -0.027 -20.311 -0.037 -20.368 -0.037 9.262 0.329 3.300 0.210 43.757 42.170
53.400 -20.216 -0.024 -20.229 -0.023 -20.428 -0.024 -20.428 -0.027 -20.308 -0.037 -20.366 -0.036 9.226 0.321 3.315 0.208 43.754 42.152
53.800 -20.209 -0.023 -20.221 -0.023 -20.421 -0.023 -20.422 -0.026 -20.304 -0.037 -20.365 -0.036 9.191 0.313 3.328 0.206 43.751 42.136
54.200 -20.201 -0.023 -20.214 -0.023 -20.415 -0.023 -20.416 -0.026 -20.300 -0.038 -20.363 -0.035 9.159 0.307 3.341 0.204 43.748 42.120
54.600 -20.194 -0.023 -20.207 -0.023 -20.409 -0.023 -20.410 -0.025 -20.297 -0.038 -20.362 -0.035 9.128 0.301 3.353 0.202 43.745 42.106
55.000 -20.187 -0.022 -20.199 -0.022 -20.402 -0.022 -20.403 -0.025 -20.293 -0.038 -20.360 -0.035 9.098 0.295 3.364 0.200 43.742 42.093
55.400 -20.179 -0.022 -20.192 -0.022 -20.396 -0.022 -20.397 -0.025 -20.289 -0.039 -20.359 -0.035 9.070 0.290 3.374 0.198 43.739 42.081
55.800 -20.172 -0.022 -20.185 -0.022 -20.389 -0.022 -20.391 -0.024 -20.286 -0.039 -20.357 -0.035 9.043 0.286 3.383 0.197 43.737 42.069
56.200 -20.165 -0.022 -20.178 -0.022 -20.383 -0.022 -20.385 -0.024 -20.282 -0.039 -20.356 -0.034 9.017 0.282 3.391 0.196 43.734 42.059
56.600 -20.158 -0.022 -20.171 -0.022 -20.376 -0.022 -20.378 -0.024 -20.279 -0.039 -20.354 -0.034 8.992 0.278 3.399 0.194 43.731 42.048
57.000 -20.150 -0.022 -20.163 -0.022 -20.370 -0.022 -20.372 -0.024 -20.275 -0.039 -20.352 -0.034 8.969 0.275 3.406 0.193 43.728 42.039
57.400 -20.143 -0.022 -20.156 -0.022 -20.363 -0.021 -20.366 -0.023 -20.271 -0.040 -20.350 -0.034 8.946 0.272 3.413 0.193 43.726 42.030
57.800 -20.136 -0.022 -20.149 -0.022 -20.357 -0.021 -20.360 -0.023 -20.268 -0.040 -20.349 -0.035 8.923 0.269 3.419 0.192 43.723 42.021
58.200 -20.129 -0.022 -20.142 -0.022 -20.350 -0.021 -20.353 -0.023 -20.264 -0.040 -20.347 -0.035 8.902 0.266 3.425 0.191 43.720 42.012
58.600 -20.122 -0.022 -20.135 -0.022 -20.344 -0.021 -20.347 -0.023 -20.261 -0.040 -20.345 -0.035 8.881 0.264 3.431 0.190 43.717 42.004
59.000 -20.115 -0.022 -20.128 -0.022 -20.338 -0.021 -20.341 -0.023 -20.257 -0.040 -20.343 -0.035 8.861 0.262 3.436 0.190 43.715 41.995
59.400 -20.107 -0.022 -20.121 -0.022 -20.332 -0.021 -20.335 -0.023 -20.253 -0.040 -20.341 -0.035 8.841 0.259 3.440 0.189 43.712 41.988
59.800 -20.100 -0.022 -20.114 -0.022 -20.325 -0.021 -20.329 -0.022 -20.249 -0.040 -20.338 -0.035 8.822 0.257 3.445 0.189 43.709 41.980
60.200 -20.093 -0.022 -20.107 -0.022 -20.319 -0.021 -20.323 -0.022 -20.246 -0.040 -20.336 -0.035 8.803 0.256 3.449 0.188 43.707 41.973
60.600 -20.086 -0.022 -20.100 -0.022 -20.313 -0.021 -20.317 -0.022 -20.242 -0.040 -20.334 -0.035 8.785 0.254 3.452 0.188 43.704 41.967
61.000 -20.079 -0.022 -20.093 -0.022 -20.307 -0.021 -20.312 -0.022 -20.238 -0.040 -20.331 -0.035 8.768 0.252 3.456 0.188 43.701 41.961
61.400 -20.072 -0.022 -20.086 -0.022 -20.301 -0.021 -20.306 -0.022 -20.234 -0.040 -20.329 -0.035 8.751 0.251 3.459 0.188 43.699 41.955
61.800 -20.065 -0.022 -20.079 -0.022 -20.295 -0.021 -20.300 -0.022 -20.230 -0.040 -20.326 -0.035 8.734 0.250 3.461 0.188 43.696 41.951
62.200 -20.058 -0.022 -20.072 -0.022 -20.289 -0.021 -20.294 -0.022 -20.226 -0.040 -20.323 -0.035 8.718 0.249 3.464 0.188 43.694 41.947
62.600 -20.051 -0.022 -20.065 -0.022 -20.283 -0.021 -20.289 -0.022 -20.222 -0.040 -20.320 -0.035 8.702 0.248 3.466 0.188 43.691 41.944
63.000 -20.043 -0.022 -20.058 -0.022 -20.278 -0.021 -20.283 -0.022 -20.218 -0.040 -20.317 -0.035 8.685 0.248 3.469 0.189 43.688 41.941
63.400 -20.036 -0.022 -20.051 -0.022 -20.272 -0.021 -20.278 -0.023 -20.214 -0.040 -20.314 -0.035 8.670 0.248 3.471 0.189 43.686 41.940
63.800 -20.029 -0.022 -20.043 -0.022 -20.266 -0.021 -20.272 -0.023 -20.210 -0.039 -20.311 -0.035 8.655 0.248 3.472 0.190 43.683 41.939
64.200 -20.022 -0.022 -20.036 -0.023 -20.261 -0.022 -20.267 -0.023 -20.206 -0.039 -20.307 -0.035 8.641 0.248 3.474 0.191 43.681 41.940
64.600 -20.015 -0.023 -20.029 -0.023 -20.255 -0.022 -20.261 -0.023 -20.201 -0.039 -20.304 -0.035 8.627 0.249 3.474 0.192 43.678 41.941
65.000 -20.008 -0.023 -20.022 -0.023 -20.250 -0.022 -20.256 -0.023 -20.197 -0.039 -20.300 -0.035 8.613 0.250 3.475 0.193 43.675 41.942
65.400 -20.000 -0.023 -20.015 -0.023 -20.244 -0.022 -20.251 -0.023 -20.192 -0.038 -20.296 -0.035 8.600 0.251 3.475 0.194 43.673 41.944
65.800 -19.993 -0.023 -20.008 -0.023 -20.239 -0.023 -20.246 -0.023 -20.188 -0.038 -20.293 -0.035 8.588 0.252 3.475 0.195 43.670 41.946
66.200 -19.986 -0.024 -20.001 -0.024 -20.233 -0.023 -20.240 -0.024 -20.183 -0.038 -20.289 -0.035 8.576 0.254 3.474 0.197 43.668 41.949
66.600 -19.979 -0.024 -19.994 -0.024 -20.228 -0.023 -20.235 -0.024 -20.178 -0.038 -20.285 -0.035 8.564 0.255 3.473 0.198 43.665 41.952
67.000 -19.971 -0.024 -19.986 -0.024 -20.223 -0.023 -20.230 -0.024 -20.173 -0.037 -20.280 -0.035 8.553 0.257 3.472 0.200 43.662 41.955
67.400 -19.964 -0.024 -19.979 -0.024 -20.217 -0.024 -20.225 -0.024 -20.168 -0.037 -20.276 -0.035 8.543 0.259 3.469 0.202 43.660 41.959
67.800 -19.957 -0.024 -19.972 -0.024 -20.212 -0.024 -20.219 -0.024 -20.163 -0.037 -20.272 -0.035 8.534 0.261 3.466 0.203 43.657 41.962
68.200 -19.949 -0.025 -19.965 -0.025 -20.207 -0.024 -20.214 -0.024 -20.158 -0.036 -20.267 -0.035 8.526 0.264 3.463 0.205 43.655 41.966
68.600 -19.942 -0.025 -19.957 -0.025 -20.201 -0.024 -20.209 -0.024 -20.152 -0.036 -20.263 -0.035 8.518 0.267 3.459 0.207 43.652 41.970
69.000 -19.934 -0.025 -19.950 -0.025 -20.196 -0.024 -20.204 -0.024 -20.147 -0.036 -20.258 -0.035 8.511 0.270 3.453 0.210 43.649 41.975
69.400 -19.927 -0.026 -19.943 -0.025 -20.190 -0.025 -20.199 -0.024 -20.141 -0.035 -20.253 -0.035 8.506 0.274 3.447 0.212 43.647 41.979
69.800 -19.920 -0.026 -19.935 -0.026 -20.185 -0.025 -20.193 -0.024 -20.135 -0.035 -20.248 -0.035 8.501 0.277 3.441 0.214 43.644 41.984
70.200 -19.912 -0.026 -19.928 -0.026 -20.180 -0.025 -20.188 -0.024 -20.129 -0.035 -20.243 -0.035 8.497 0.282 3.433 0.217 43.641 41.989
70.600 -19.904 -0.026 -19.920 -0.026 -20.174 -0.025 -20.183 -0.024 -20.123 -0.034 -20.238 -0.036 8.494 0.286 3.425 0.220 43.639 41.994
71.000 -19.897 -0.027 -19.913 -0.026 -20.169 -0.025 -20.177 -0.024 -20.117 -0.034 -20.232 -0.036 8.492 0.291 3.416 0.223 43.636 41.999
71.400 -19.889 -0.027 -19.905 -0.027 -20.163 -0.026 -20.172 -0.024 -20.111 -0.034 -20.227 -0.036 8.491 0.297 3.406 0.226 43.633 42.005
71.800 -19.882 -0.028 -19.898 -0.027 -20.158 -0.026 -20.166 -0.024 -20.104 -0.033 -20.221 -0.037 8.490 0.302 3.396 0.229 43.630 42.011
72.200 -19.874 -0.028 -19.890 -0.027 -20.152 -0.026 -20.161 -0.024 -20.097 -0.033 -20.216 -0.037 8.489 0.308 3.386 0.233 43.628 42.017
72.600 -19.866 -0.028 -19.883 -0.028 -20.146 -0.026 -20.155 -0.024 -20.090 -0.033 -20.210 -0.038 8.490 0.314 3.375 0.237 43.625 42.024
73.000 -19.858 -0.029 -19.875 -0.028 -20.140 -0.026 -20.149 -0.024 -20.083 -0.033 -20.204 -0.038 8.490 0.321 3.363 0.240 43.622 42.031
73.400 -19.850 -0.029 -19.867 -0.029 -20.135 -0.027 -20.144 -0.025 -20.076 -0.033 -20.198 -0.039 8.491 0.328 3.351 0.244 43.619 42.038
73.800 -19.842 -0.030 -19.859 -0.029 -20.129 -0.027 -20.138 -0.025 -20.068 -0.033 -20.193 -0.039 8.492 0.335 3.339 0.248 43.616 42.045
74.200 -19.834 -0.031 -19.851 -0.030 -20.123 -0.027 -20.132 -0.025 -20.061 -0.033 -20.186 -0.040 8.493 0.342 3.327 0.252 43.613 42.052
74.600 -19.825 -0.031 -19.842 -0.030 -20.116 -0.028 -20.126 -0.025 -20.053 -0.033 -20.180 -0.041 8.494 0.350 3.315 0.257 43.610 42.060
75.000 -19.817 -0.032 -19.834 -0.031 -20.110 -0.028 -20.119 -0.026 -20.045 -0.033 -20.174 -0.041 8.494 0.358 3.303 0.261 43.607 42.067
75.400 -19.808 -0.033 -19.826 -0.032 -20.104 -0.029 -20.113 -0.026 -20.036 -0.033 -20.168 -0.042 8.495 0.366 3.291 0.265 43.604 42.075
75.800 -19.800 -0.034 -19.817 -0.033 -20.098 -0.029 -20.107 -0.027 -20.028 -0.033 -20.162 -0.043 8.495 0.374 3.278 0.270 43.601 42.083
76.200 -19.791 -0.034 -19.808 -0.033 -20.091 -0.030 -20.100 -0.027 -20.019 -0.034 -20.155 -0.044 8.495 0.382 3.266 0.274 43.598 42.091
76.600 -19.782 -0.035 -19.799 -0.034 -20.085 -0.030 -20.094 -0.028 -20.010 -0.034 -20.149 -0.044 8.495 0.390 3.254 0.279 43.594 42.098
77.000 -19.773 -0.036 -19.790 -0.035 -20.078 -0.031 -20.087 -0.029 -20.001 -0.035 -20.143 -0.045 8.494 0.399 3.242 0.284 43.591 42.106
77.400 -19.764 -0.037 -19.781 -0.036 -20.071 -0.032 -20.080 -0.030 -19.991 -0.035 -20.136 -0.046 8.494 0.407 3.230 0.288 43.588 42.113
77.800 -19.754 -0.038 -19.772 -0.037 -20.064 -0.032 -20.073 -0.030 -19.982 -0.036 -20.129 -0.047 8.493 0.416 3.218 0.293 43.584 42.121
78.200 -19.745 -0.039 -19.763 -0.038 -20.057 -0.033 -20.066 -0.031 -19.972 -0.036 -20.123 -0.048 8.492 0.424 3.206 0.298 43.581 42.128
78.600 -19.735 -0.040 -19.753 -0.039 -20.050 -0.034 -20.059 -0.032 -19.962 -0.037 -20.116 -0.049 8.490 0.433 3.194 0.302 43.577 42.135
79.000 -19.726 -0.041 -19.743 -0.040 -20.043 -0.035 -20.052 -0.033 -19.952 -0.037 -20.110 -0.050 8.489 0.441 3.182 0.307 43.574 42.142
79.400 -19.716 -0.042 -19.734 -0.041 -20.036 -0.035 -20.045 -0.034 -19.942 -0.038 -20.103 -0.050 8.487 0.450 3.169 0.312 43.570 42.148
79.800 -19.706 -0.043 -19.724 -0.042 -20.028 -0.036 -20.037 -0.035 -19.932 -0.038 -20.096 -0.051 8.486 0.459 3.157 0.317 43.566 42.155
80.200 -19.696 -0.044 -19.714 -0.043 -20.021 -0.037 -20.030 -0.036 -19.922 -0.039 -20.089 -0.052 8.484 0.468 3.145 0.321 43.562 42.161
80.600 -19.686 -0.045 -19.704 -0.044 -20.013 -0.038 -20.022 -0.037 -19.911 -0.040 -20.083 -0.053 8.483 0.477 3.132 0.326 43.559 42.167
81.000 -19.676 -0.046 -19.694 -0.045 -20.006 -0.039 -20.015 -0.038 -19.901 -0.040 -20.076 -0.054 8.481 0.486 3.120 0.331 43.555 42.173
81.400 -19.665 -0.048 -19.684 -0.047 -19.998 -0.040 -20.007 -0.039 -19.890 -0.041 -20.069 -0.055 8.480 0.495 3.107 0.336 43.551 42.178
81.800 -19.655 -0.049 -19.674 -0.048 -19.990 -0.041 -19.999 -0.040 -19.879 -0.041 -20.062 -0.056 8.478 0.505 3.094 0.340 43.547 42.184
82.200 -19.645 -0.050 -19.663 -0.049 -19.982 -0.042 -19.991 -0.041 -19.868 -0.042 -20.055 -0.057 8.477 0.514 3.081 0.345 43.543 42.189
82.600 -19.634 -0.051 -19.653 -0.050 -19.974 -0.042 -19.983 -0.042 -19.857 -0.043 -20.048 -0.058 8.475 0.523 3.068 0.350 43.539 42.195
83.000 -19.624 -0.052 -19.642 -0.051 -19.966 -0.043 -19.975 -0.043 -19.846 -0.043 -20.041 -0.059 8.474 0.533 3.055 0.354 43.535 42.200
83.400 -19.613 -0.053 -19.632 -0.052 -19.958 -0.044 -19.967 -0.044 -19.835 -0.044 -20.035 -0.060 8.473 0.543 3.041 0.359 43.531 42.204
83.800 -19.602 -0.054 -19.621 -0.053 -19.949 -0.045 -19.958 -0.045 -19.824 -0.044 -20.028 -0.061 8.472 0.552 3.028 0.364 43.527 42.209
84.200 -19.591 -0.055 -19.610 -0.054 -19.941 -0.046 -19.950 -0.046 -19.813 -0.045 -20.021 -0.061 8.471 0.562 3.014 0.368 43.523 42.214
84.600 -19.581 -0.056 -19.600 -0.055 -19.933 -0.047 -19.942 -0.046 -19.801 -0.045 -20.014 -0.062 8.470 0.572 3.000 0.373 43.519 42.218
85.000 -19.570 -0.057 -19.589 -0.056 -19.924 -0.048 -19.933 -0.047 -19.790 -0.046 -20.007 -0.063 8.470 0.581 2.986 0.377 43.514 42.222
85.400 -19.559 -0.058 -19.578 -0.057 -19.916 -0.049 -19.925 -0.048 -19.779 -0.046 -20.000 -0.064 8.469 0.591 2.971 0.381 43.510 42.226
85.800 -19.548 -0.059 -19.567 -0.058 -19.907 -0.050 -19.916 -0.049 -19.767 -0.047 -19.994 -0.065 8.469 0.601 2.957 0.386 43.506 42.230
86.200 -19.537 -0.059 -19.556 -0.058 -19.898 -0.050 -19.907 -0.050 -19.756 -0.047 -19.987 -0.066 8.469 0.611 2.943 0.390 43.502 42.234
86.600 -19.525 -0.060 -19.545 -0.059 -19.889 -0.051 -19.899 -0.051 -19.744 -0.047 -19.980 -0.067 8.469 0.621 2.928 0.394 43.497 42.237
87.000 -19.514 -0.061 -19.534 -0.060 -19.881 -0.052 -19.890 -0.052 -19.733 -0.048 -19.973 -0.068 8.469 0.630 2.913 0.398 43.493 42.240
87.400 -19.503 -0.062 -19.522 -0.061 -19.872 -0.053 -19.881 -0.053 -19.721 -0.048 -19.967 -0.069 8.469 0.640 2.899 0.402 43.489 42.243
87.800 -19.492 -0.063 -19.511 -0.062 -19.863 -0.054 -19.872 -0.054 -19.710 -0.048 -19.960 -0.070 8.469 0.650 2.884 0.405 43.484 42.246
88.200 -19.480 -0.064 -19.500 -0.063 -19.854 -0.055 -19.863 -0.055 -19.698 -0.049 -19.953 -0.070 8.469 0.659 2.869 0.409 43.480 42.248
88.600 -19.469 -0.064 -19.489 -0.063 -19.845 -0.055 -19.854 -0.055 -19.687 -0.049 -19.947 -0.071 8.469 0.668 2.855 0.413 43.475 42.251
89.000 -19.458 -0.065 -19.477 -0.064 -19.835 -0.056 -19.845 -0.056 -19.676 -0.049 -19.940 -0.072 8.469 0.678 2.840 0.416 43.471 42.253
89.400 -19.446 -0.066 -19.466 -0.065 -19.826 -0.057 -19.836 -0.057 -19.664 -0.049 -19.934 -0.073 8.469 0.687 2.825 0.419 43.466 42.255
89.800 -19.435 -0.067 -19.455 -0.066 -19.817 -0.058 -19.827 -0.058 -19.653 -0.050 -19.927 -0.074 8.469 0.696 2.811 0.422 43.462 42.256
90.200 -19.423 -0.067 -19.443 -0.066 -19.808 -0.058 -19.818 -0.059 -19.642 -0.050 -19.921 -0.075 8.468 0.704 2.797 0.425 43.457 42.258
90.600 -19.412 -0.068 -19.432 -0.067 -19.799 -0.059 -19.808 -0.059 -19.630 -0.050 -19.914 -0.075 8.468 0.713 2.783 0.428 43.453 42.259
91.000 -19.400 -0.068 -19.420 -0.067 -19.789 -0.060 -19.799 -0.060 -19.619 -0.050 -19.908 -0.076 8.467 0.721 2.769 0.431 43.448 42.259
91.400 -19.389 -0.069 -19.409 -0.068 -19.780 -0.061 -19.790 -0.061 -19.608 -0.050 -19.902 -0.077 8.466 0.729 2.755 0.433 43.444 42.260
91.800 -19.377 -0.069 -19.397 -0.069 -19.771 -0.061 -19.781 -0.061 -19.597 -0.050 -19.895 -0.078 8.464 0.736 2.742 0.436 43.439 42.260
92.200 -19.365 -0.070 -19.386 -0.069 -19.761 -0.062 -19.772 -0.062 -19.586 -0.050 -19.889 -0.079 8.463 0.743 2.729 0.438 43.435 42.260
92.600 -19.354 -0.070 -19.374 -0.069 -19.752 -0.062 -19.762 -0.062 -19.576 -0.050 -19.883 -0.079 8.460 0.750 2.716 0.440 43.430 42.260
93.000 -19.342 -0.071 -19.362 -0.070 -19.742 -0.063 -19.753 -0.063 -19.565 -0.051 -19.876 -0.080 8.457 0.757 2.704 0.442 43.426 42.259
93.400 -19.330 -0.071 -19.351 -0.070 -19.733 -0.063 -19.744 -0.064 -19.554 -0.051 -19.870 -0.081 8.454 0.763 2.692 0.444 43.421 42.258
93.800 -19.319 -0.071 -19.339 -0.071 -19.724 -0.064 -19.734 -0.064 -19.544 -0.051 -19.864 -0.081 8.450 0.768 2.680 0.446 43.417 42.257
94.200 -19.307 -0.072 -19.327 -0.071 -19.714 -0.064 -19.725 -0.064 -19.533 -0.051 -19.858 -0.082 8.446 0.773 2.669 0.447 43.412 42.256
94.600 -19.295 -0.072 -19.316 -0.071 -19.705 -0.065 -19.716 -0.065 -19.523 -0.051 -19.852 -0.082 8.440 0.778 2.659 0.448 43.408 42.254
95.000 -19.283 -0.072 -19.304 -0.071 -19.696 -0.065 -19.707 -0.065 -19.513 -0.051 -19.846 -0.083 8.434 0.782 2.649 0.450 43.403 42.251
95.400 -19.272 -0.072 -19.292 -0.072 -19.686 -0.065 -19.698 -0.066 -19.503 -0.051 -19.840 -0.083 8.427 0.786 2.640 0.451 43.399 42.249
95.800 -19.260 -0.072 -19.281 -0.072 -19.677 -0.066 -19.688 -0.066 -19.493 -0.051 -19.834 -0.084 8.420 0.789 2.631 0.452 43.394 42.246
96.200 -19.248 -0.073 -19.269 -0.072 -19.667 -0.066 -19.679 -0.066 -19.483 -0.051 -19.828 -0.084 8.412 0.791 2.623 0.453 43.390 42.243
96.600 -19.236 -0.073 -19.257 -0.072 -19.658 -0.066 -19.670 -0.066 -19.474 -0.051 -19.822 -0.085 8.403 0.793 2.615 0.454 43.386 42.239
97.000 -19.225 -0.073 -19.246 -0.072 -19.649 -0.066 -19.661 -0.067 -19.464 -0.050 -19.816 -0.085 8.393 0.795 2.608 0.454 43.381 42.235
97.400 -19.213 -0.073 -19.234 -0.072 -19.640 -0.067 -19.652 -0.067 -19.455 -0.050 -19.810 -0.086 8.382 0.796 2.602 0.455 43.377 42.231
97.800 -19.201 -0.072 -19.222 -0.072 -19.630 -0.067 -19.643 -0.067 -19.446 -0.050 -19.805 -0.086 8.370 0.796 2.596 0.456 43.373 42.226
98.200 -19.190 -0.072 -19.211 -0.072 -19.621 -0.067 -19.634 -0.067 -19.437 -0.050 -19.799 -0.086 8.358 0.796 2.591 0.456 43.368 42.222
98.600 -19.178 -0.072 -19.199 -0.071 -19.612 -0.067 -19.625 -0.067 -19.428 -0.050 -19.793 -0.087 8.345 0.795 2.587 0.456 43.364 42.217
99.000 -19.166 -0.072 -19.187 -0.071 -19.603 -0.067 -19.616 -0.067 -19.420 -0.050 -19.787 -0.087 8.330 0.794 2.583 0.457 43.360 42.211
99.400 -19.154 -0.072 -19.176 -0.071 -19.594 -0.067 -19.607 -0.067 -19.411 -0.050 -19.782 -0.087 8.315 0.792 2.580 0.457 43.356 42.205
99.800 -19.143 -0.071 -19.164 -0.071 -19.585 -0.067 -19.598 -0.067 -19.403 -0.050 -19.776 -0.087 8.299 0.789 2.578 0.457 43.351 42.199
100.200 -19.131 -0.071 -19.152 -0.070 -19.576 -0.066 -19.590 -0.067 -19.395 -0.050 -19.771 -0.088 8.282 0.786 2.576 0.457 43.347 42.193
100.600 -19.120 -0.071 -19.141 -0.070 -19.567 -0.066 -19.581 -0.067 -19.387 -0.050 -19.765 -0.088 8.264 0.782 2.576 0.457 43.343 42.186
101.000 -19.108 -0.070 -19.129 -0.069 -19.558 -0.066 -19.572 -0.066 -19.379 -0.050 -19.760 -0.088 8.244 0.778 2.576 0.457 43.339 42.179
101.400 -19.096 -0.070 -19.118 -0.069 -19.549 -0.066 -19.564 -0.066 -19.371 -0.050 -19.754 -0.088 8.224 0.773 2.577 0.457 43.335 42.172
101.800 -19.085 -0.069 -19.106 -0.068 -19.540 -0.065 -19.555 -0.066 -19.364 -0.050 -19.749 -0.088 8.202 0.768 2.579 0.457 43.332 42.165
102.200 -19.073 -0.068 -19.095 -0.068 -19.531 -0.065 -19.547 -0.065 -19.357 -0.050 -19.744 -0.088 8.179 0.762 2.582 0.457 43.328 42.157
102.600 -19.062 -0.068 -19.084 -0.067 -19.523 -0.065 -19.538 -0.065 -19.350 -0.049 -19.739 -0.088 8.157 0.756 2.585 0.456 43.324 42.150
103.000 -19.051 -0.067 -19.072 -0.066 -19.514 -0.064 -19.530 -0.065 -19.343 -0.049 -19.733 -0.088 8.133 0.749 2.590 0.456 43.320 42.142
103.400 -19.039 -0.066 -19.061 -0.066 -19.506 -0.064 -19.521 -0.064 -19.336 -0.049 -19.728 -0.088 8.107 0.741 2.595 0.456 43.317 42.133
103.800 -19.028 -0.066 -19.050 -0.065 -19.497 -0.063 -19.513 -0.064 -19.330 -0.049 -19.723 -0.088 8.080 0.733 2.602 0.456 43.313 42.125
104.200 -19.017 -0.065 -19.038 -0.064 -19.489 -0.063 -19.505 -0.063 -19.324 -0.049 -19.718 -0.088 8.051 0.724 2.610 0.456 43.310 42.117
104.600 -19.005 -0.064 -19.027 -0.063 -19.480 -0.062 -19.497 -0.063 -19.318 -0.049 -19.713 -0.088 8.022 0.715 2.619 0.455 43.306 42.108
105.000 -18.994 -0.063 -19.016 -0.062 -19.472 -0.061 -19.489 -0.062 -19.312 -0.049 -19.708 -0.088 7.991 0.705 2.629 0.455 43.303 42.100
105.400 -18.983 -0.062 -19.005 -0.061 -19.464 -0.061 -19.481 -0.061 -19.306 -0.049 -19.703 -0.088 7.960 0.695 2.640 0.455 43.300 42.092
105.800 -18.972 -0.061 -18.994 -0.061 -19.455 -0.060 -19.473 -0.061 -19.301 -0.049 -19.698 -0.087 7.928 0.685 2.652 0.454 43.297 42.084
106.200 -18.961 -0.060 -18.983 -0.059 -19.447 -0.059 -19.465 -0.060 -19.296 -0.049 -19.693 -0.087 7.894 0.674 2.665 0.454 43.294 42.076
106.600 -18.950 -0.059 -18.972 -0.058 -19.439 -0.058 -19.457 -0.059 -19.291 -0.050 -19.688 -0.087 7.860 0.663 2.679 0.454 43.291 42.068
107.000 -18.939 -0.058 -18.961 -0.057 -19.431 -0.057 -19.450 -0.058 -19.286 -0.050 -19.684 -0.087 7.826 0.651 2.694 0.454 43.288 42.061
107.400 -18.928 -0.057 -18.950 -0.056 -19.423 -0.056 -19.442 -0.058 -19.281 -0.050 -19.679 -0.086 7.790 0.640 2.710 0.453 43.285 42.054
107.800 -18.918 -0.055 -18.940 -0.055 -19.415 -0.056 -19.435 -0.057 -19.277 -0.050 -19.674 -0.086 7.754 0.628 2.727 0.453 43.282 42.048
108.200 -18.907 -0.054 -18.929 -0.054 -19.408 -0.055 -19.427 -0.056 -19.272 -0.050 -19.669 -0.086 7.718 0.616 2.745 0.453 43.280 42.042
108.600 -18.896 -0.053 -18.919 -0.053 -19.400 -0.054 -19.420 -0.055 -19.268 -0.050 -19.665 -0.085 7.680 0.604 2.764 0.452 43.277 42.037
109.000 -18.886 -0.052 -18.908 -0.051 -19.392 -0.053 -19.412 -0.054 -19.264 -0.050 -19.660 -0.085 7.643 0.592 2.783 0.452 43.275 42.032
109.400 -18.875 -0.050 -18.898 -0.050 -19.385 -0.052 -19.405 -0.053 -19.260 -0.050 -19.656 -0.085 7.605 0.579 2.804 0.451 43.273 42.028
109.800 -18.865 -0.049 -18.887 -0.049 -19.377 -0.050 -19.398 -0.052 -19.256 -0.050 -19.651 -0.084 7.566 0.567 2.825 0.451 43.270 42.024
110.200 -18.855 -0.048 -18.877 -0.047 -19.370 -0.049 -19.391 -0.051 -19.252 -0.050 -19.647 -0.084 7.527 0.554 2.848 0.450 43.268 42.021
110.600 -18.845 -0.046 -18.867 -0.046 -19.362 -0.048 -19.384 -0.050 -19.249 -0.050 -19.642 -0.084 7.488 0.542 2.871 0.450 43.266 42.019
111.000 -18.835 -0.045 -18.857 -0.044 -19.355 -0.047 -19.377 -0.049 -19.246 -0.050 -19.638 -0.083 7.449 0.529 2.895 0.449 43.265 42.017
111.400 -18.825 -0.043 -18.847 -0.043 -19.348 -0.046 -19.370 -0.048 -19.242 -0.050 -19.633 -0.083 7.409 0.516 2.921 0.448 43.263 42.016
111.800 -18.815 -0.042 -18.837 -0.041 -19.341 -0.045 -19.363 -0.047 -19.239 -0.050 -19.629 -0.083 7.369 0.504 2.947 0.448 43.261 42.015
112.200 -18.805 -0.040 -18.828 -0.040 -19.334 -0.043 -19.356 -0.046 -19.236 -0.050 -19.625 -0.082 7.329 0.491 2.973 0.447 43.260 42.015
112.600 -18.795 -0.038 -18.818 -0.038 -19.326 -0.042 -19.350 -0.044 -19.233 -0.050 -19.621 -0.082 7.289 0.479 3.001 0.446 43.258 42.015
113.000 -18.786 -0.037 -18.808 -0.037 -19.320 -0.041 -19.343 -0.043 -19.230 -0.050 -19.616 -0.081 7.249 0.466 3.029 0.445 43.257 42.016
113.400 -18.776 -0.035 -18.799 -0.035 -19.313 -0.040 -19.336 -0.042 -19.228 -0.050 -19.612 -0.081 7.210 0.454 3.058 0.444 43.255 42.017
113.800 -18.767 -0.034 -18.790 -0.034 -19.306 -0.039 -19.330 -0.041 -19.225 -0.050 -19.608 -0.081 7.170 0.441 3.088 0.442 43.254 42.018
114.200 -18.758 -0.032 -18.780 -0.032 -19.299 -0.037 -19.323 -0.040 -19.222 -0.050 -19.604 -0.080 7.131 0.429 3.118 0.441 43.253 42.019
114.600 -18.749 -0.031 -18.771 -0.031 -19.292 -0.036 -19.317 -0.039 -19.220 -0.050 -19.600 -0.080 7.092 0.417 3.148 0.439 43.252 42.021
115.000 -18.740 -0.029 -18.762 -0.029 -19.286 -0.035 -19.311 -0.038 -19.218 -0.050 -19.596 -0.080 7.054 0.405 3.178 0.437 43.251 42.022
115.400 -18.731 -0.028 -18.754 -0.028 -19.279 -0.034 -19.304 -0.037 -19.215 -0.050 -19.592 -0.079 7.017 0.393 3.208 0.435 43.250 42.024
115.800 -18.722 -0.026 -18.745 -0.026 -19.272 -0.033 -19.298 -0.037 -19.213 -0.050 -19.588 -0.079 6.982 0.382 3.238 0.433 43.249 42.025
116.200 -18.713 -0.025 -18.736 -0.025 -19.266 -0.032 -19.292 -0.036 -19.211 -0.050 -19.584 -0.079 6.947 0.371 3.266 0.430 43.248 42.026
116.600 -18.705 -0.024 -18.728 -0.024 -19.259 -0.031 -19.286 -0.035 -19.209 -0.050 -19.580 -0.079 6.915 0.361 3.294 0.427 43.247 42.027
117.000 -18.697 -0.023 -18.720 -0.023 -19.253 -0.031 -19.279 -0.035 -19.207 -0.050 -19.576 -0.078 6.884 0.351 3.319 0.424 43.246 42.027
117.400 -18.688 -0.022 -18.711 -0.022 -19.247 -0.030 -19.273 -0.034 -19.204 -0.050 -19.572 -0.078 6.856 0.342 3.342 0.421 43.245 42.027
117.800 -18.680 -0.021 -18.703 -0.021 -19.240 -0.030 -19.267 -0.034 -19.202 -0.050 -19.568 -0.078 6.831 0.334 3.362 0.418 43.244 42.026
118.200 -18.672 -0.020 -18.696 -0.021 -19.234 -0.029 -19.261 -0.033 -19.200 -0.050 -19.564 -0.078 6.809 0.327 3.379 0.414 43.243 42.024
118.600 -18.665 -0.020 -18.688 -0.020 -19.228 -0.029 -19.255 -0.033 -19.199 -0.050 -19.560 -0.078 6.790 0.321 3.392 0.411 43.241 42.021
119.000 -18.657 -0.020 -18.680 -0.020 -19.222 -0.029 -19.249 -0.033 -19.197 -0.050 -19.556 -0.078 6.775 0.317 3.400 0.408 43.240 42.018
119.400 -18.650 -0.020 -18.673 -0.020 -19.215 -0.029 -19.244 -0.033 -19.195 -0.050 -19.553 -0.078 6.764 0.313 3.404 0.406 43.238 42.014
119.800 -18.642 -0.020 -18.666 -0.021 -19.209 -0.030 -19.238 -0.034 -19.193 -0.050 -19.549 -0.078 6.756 0.311 3.405 0.403 43.236 42.010
120.200 -18.635 -0.021 -18.658 -0.021 -19.203 -0.030 -19.232 -0.034 -19.191 -0.050 -19.545 -0.078 6.752 0.309 3.400 0.400 43.234 42.004
120.600 -18.628 -0.022 -18.652 -0.022 -19.197 -0.031 -19.226 -0.035 -19.189 -0.050 -19.541 -0.078 6.750 0.309 3.393 0.397 43.231 41.998
121.000 -18.622 -0.023 -18.645 -0.023 -19.191 -0.031 -19.220 -0.035 -19.187 -0.050 -19.538 -0.078 6.750 0.308 3.383 0.394 43.229 41.991
121.400 -18.615 -0.024 -18.638 -0.024 -19.185 -0.032 -19.215 -0.036 -19.185 -0.050 -19.534 -0.079 6.751 0.308 3.372 0.391 43.226 41.984
121.800 -18.608 -0.025 -18.631 -0.026 -19.179 -0.033 -19.209 -0.037 -19.183 -0.050 -19.530 -0.079 6.753 0.308 3.360 0.388 43.224 41.977
122.200 -18.602 -0.027 -18.625 -0.027 -19.173 -0.034 -19.203 -0.038 -19.182 -0.050 -19.527 -0.079 6.756 0.308 3.347 0.384 43.221 41.969
122.600 -18.596 -0.028 -18.619 -0.028 -19.167 -0.035 -19.198 -0.038 -19.180 -0.050 -19.523 -0.079 6.760 0.308 3.334 0.381 43.218 41.961
123.000 -18.589 -0.029 -18.613 -0.030 -19.161 -0.037 -19.192 -0.039 -19.178 -0.050 -19.520 -0.080 6.763 0.308 3.320 0.377 43.216 41.953
123.400 -18.583 -0.031 -18.607 -0.031 -19.156 -0.038 -19.187 -0.040 -19.176 -0.050 -19.516 -0.080 6.766 0.308 3.308 0.373 43.213 41.945
123.800 -18.578 -0.032 -18.601 -0.032 -19.150 -0.039 -19.181 -0.042 -19.174 -0.050 -19.512 -0.080 6.769 0.307 3.295 0.369 43.211 41.937
124.200 -18.572 -0.034 -18.595 -0.034 -19.144 -0.040 -19.176 -0.043 -19.172 -0.050 -19.509 -0.081 6.772 0.306 3.283 0.365 43.208 41.929
124.600 -18.566 -0.035 -18.589 -0.035 -19.139 -0.042 -19.170 -0.044 -19.170 -0.050 -19.505 -0.081 6.774 0.305 3.272 0.361 43.206 41.921
125.000 -18.561 -0.037 -18.584 -0.037 -19.133 -0.043 -19.165 -0.045 -19.168 -0.050 -19.502 -0.081 6.776 0.304 3.262 0.357 43.204 41.913
125.400 -18.555 -0.038 -18.578 -0.038 -19.128 -0.044 -19.160 -0.046 -19.166 -0.051 -19.498 -0.082 6.778 0.303 3.252 0.353 43.201 41.905
125.800 -18.550 -0.040 -18.573 -0.040 -19.122 -0.045 -19.154 -0.047 -19.164 -0.051 -19.495 -0.082 6.779 0.301 3.242 0.349 43.199 41.897
126.200 -18.545 -0.041 -18.568 -0.041 -19.117 -0.047 -19.149 -0.049 -19.162 -0.051 -19.491 -0.083 6.780 0.300 3.234 0.345 43.197 41.889
126.600 -18.539 -0.042 -18.563 -0.042 -19.111 -0.048 -19.144 -0.050 -19.160 -0.051 -19.488 -0.083 6.780 0.298 3.226 0.341 43.195 41.882
127.000 -18.534 -0.044 -18.558 -0.044 -19.106 -0.049 -19.139 -0.051 -19.157 -0.051 -19.485 -0.083 6.780 0.296 3.218 0.337 43.193 41.875
127.400 -18.530 -0.045 -18.553 -0.045 -19.101 -0.051 -19.134 -0.052 -19.155 -0.051 -19.481 -0.084 6.779 0.294 3.212 0.333 43.191 41.867
127.800 -18.525 -0.046 -18.548 -0.046 -19.095 -0.052 -19.129 -0.053 -19.153 -0.051 -19.478 -0.084 6.779 0.292 3.205 0.330 43.189 41.860
128.200 -18.520 -0.047 -18.543 -0.047 -19.090 -0.053 -19.124 -0.054 -19.151 -0.051 -19.474 -0.084 6.778 0.290 3.199 0.326 43.187 41.854
128.600 -18.515 -0.049 -18.539 -0.048 -19.085 -0.054 -19.119 -0.055 -19.149 -0.052 -19.471 -0.085 6.776 0.288 3.194 0.323 43.185 41.847
129.000 -18.511 -0.050 -18.534 -0.050 -19.080 -0.055 -19.114 -0.057 -19.146 -0.052 -19.468 -0.085 6.775 0.286 3.188 0.319 43.184 41.841
129.400 -18.506 -0.051 -18.530 -0.051 -19.075 -0.057 -19.109 -0.058 -19.144 -0.052 -19.464 -0.086 6.773 0.284 3.183 0.316 43.182 41.834
129.800 -18.502 -0.052 -18.525 -0.052 -19.070 -0.058 -19.104 -0.059 -19.142 -0.052 -19.461 -0.086 6.772 0.282 3.179 0.313 43.180 41.828
130.200 -18.498 -0.053 -18.521 -0.053 -19.065 -0.059 -19.099 -0.060 -19.139 -0.052 -19.458 -0.086 6.770 0.280 3.174 0.310 43.178 41.822
130.600 -18.494 -0.054 -18.517 -0.054 -19.060 -0.060 -19.094 -0.061 -19.137 -0.052 -19.454 -0.087 6.768 0.278 3.170 0.306 43.177 41.816
131.000 -18.490 -0.055 -18.513 -0.055 -19.055 -0.061 -19.090 -0.062 -19.134 -0.053 -19.451 -0.087 6.766 0.276 3.166 0.303 43.175 41.811
131.400 -18.486 -0.056 -18.509 -0.055 -19.050 -0.062 -19.085 -0.063 -19.132 -0.053 -19.448 -0.087 6.764 0.274 3.162 0.300 43.174 41.805
131.800 -18.482 -0.057 -18.505 -0.056 -19.045 -0.063 -19.080 -0.064 -19.129 -0.053 -19.445 -0.088 6.762 0.272 3.158 0.298 43.172 41.799
132.200 -18.478 -0.057 -18.501 -0.057 -19.041 -0.064 -19.076 -0.065 -19.127 -0.053 -19.441 -0.088 6.760 0.270 3.155 0.295 43.171 41.794
132.600 -18.474 -0.058 -18.497 -0.058 -19.036 -0.065 -19.071 -0.065 -19.124 -0.053 -19.438 -0.088 6.758 0.268 3.151 0.292 43.169 41.789
133.000 -18.470 -0.059 -18.493 -0.058 -19.031 -0.066 -19.066 -0.066 -19.122 -0.054 -19.435 -0.088 6.756 0.266 3.148 0.289 43.168 41.784
133.400 -18.466 -0.059 -18.489 -0.059 -19.027 -0.066 -19.062 -0.067 -19.119 -0.054 -19.432 -0.089 6.754 0.264 3.145 0.287 43.166 41.779
133.800 -18.463 -0.060 -18.486 -0.060 -19.022 -0.067 -19.057 -0.068 -19.117 -0.054 -19.429 -0.089 6.752 0.262 3.142 0.284 43.165 41.774
134.200 -18.459 -0.061 -18.482 -0.060 -19.018 -0.068 -19.053 -0.069 -19.114 -0.054 -19.425 -0.089 6.749 0.260 3.139 0.281 43.163 41.769
134.600 -18.456 -0.061 -18.479 -0.061 -19.013 -0.069 -19.049 -0.069 -19.112 -0.054 -19.422 -0.089 6.747 0.258 3.136 0.279 43.162 41.765
135.000 -18.452 -0.062 -18.475 -0.061 -19.009 -0.070 -19.044 -0.070 -19.109 -0.055 -19.419 -0.089 6.745 0.256 3.133 0.276 43.161 41.760
135.400 -18.449 -0.062 -18.472 -0.061 -19.004 -0.070 -19.040 -0.071 -19.107 -0.055 -19.416 -0.090 6.743 0.253 3.130 0.274 43.159 41.755
135.800 -18.446 -0.062 -18.469 -0.062 -19.000 -0.071 -19.036 -0.071 -19.104 -0.055 -19.413 -0.090 6.741 0.251 3.127 0.272 43.158 41.751
136.200 -18.442 -0.063 -18.465 -0.062 -18.996 -0.072 -19.031 -0.072 -19.102 -0.055 -19.410 -0.090 6.739 0.249 3.124 0.269 43.157 41.747
136.600 -18.439 -0.063 -18.462 -0.062 -18.991 -0.072 -19.027 -0.072 -19.099 -0.055 -19.407 -0.090 6.737 0.247 3.122 0.267 43.155 41.742
137.000 -18.436 -0.063 -18.459 -0.063 -18.987 -0.073 -19.023 -0.073 -19.097 -0.056 -19.403 -0.090 6.735 0.245 3.119 0.264 43.154 41.738
137.400 -18.433 -0.064 -18.456 -0.063 -18.983 -0.073 -19.019 -0.074 -19.094 -0.056 -19.400 -0.090 6.733 0.243 3.116 0.262 43.153 41.734
137.800 -18.430 -0.064 -18.452 -0.063 -18.979 -0.074 -19.014 -0.074 -19.092 -0.056 -19.397 -0.090 6.732 0.241 3.113 0.260 43.152 41.730
138.200 -18.427 -0.064 -18.449 -0.063 -18.974 -0.074 -19.010 -0.075 -19.089 -0.056 -19.394 -0.090 6.730 0.239 3.110 0.257 43.150 41.726
138.600 -18.423 -0.064 -18.446 -0.063 -18.970 -0.075 -19.006 -0.075 -19.087 -0.056 -19.391 -0.090 6.729 0.237 3.107 0.255 43.149 41.722
139.000 -18.421 -0.064 -18.443 -0.063 -18.966 -0.075 -19.002 -0.075 -19.084 -0.056 -19.388 -0.091 6.727 0.235 3.104 0.253 43.148 41.718
139.400 -18.418 -0.064 -18.440 -0.063 -18.962 -0.076 -18.998 -0.076 -19.082 -0.057 -19.385 -0.091 6.726 0.233 3.101 0.251 43.147 41.714
139.800 -18.415 -0.064 -18.437 -0.063 -18.958 -0.076 -18.994 -0.076 -19.079 -0.057 -19.382 -0.091 6.725 0.231 3.098 0.249 43.146 41.710
140.200 -18.412 -0.064 -18.435 -0.063 -18.954 -0.076 -18.990 -0.077 -19.077 -0.057 -19.379 -0.091 6.723 0.229 3.095 0.246 43.144 41.706
140.600 -18.409 -0.064 -18.432 -0.063 -18.950 -0.077 -18.986 -0.077 -19.074 -0.057 -19.376 -0.091 6.722 0.227 3.091 0.244 43.143 41.702
141.000 -18.406 -0.064 -18.429 -0.063 -18.946 -0.077 -18.982 -0.077 -19.072 -0.057 -19.373 -0.091 6.721 0.225 3.088 0.242 43.142 41.698
141.400 -18.403 -0.064 -18.426 -0.063 -18.942 -0.077 -18.978 -0.078 -19.069 -0.058 -19.369 -0.091 6.720 0.223 3.085 0.240 43.141 41.694
141.800 -18.401 -0.064 -18.423 -0.063 -18.938 -0.078 -18.974 -0.078 -19.067 -0.058 -19.366 -0.091 6.720 0.221 3.082 0.238 43.140 41.690
142.200 -18.398 -0.064 -18.420 -0.063 -18.934 -0.078 -18.970 -0.078 -19.064 -0.058 -19.363 -0.091 6.719 0.219 3.078 0.236 43.139 41.687
142.600 -18.395 -0.064 -18.418 -0.063 -18.930 -0.078 -18.966 -0.079 -19.062 -0.058 -19.360 -0.092 6.718 0.218 3.075 0.234 43.137 41.683
143.000 -18.392 -0.064 -18.415 -0.063 -18.926 -0.079 -18.962 -0.079 -19.059 -0.058 -19.357 -0.092 6.717 0.216 3.072 0.232 43.136 41.679
143.400 -18.390 -0.064 -18.412 -0.063 -18.922 -0.079 -18.959 -0.079 -19.057 -0.059 -19.354 -0.092 6.717 0.214 3.068 0.230 43.135 41.675
143.800 -18.387 -0.064 -18.409 -0.062 -18.919 -0.079 -18.955 -0.079 -19.054 -0.059 -19.351 -0.092 6.716 0.212 3.065 0.228 43.134 41.671
144.200 -18.384 -0.064 -18.407 -0.062 -18.915 -0.080 -18.951 -0.080 -19.052 -0.059 -19.348 -0.092 6.715 0.210 3.061 0.226 43.133 41.668
144.600 -18.382 -0.063 -18.404 -0.062 -18.911 -0.080 -18.947 -0.080 -19.049 -0.059 -19.345 -0.093 6.715 0.208 3.058 0.224 43.132 41.664
145.000 -18.379 -0.063 -18.401 -0.062 -18.907 -0.080 -18.943 -0.080 -19.047 -0.060 -19.342 -0.093 6.714 0.207 3.054 0.222 43.131 41.660
145.400 -18.376 -0.063 -18.399 -0.062 -18.903 -0.081 -18.939 -0.081 -19.044 -0.060 -19.339 -0.093 6.714 0.205 3.051 0.220 43.130 41.657
145.800 -18.374 -0.064 -18.396 -0.062 -18.899 -0.081 -18.935 -0.081 -19.042 -0.060 -19.336 -0.094 6.713 0.203 3.048 0.218 43.128 41.653
146.200 -18.371 -0.064 -18.393 -0.062 -18.896 -0.081 -18.932 -0.082 -19.039 -0.061 -19.333 -0.094 6.713 0.201 3.044 0.216 43.127 41.649
146.600 -18.369 -0.064 -18.391 -0.062 -18.892 -0.082 -18.928 -0.082 -19.037 -0.061 -19.330 -0.094 6.712 0.200 3.041 0.214 43.126 41.645
147.000 -18.366 -0.064 -18.388 -0.062 -18.888 -0.082 -18.924 -0.082 -19.034 -0.062 -19.327 -0.095 6.712 0.198 3.037 0.213 43.125 41.642
147.400 -18.363 -0.064 -18.386 -0.063 -18.884 -0.082 -18.920 -0.083 -19.032 -0.062 -19.324 -0.095 6.711 0.197 3.034 0.211 43.124 41.638
147.800 -18.361 -0.064 -18.383 -0.063 -18.880 -0.083 -18.916 -0.083 -19.029 -0.063 -19.321 -0.096 6.711 0.195 3.031 0.209 43.123 41.634
148.200 -18.358 -0.065 -18.380 -0.063 -18.876 -0.083 -18.912 -0.084 -19.027 -0.064 -19.317 -0.097 6.710 0.194 3.028 0.208 43.122 41.631
148.600 -18.356 -0.065 -18.378 -0.064 -18.873 -0.084 -18.909 -0.084 -19.024 -0.064 -19.314 -0.097 6.709 0.192 3.025 0.206 43.121 41.627
149.000 -18.353 -0.066 -18.375 -0.064 -18.869 -0.085 -18.905 -0.085 -19.022 -0.065 -19.311 -0.098 6.709 0.191 3.022 0.204 43.120 41.623
149.400 -18.350 -0.066 -18.372 -0.065 -18.865 -0.085 -18.901 -0.085 -19.020 -0.066 -19.308 -0.099 6.708 0.190 3.019 0.203 43.119 41.619
149.800 -18.348 -0.067 -18.370 -0.065 -18.861 -0.086 -18.897 -0.086 -19.017 -0.067 -19.305 -0.100 6.707 0.188 3.016 0.201 43.118 41.615
150.200 -18.345 -0.068 -18.367 -0.066 -18.857 -0.086 -18.893 -0.087 -19.015 -0.068 -19.302 -0.101 6.706 0.187 3.013 0.200 43.117 41.612
150.600 -18.342 -0.069 -18.364 -0.067 -18.853 -0.087 -18.889 -0.088 -19.012 -0.069 -19.299 -0.102 6.705 0.186 3.011 0.199 43.116 41.608
151.000 -18.340 -0.070 -18.362 -0.068 -18.850 -0.088 -18.885 -0.088 -19.010 -0.070 -19.296 -0.103 6.704 0.185 3.008 0.197 43.115 41.604
151.400 -18.337 -0.071 -18.359 -0.069 -18.846 -0.089 -18.882 -0.089 -19.007 -0.071 -19.293 -0.104 6.703 0.184 3.005 0.196 43.114 41.600
151.800 -18.334 -0.072 -18.356 -0.070 -18.842 -0.090 -18.878 -0.090 -19.005 -0.072 -19.289 -0.106 6.702 0.183 3.003 0.194 43.113 41.596
152.200 -18.332 -0.073 -18.354 -0.072 -18.838 -0.091 -18.874 -0.091 -19.002 -0.074 -19.286 -0.107 6.700 0.182 3.000 0.193 43.112 41.592
152.600 -18.329 -0.075 -18.351 -0.073 -18.834 -0.092 -18.870 -0.092 -19.000 -0.075 -19.283 -0.108 6.699 0.181 2.998 0.192 43.110 41.588
153.000 -18.326 -0.076 -18.348 -0.074 -18.830 -0.093 -18.866 -0.093 -18.997 -0.076 -19.280 -0.110 6.698 0.180 2.995 0.191 43.109 41.584
153.400 -18.324 -0.078 -18.345 -0.076 -18.826 -0.094 -18.862 -0.094 -18.995 -0.078 -19.277 -0.111 6.697 0.179 2.993 0.189 43.108 41.580
153.800 -18.321 -0.079 -18.343 -0.077 -18.822 -0.095 -18.858 -0.095 -18.992 -0.079 -19.274 -0.113 6.695 0.178 2.990 0.188 43.107 41.576
154.200 -18.318 -0.081 -18.340 -0.079 -18.818 -0.096 -18.854 -0.096 -18.990 -0.081 -19.271 -0.114 6.694 0.177 2.987 0.187 43.106 41.572
154.600 -18.315 -0.083 -18.337 -0.081 -18.814 -0.097 -18.850 -0.098 -18.987 -0.083 -19.267 -0.116 6.693 0.176 2.985 0.186 43.105 41.568
155.000 -18.313 -0.085 -18.334 -0.083 -18.810 -0.098 -18.846 -0.099 -18.985 -0.084 -19.264 -0.118 6.692 0.175 2.982 0.185 43.104 41.564
155.400 -18.310 -0.087 -18.331 -0.085 -18.806 -0.100 -18.842 -0.100 -18.982 -0.086 -19.261 -0.119 6.690 0.174 2.980 0.184 43.103 41.559
155.800 -18.307 -0.089 -18.329 -0.086 -18.802 -0.101 -18.838 -0.102 -18.980 -0.088 -19.258 -0.121 6.689 0.173 2.977 0.182 43.102 41.555
156.200 -18.304 -0.091 -18.326 -0.088 -18.798 -0.102 -18.834 -0.103 -18.977 -0.090 -19.255 -0.123 6.688 0.173 2.974 0.181 43.101 41.551
156.600 -18.301 -0.093 -18.323 -0.091 -18.794 -0.104 -18.830 -0.104 -18.975 -0.091 -19.251 -0.125 6.687 0.172 2.971 0.180 43.100 41.547
157.000 -18.299 -0.095 -18.320 -0.093 -18.790 -0.105 -18.826 -0.106 -18.972 -0.093 -19.248 -0.127 6.685 0.171 2.969 0.179 43.098 41.543
157.400 -18.296 -0.097 -18.317 -0.095 -18.786 -0.106 -18.822 -0.107 -18.970 -0.095 -19.245 -0.129 6.684 0.170 2.966 0.178 43.097 41.539
157.800 -18.293 -0.099 -18.314 -0.097 -18.782 -0.108 -18.818 -0.109 -18.967 -0.097 -19.242 -0.131 6.683 0.170 2.963 0.177 43.096 41.535
158.200 -18.290 -0.101 -18.311 -0.099 -18.778 -0.110 -18.814 -0.110 -18.965 -0.099 -19.238 -0.133 6.682 0.169 2.960 0.176 43.095 41.531
158.600 -18.287 -0.104 -18.308 -0.102 -18.774 -0.111 -18.810 -0.112 -18.962 -0.101 -19.235 -0.135 6.681 0.168 2.957 0.175 43.094 41.527
159.000 -18.284 -0.106 -18.305 -0.104 -18.770 -0.113 -18.806 -0.114 -18.960 -0.103 -19.232 -0.137 6.679 0.167 2.954 0.174 43.093 41.523
159.400 -18.281 -0.108 -18.302 -0.106 -18.766 -0.114 -18.802 -0.115 -18.957 -0.105 -19.229 -0.139 6.678 0.167 2.951 0.173 43.091 41.519
159.800 -18.278 -0.111 -18.299 -0.109 -18.762 -0.116 -18.797 -0.117 -18.954 -0.107 -19.225 -0.142 6.677 0.166 2.948 0.172 43.090 41.515
160.200 -18.275 -0.113 -18.296 -0.111 -18.758 -0.118 -18.793 -0.119 -18.952 -0.109 -19.222 -0.144 6.676 0.165 2.944 0.171 43.089 41.511
160.600 -18.273 -0.116 -18.293 -0.114 -18.754 -0.120 -18.789 -0.120 -18.949 -0.111 -19.219 -0.146 6.675 0.165 2.941 0.170 43.088 41.507
161.000 -18.270 -0.118 -18.290 -0.116 -18.750 -0.121 -18.785 -0.122 -18.947 -0.113 -19.216 -0.148 6.674 0.164 2.938 0.169 43.086 41.504
161.400 -18.267 -0.121 -18.287 -0.119 -18.746 -0.123 -18.781 -0.124 -18.944 -0.115 -19.212 -0.151 6.673 0.164 2.935 0.168 43.085 41.500
161.800 -18.264 -0.123 -18.284 -0.121 -18.742 -0.125 -18.777 -0.126 -18.941 -0.118 -19.209 -0.153 6.672 0.163 2.931 0.168 43.084 41.497
162.200 -18.261 -0.126 -18.281 -0.124 -18.737 -0.127 -18.773 -0.128 -18.939 -0.120 -19.206 -0.155 6.671 0.162 2.928 0.167 43.083 41.493
162.600 -18.258 -0.129 -18.278 -0.126 -18.733 -0.129 -18.769 -0.129 -18.936 -0.122 -19.202 -0.158 6.670 0.162 2.925 0.166 43.081 41.489
163.000 -18.254 -0.131 -18.275 -0.129 -18.729 -0.131 -18.765 -0.131 -18.933 -0.124 -19.199 -0.160 6.668 0.161 2.921 0.165 43.080 41.486
163.400 -18.251 -0.134 -18.272 -0.132 -18.725 -0.133 -18.760 -0.133 -18.931 -0.126 -19.196 -0.163 6.667 0.161 2.918 0.164 43.079 41.483
163.800 -18.248 -0.137 -18.269 -0.134 -18.721 -0.134 -18.756 -0.135 -18.928 -0.129 -19.192 -0.165 6.666 0.160 2.914 0.164 43.077 41.479
164.200 -18.245 -0.139 -18.266 -0.137 -18.717 -0.136 -18.752 -0.137 -18.925 -0.131 -19.189 -0.167 6.665 0.160 2.911 0.163 43.076 41.476
164.600 -18.242 -0.142 -18.263 -0.140 -18.713 -0.138 -18.748 -0.139 -18.922 -0.133 -19.185 -0.170 6.664 0.160 2.907 0.162 43.075 41.473
165.000 -18.239 -0.145 -18.259 -0.142 -18.708 -0.140 -18.744 -0.141 -18.920 -0.135 -19.182 -0.172 6.663 0.159 2.904 0.162 43.074 41.470
165.400 -18.236 -0.147 -18.256 -0.145 -18.704 -0.142 -18.739 -0.143 -18.917 -0.137 -19.179 -0.175 6.662 0.159 2.900 0.161 43.072 41.467
165.800 -18.233 -0.150 -18.253 -0.148 -18.700 -0.145 -18.735 -0.145 -18.914 -0.140 -19.175 -0.177 6.661 0.158 2.897 0.160 43.071 41.464
166.200 -18.230 -0.153 -18.250 -0.151 -18.696 -0.147 -18.731 -0.147 -18.911 -0.142 -19.172 -0.180 6.660 0.158 2.893 0.160 43.069 41.461
166.600 -18.226 -0.156 -18.247 -0.153 -18.692 -0.149 -18.727 -0.149 -18.908 -0.144 -19.168 -0.182 6.659 0.158 2.889 0.159 43.068 41.459
167.000 -18.223 -0.159 -18.243 -0.156 -18.687 -0.151 -18.723 -0.151 -18.906 -0.146 -19.165 -0.185 6.658 0.157 2.886 0.159 43.067 41.456
167.400 -18.220 -0.161 -18.240 -0.159 -18.683 -0.153 -18.718 -0.153 -18.903 -0.149 -19.162 -0.187 6.658 0.157 2.882 0.158 43.065 41.453
167.800 -18.217 -0.164 -18.237 -0.162 -18.679 -0.155 -18.714 -0.155 -18.900 -0.151 -19.158 -0.190 6.657 0.157 2.878 0.158 43.064 41.451
168.200 -18.214 -0.167 -18.234 -0.165 -18.675 -0.157 -18.710 -0.158 -18.897 -0.153 -19.155 -0.193 6.656 0.157 2.874 0.157 43.063 41.448
168.600 -18.210 -0.170 -18.230 -0.167 -18.670 -0.159 -18.706 -0.160 -18.894 -0.156 -19.151 -0.195 6.655 0.157 2.871 0.157 43.061 41.446
169.000 -18.207 -0.173 -18.227 -0.170 -18.666 -0.161 -18.701 -0.162 -18.891 -0.158 -19.148 -0.198 6.654 0.156 2.867 0.156 43.060 41.444
169.400 -18.204 -0.175 -18.224 -0.173 -18.662 -0.164 -18.697 -0.164 -18.888 -0.160 -19.144 -0.200 6.653 0.156 2.863 0.156 43.058 41.441
169.800 -18.201 -0.178 -18.220 -0.176 -18.658 -0.166 -18.693 -0.166 -18.885 -0.162 -19.141 -0.203 6.652 0.156 2.859 0.156 43.057 41.439
170.200 -18.197 -0.181 -18.217 -0.179 -18.653 -0.168 -18.689 -0.168 -18.882 -0.165 -19.137 -0.205 6.651 0.156 2.855 0.155 43.056 41.437
170.600 -18.194 -0.184 -18.214 -0.182 -18.649 -0.170 -18.684 -0.171 -18.879 -0.167 -19.134 -0.208 6.650 0.156 2.851 0.155 43.054 41.435
171.000 -18.191 -0.187 -18.210 -0.185 -18.645 -0.172 -18.680 -0.173 -18.876 -0.169 -19.130 -0.211 6.649 0.156 2.847 0.155 43.053 41.433
171.400 -18.187 -0.190 -18.207 -0.187 -18.641 -0.175 -18.676 -0.175 -18.873 -0.172 -19.127 -0.213 6.648 0.156 2.843 0.154 43.051 41.431
171.800 -18.184 -0.193 -18.204 -0.190 -18.636 -0.177 -18.671 -0.177 -18.870 -0.174 -19.123 -0.216 6.648 0.156 2.839 0.154 43.050 41.429
172.200 -18.180 -0.196 -18.200 -0.193 -18.632 -0.179 -18.667 -0.179 -18.867 -0.176 -19.120 -0.218 6.647 0.156 2.835 0.154 43.048 41.428
172.600 -18.177 -0.198 -18.197 -0.196 -18.628 -0.181 -18.663 -0.182 -18.864 -0.178 -19.116 -0.221 6.646 0.156 2.831 0.154 43.047 41.426
173.000 -18.174 -0.201 -18.193 -0.199 -18.623 -0.184 -18.659 -0.184 -18.861 -0.181 -19.112 -0.224 6.645 0.156 2.827 0.154 43.046 41.424
173.400 -18.170 -0.204 -18.190 -0.202 -18.619 -0.186 -18.654 -0.186 -18.858 -0.183 -19.109 -0.226 6.644 0.156 2.823 0.153 43.044 41.423
173.800 -18.167 -0.207 -18.186 -0.205 -18.615 -0.188 -18.650 -0.188 -18.855 -0.185 -19.105 -0.229 6.643 0.156 2.819 0.153 43.043 41.421
174.200 -18.163 -0.210 -18.183 -0.208 -18.610 -0.191 -18.646 -0.190 -18.852 -0.187 -19.102 -0.231 6.642 0.156 2.815 0.153 43.041 41.420
174.600 -18.160 -0.213 -18.179 -0.210 -18.606 -0.193 -18.641 -0.193 -18.849 -0.190 -19.098 -0.234 6.642 0.156 2.811 0.153 43.040 41.418
175.000 -18.156 -0.216 -18.176 -0.213 -18.602 -0.195 -18.637 -0.195 -18.845 -0.192 -19.094 -0.237 6.641 0.156 2.807 0.153 43.038 41.417
175.400 -18.153 -0.219 -18.172 -0.216 -18.597 -0.197 -18.632 -0.197 -18.842 -0.194 -19.091 -0.239 6.640 0.157 2.803 0.153 43.037 41.416
175.800 -18.150 -0.222 -18.169 -0.219 -18.593 -0.200 -18.628 -0.199 -18.839 -0.196 -19.087 -0.242 6.639 0.157 2.799 0.153 43.035 41.414
176.200 -18.146 -0.224 -18.165 -0.222 -18.588 -0.202 -18.624 -0.202 -18.836 -0.199 -19.083 -0.244 6.639 0.157 2.795 0.153 43.034 41.413
176.600 -18.142 -0.227 -18.162 -0.225 -18.584 -0.204 -18.619 -0.204 -18.833 -0.201 -19.080 -0.247 6.638 0.157 2.790 0.153 43.032 41.412
177.000 -18.139 -0.230 -18.158 -0.228 -18.580 -0.207 -18.615 -0.206 -18.829 -0.203 -19.076 -0.250 6.637 0.157 2.786 0.153 43.031 41.411
177.400 -18.135 -0.233 -18.154 -0.231 -18.575 -0.209 -18.611 -0.208 -18.826 -0.205 -19.072 -0.252 6.636 0.158 2.782 0.153 43.029 41.410
177.800 -18.132 -0.236 -18.151 -0.233 -18.571 -0.211 -18.606 -0.211 -18.823 -0.207 -19.069 -0.255 6.635 0.158 2.778 0.153 43.028 41.409
178.200 -18.128 -0.239 -18.147 -0.236 -18.567 -0.213 -18.602 -0.213 -18.819 -0.210 -19.065 -0.257 6.635 0.158 2.773 0.153 43.026 41.408
178.600 -18.125 -0.242 -18.144 -0.239 -18.562 -0.216 -18.597 -0.215 -18.816 -0.212 -19.061 -0.260 6.634 0.158 2.769 0.153 43.025 41.407
179.000 -18.121 -0.245 -18.140 -0.242 -18.558 -0.218 -18.593 -0.217 -18.813 -0.214 -19.058 -0.262 6.633 0.159 2.765 0.153 43.023 41.406
179.400 -18.117 -0.247 -18.136 -0.245 -18.553 -0.220 -18.589 -0.220 -18.809 -0.216 -19.054 -0.265 6.633 0.159 2.761 0.153 43.022 41.405
179.800 -18.114 -0.250 -18.133 -0.248 -18.549 -0.223 -18.584 -0.222 -18.806 -0.218 -19.050 -0.268 6.632 0.159 2.756 0.153 43.020 41.404
180.200 -18.110 -0.253 -18.129 -0.251 -18.544 -0.225 -18.580 -0.224 -18.803 -0.221 -19.046 -0.270 6.631 0.160 2.752 0.153 43.018 41.404
180.600 -18.107 -0.256 -18.125 -0.253 -18.540 -0.227 -18.575 -0.226 -18.799 -0.223 -19.042 -0.273 6.631 0.160 2.748 0.153 43.017 41.403
181.000 -18.103 -0.259 -18.122 -0.256 -18.535 -0.229 -18.571 -0.229 -18.796 -0.225 -19.039 -0.275 6.630 0.160 2.743 0.153 43.015 41.402
181.400 -18.099 -0.262 -18.118 -0.259 -18.531 -0.232 -18.566 -0.231 -18.792 -0.227 -19.035 -0.278 6.629 0.161 2.739 0.153 43.014 41.401
181.800 -18.096 -0.265 -18.114 -0.262 -18.527 -0.234 -18.562 -0.233 -18.789 -0.229 -19.031 -0.280 6.629 0.161 2.734 0.153 43.012 41.401
182.200 -18.092 -0.267 -18.110 -0.265 -18.522 -0.236 -18.557 -0.235 -18.785 -0.231 -19.027 -0.283 6.628 0.162 2.730 0.154 43.011 41.400
182.600 -18.088 -0.270 -18.107 -0.268 -18.518 -0.239 -18.553 -0.237 -18.782 -0.233 -19.023 -0.285 6.627 0.162 2.725 0.154 43.009 41.399
183.000 -18.084 -0.273 -18.103 -0.270 -18.513 -0.241 -18.548 -0.240 -18.778 -0.235 -19.020 -0.288 6.627 0.163 2.721 0.154 43.007 41.399
183.400 -18.081 -0.276 -18.099 -0.273 -18.509 -0.243 -18.544 -0.242 -18.775 -0.237 -19.016 -0.290 6.626 0.163 2.716 0.154 43.006 41.398
183.800 -18.077 -0.279 -18.095 -0.276 -18.504 -0.245 -18.539 -0.244 -18.771 -0.239 -19.012 -0.293 6.626 0.163 2.712 0.154 43.004 41.398
184.200 -18.073 -0.281 -18.092 -0.279 -18.500 -0.248 -18.535 -0.246 -18.768 -0.241 -19.008 -0.295 6.625 0.164 2.707 0.154 43.003 41.397
184.600 -18.069 -0.284 -18.088 -0.282 -18.495 -0.250 -18.530 -0.248 -18.764 -0.244 -19.004 -0.298 6.625 0.164 2.703 0.154 43.001 41.396
185.000 -18.066 -0.287 -18.084 -0.284 -18.491 -0.252 -18.526 -0.251 -18.760 -0.246 -19.000 -0.300 6.624 0.165 2.698 0.155 42.999 41.396
185.400 -18.062 -0.290 -18.080 -0.287 -18.486 -0.254 -18.521 -0.253 -18.757 -0.248 -18.996 -0.303 6.623 0.165 2.694 0.155 42.998 41.395
185.800 -18.058 -0.293 -18.076 -0.290 -18.482 -0.256 -18.517 -0.255 -18.753 -0.250 -18.992 -0.305 6.623 0.166 2.689 0.155 42.996 41.395
186.200 -18.054 -0.295 -18.072 -0.293 -18.477 -0.259 -18.512 -0.257 -18.750 -0.252 -18.988 -0.307 6.622 0.166 2.684 0.155 42.995 41.394
186.600 -18.051 -0.298 -18.069 -0.295 -18.472 -0.261 -18.508 -0.259 -18.746 -0.253 -18.984 -0.310 6.622 0.167 2.680 0.155 42.993 41.394
187.000 -18.047 -0.301 -18.065 -0.298 -18.468 -0.263 -18.503 -0.261 -18.742 -0.255 -18.980 -0.312 6.621 0.167 2.675 0.156 42.991 41.393
187.400 -18.043 -0.304 -18.061 -0.301 -18.463 -0.265 -18.499 -0.264 -18.738 -0.257 -18.976 -0.315 6.621 0.168 2.671 0.156 42.990 41.393
187.800 -18.039 -0.306 -18.057 -0.303 -18.459 -0.267 -18.494 -0.266 -18.735 -0.259 -18.972 -0.317 6.621 0.168 2.666 0.156 42.988 41.392
188.200 -18.035 -0.309 -18.053 -0.306 -18.454 -0.270 -18.490 -0.268 -18.731 -0.261 -18.968 -0.319 6.620 0.169 2.661 0.156 42.986 41.392
188.600 -18.031 -0.312 -18.049 -0.309 -18.450 -0.272 -18.485 -0.270 -18.727 -0.263 -18.964 -0.322 6.620 0.169 2.656 0.156 42.985 41.392
189.000 -18.027 -0.314 -18.045 -0.312 -18.445 -0.274 -18.480 -0.272 -18.723 -0.265 -18.960 -0.324 6.619 0.170 2.652 0.157 42.983 41.391
189.400 -18.023 -0.317 -18.041 -0.314 -18.441 -0.276 -18.476 -0.274 -18.720 -0.267 -18.956 -0.327 6.619 0.171 2.647 0.157 42.981 41.391
189.800 -18.020 -0.320 -18.037 -0.317 -18.436 -0.278 -18.471 -0.276 -18.716 -0.269 -18.952 -0.329 6.619 0.171 2.642 0.157 42.980 41.390
190.200 -18.016 -0.322 -18.033 -0.320 -18.431 -0.280 -18.467 -0.278 -18.712 -0.271 -18.948 -0.331 6.618 0.172 2.637 0.157 42.978 41.390
190.600 -18.012 -0.325 -18.029 -0.322 -18.427 -0.282 -18.462 -0.280 -18.708 -0.272 -18.944 -0.334 6.618 0.172 2.633 0.157 42.976 41.389
191.000 -18.008 -0.328 -18.025 -0.325 -18.422 -0.285 -18.458 -0.282 -18.704 -0.274 -18.940 -0.336 6.617 0.173 2.628 0.158 42.975 41.389
191.400 -18.004 -0.330 -18.021 -0.328 -18.418 -0.287 -18.453 -0.285 -18.700 -0.276 -18.936 -0.338 6.617 0.173 2.623 0.158 42.973 41.388
191.800 -18.000 -0.333 -18.018 -0.330 -18.413 -0.289 -18.448 -0.287 -18.697 -0.278 -18.932 -0.340 6.617 0.174 2.618 0.158 42.971 41.388
192.200 -17.996 -0.336 -18.014 -0.333 -18.408 -0.291 -18.444 -0.289 -18.693 -0.280 -18.928 -0.343 6.617 0.175 2.613 0.158 42.970 41.387
192.600 -17.992 -0.338 -18.010 -0.335 -18.404 -0.293 -18.439 -0.291 -18.689 -0.281 -18.924 -0.345 6.616 0.175 2.608 0.158 42.968 41.387
193.000 -17.988 -0.341 -18.005 -0.338 -18.399 -0.295 -18.434 -0.293 -18.685 -0.283 -18.919 -0.347 6.616 0.176 2.603 0.159 42.966 41.386
193.400 -17.984 -0.343 -18.001 -0.341 -18.394 -0.297 -18.430 -0.295 -18.681 -0.285 -18.915 -0.349 6.616 0.176 2.598 0.159 42.965 41.386
193.800 -17.980 -0.346 -17.997 -0.343 -18.390 -0.299 -18.425 -0.297 -18.677 -0.287 -18.911 -0.352 6.615 0.177 2.594 0.159 42.963 41.385
194.200 -17.976 -0.349 -17.993 -0.346 -18.385 -0.301 -18.420 -0.299 -18.673 -0.288 -18.907 -0.354 6.615 0.177 2.589 0.159 42.961 41.385
194.600 -17.972 -0.351 -17.989 -0.348 -18.380 -0.303 -18.416 -0.300 -18.669 -0.290 -18.903 -0.356 6.615 0.178 2.584 0.160 42.959 41.384
195.000 -17.968 -0.354 -17.985 -0.351 -18.376 -0.305 -18.411 -0.302 -18.665 -0.292 -18.899 -0.358 6.615 0.179 2.579 0.160 42.958 41.384
195.400 -17.964 -0.356 -17.981 -0.353 -18.371 -0.307 -18.406 -0.304 -18.661 -0.293 -18.894 -0.360 6.615 0.179 2.574 0.160 42.956 41.383
195.800 -17.960 -0.359 -17.977 -0.356 -18.366 -0.309 -18.402 -0.306 -18.657 -0.295 -18.890 -0.362 6.615 0.180 2.569 0.160 42.954 41.383
196.200 -17.956 -0.361 -17.973 -0.358 -18.362 -0.311 -18.397 -0.308 -18.653 -0.296 -18.886 -0.365 6.614 0.180 2.564 0.160 42.952 41.382
196.600 -17.952 -0.364 -17.969 -0.361 -18.357 -0.313 -18.392 -0.310 -18.649 -0.298 -18.882 -0.367 6.614 0.181 2.559 0.161 42.951 41.382
197.000 -17.948 -0.366 -17.965 -0.363 -18.352 -0.315 -18.388 -0.312 -18.644 -0.300 -18.877 -0.369 6.614 0.182 2.554 0.161 42.949 41.381
197.400 -17.944 -0.369 -17.961 -0.366 -18.348 -0.317 -18.383 -0.314 -18.640 -0.301 -18.873 -0.371 6.614 0.182 2.548 0.161 42.947 41.381
197.800 -17.940 -0.371 -17.957 -0.368 -18.343 -0.319 -18.378 -0.316 -18.636 -0.303 -18.869 -0.373 6.614 0.183 2.543 0.161 42.945 41.380
198.200 -17.936 -0.374 -17.952 -0.371 -18.338 -0.321 -18.374 -0.317 -18.632 -0.304 -18.864 -0.375 6.614 0.183 2.538 0.161 42.944 41.379
198.600 -17.931 -0.376 -17.948 -0.373 -18.334 -0.323 -18.369 -0.319 -18.628 -0.306 -18.860 -0.377 6.614 0.184 2.533 0.161 42.942 41.379
199.000 -17.927 -0.378 -17.944 -0.375 -18.329 -0.324 -18.364 -0.321 -18.624 -0.307 -18.856 -0.379 6.614 0.185 2.528 0.162 42.940 41.378
199.400 -17.923 -0.381 -17.940 -0.378 -18.324 -0.326 -18.359 -0.323 -18.620 -0.309 -18.851 -0.381 6.614 0.185 2.523 0.162 42.938 41.377
199.800 -17.919 -0.383 -17.936 -0.380 -18.319 -0.328 -18.355 -0.325 -18.615 -0.310 -18.847 -0.383 6.614 0.186 2.518 0.162 42.937 41.377
200.200 -17.915 -0.386 -17.932 -0.383 -18.315 -0.330 -18.350 -0.326 -18.611 -0.312 -18.843 -0.385 6.614 0.187 2.513 0.162 42.935 41.376
200.600 -17.911 -0.388 -17.928 -0.385 -18.310 -0.332 -18.345 -0.328 -18.607 -0.313 -18.838 -0.387 6.614 0.187 2.507 0.162 42.933 41.376
201.000 -17.907 -0.390 -17.923 -0.387 -18.305 -0.334 -18.340 -0.330 -18.603 -0.314 -18.834 -0.389 6.614 0.188 2.502 0.162 42.931 41.375
201.400 -17.902 -0.393 -17.919 -0.390 -18.300 -0.335 -18.336 -0.332 -18.598 -0.316 -18.830 -0.391 6.614 0.188 2.497 0.163 42.929 41.374
201.800 -17.898 -0.395 -17.915 -0.392 -18.296 -0.337 -18.331 -0.333 -18.594 -0.317 -18.825 -0.393 6.614 0.189 2.492 0.163 42.928 41.373
202.200 -17.894 -0.397 -17.911 -0.394 -18.291 -0.339 -18.326 -0.335 -18.590 -0.318 -18.821 -0.395 6.614 0.190 2.487 0.163 42.926 41.373
202.600 -17.890 -0.400 -17.907 -0.396 -18.286 -0.341 -18.321 -0.337 -18.586 -0.320 -18.816 -0.397 6.614 0.190 2.481 0.163 42.924 41.372
203.000 -17.886 -0.402 -17.902 -0.399 -18.281 -0.342 -18.317 -0.338 -18.581 -0.321 -18.812 -0.399 6.614 0.191 2.476 0.163 42.922 41.371
203.400 -17.882 -0.404 -17.898 -0.401 -18.277 -0.344 -18.312 -0.340 -18.577 -0.322 -18.807 -0.401 6.614 0.191 2.471 0.163 42.920 41.370
203.800 -17.877 -0.407 -17.894 -0.403 -18.272 -0.346 -18.307 -0.342 -18.573 -0.324 -18.803 -0.402 6.614 0.192 2.466 0.163 42.919 41.370
204.200 -17.873 -0.409 -17.890 -0.406 -18.267 -0.348 -18.302 -0.343 -18.568 -0.325 -18.798 -0.404 6.614 0.193 2.460 0.164 42.917 41.369
204.600 -17.869 -0.411 -17.885 -0.408 -18.262 -0.349 -18.297 -0.345 -18.564 -0.326 -18.794 -0.406 6.615 0.193 2.455 0.164 42.915 41.368
205.000 -17.865 -0.413 -17.881 -0.410 -18.257 -0.351 -18.293 -0.347 -18.559 -0.327 -18.789 -0.408 6.615 0.194 2.450 0.164 42.913 41.367
205.400 -17.860 -0.415 -17.877 -0.412 -18.253 -0.353 -18.288 -0.348 -18.555 -0.328 -18.785 -0.410 6.615 0.194 2.444 0.164 42.911 41.366
205.800 -17.856 -0.418 -17.873 -0.414 -18.248 -0.354 -18.283 -0.350 -18.551 -0.330 -18.780 -0.411 6.615 0.195 2.439 0.164 42.909 41.365
206.200 -17.852 -0.420 -17.868 -0.417 -18.243 -0.356 -18.278 -0.351 -18.546 -0.331 -18.776 -0.413 6.615 0.196 2.434 0.164 42.908 41.365
206.600 -17.848 -0.422 -17.864 -0.419 -18.238 -0.357 -18.273 -0.353 -18.542 -0.332 -18.771 -0.415 6.616 0.196 2.428 0.164 42.906 41.364
207.000 -17.843 -0.424 -17.860 -0.421 -18.233 -0.359 -18.269 -0.354 -18.537 -0.333 -18.767 -0.417 6.616 0.197 2.423 0.164 42.904 41.363
207.400 -17.839 -0.426 -17.855 -0.423 -18.229 -0.361 -18.264 -0.356 -18.533 -0.334 -18.762 -0.418 6.616 0.197 2.418 0.164 42.902 41.362
207.800 -17.835 -0.428 -17.851 -0.425 -18.224 -0.362 -18.259 -0.357 -18.528 -0.335 -18.758 -0.420 6.616 0.198 2.412 0.164 42.900 41.361
208.200 -17.831 -0.431 -17.847 -0.427 -18.219 -0.364 -18.254 -0.359 -18.524 -0.336 -18.753 -0.422 6.617 0.199 2.407 0.165 42.898 41.360
208.600 -17.826 -0.433 -17.842 -0.429 -18.214 -0.365 -18.249 -0.360 -18.519 -0.337 -18.748 -0.423 6.617 0.199 2.401 0.165 42.896 41.359
209.000 -17.822 -0.435 -17.838 -0.431 -18.209 -0.367 -18.244 -0.362 -18.515 -0.338 -18.744 -0.425 6.617 0.200 2.396 0.165 42.895 41.358
209.400 -17.818 -0.437 -17.834 -0.433 -18.204 -0.368 -18.239 -0.363 -18.510 -0.339 -18.739 -0.427 6.618 0.200 2.391 0.165 42.893 41.357
209.800 -17.813 -0.439 -17.829 -0.435 -18.199 -0.370 -18.235 -0.365 -18.506 -0.340 -18.734 -0.428 6.618 0.201 2.385 0.165 42.891 41.356
210.200 -17.809 -0.441 -17.825 -0.437 -18.195 -0.371 -18.230 -0.366 -18.501 -0.341 -18.730 -0.430 6.619 0.201 2.380 0.165 42.889 41.355
210.600 -17.805 -0.443 -17.821 -0.439 -18.190 -0.373 -18.225 -0.367 -18.497 -0.342 -18.725 -0.432 6.619 0.202 2.374 0.165 42.887 41.354
211.000 -17.800 -0.445 -17.816 -0.441 -18.185 -0.374 -18.220 -0.369 -18.492 -0.343 -18.720 -0.433 6.619 0.203 2.369 0.165 42.885 41.353
211.400 -17.796 -0.447 -17.812 -0.443 -18.180 -0.375 -18.215 -0.370 -18.488 -0.344 -18.716 -0.435 6.620 0.203 2.363 0.165 42.883 41.352
211.800 -17.792 -0.449 -17.808 -0.445 -18.175 -0.377 -18.210 -0.371 -18.483 -0.345 -18.711 -0.436 6.620 0.204 2.358 0.165 42.881 41.351
212.200 -17.787 -0.451 -17.803 -0.447 -18.170 -0.378 -18.205 -0.373 -18.478 -0.346 -18.706 -0.438 6.621 0.204 2.352 0.165 42.879 41.349
212.600 -17.783 -0.453 -17.799 -0.449 -18.165 -0.380 -18.200 -0.374 -18.474 -0.347 -18.702 -0.439 6.621 0.205 2.347 0.165 42.878 41.348
213.000 -17.779 -0.455 -17.794 -0.451 -18.160 -0.381 -18.195 -0.375 -18.469 -0.347 -18.697 -0.441 6.622 0.206 2.341 0.165 42.876 41.347
213.400 -17.774 -0.457 -17.790 -0.453 -18.155 -0.382 -18.190 -0.377 -18.464 -0.348 -18.692 -0.442 6.622 0.206 2.336 0.165 42.874 41.346
213.800 -17.770 -0.459 -17.786 -0.455 -18.151 -0.384 -18.186 -0.378 -18.460 -0.349 -18.687 -0.444 6.622 0.207 2.330 0.165 42.872 41.345
214.200 -17.765 -0.461 -17.781 -0.457 -18.146 -0.385 -18.181 -0.379 -18.455 -0.350 -18.683 -0.445 6.623 0.207 2.325 0.165 42.870 41.344
214.600 -17.761 -0.463 -17.777 -0.459 -18.141 -0.386 -18.176 -0.380 -18.450 -0.351 -18.678 -0.447 6.624 0.208 2.319 0.165 42.868 41.342
215.000 -17.757 -0.464 -17.772 -0.461 -18.136 -0.387 -18.171 -0.381 -18.446 -0.351 -18.673 -0.448 6.624 0.208 2.314 0.165 42.866 41.341
215.400 -17.752 -0.466 -17.768 -0.463 -18.131 -0.389 -18.166 -0.383 -18.441 -0.352 -18.668 -0.449 6.625 0.209 2.308 0.165 42.864 41.340
215.800 -17.748 -0.468 -17.763 -0.464 -18.126 -0.390 -18.161 -0.384 -18.436 -0.353 -18.663 -0.451 6.625 0.209 2.303 0.165 42.862 41.339
216.200 -17.743 -0.470 -17.759 -0.466 -18.121 -0.391 -18.156 -0.385 -18.431 -0.353 -18.659 -0.452 6.626 0.210 2.297 0.165 42.860 41.337
216.600 -17.739 -0.472 -17.755 -0.468 -18.116 -0.392 -18.151 -0.386 -18.427 -0.354 -18.654 -0.453 6.626 0.210 2.292 0.165 42.858 41.336
217.000 -17.735 -0.474 -17.750 -0.470 -18.111 -0.394 -18.146 -0.387 -18.422 -0.355 -18.649 -0.455 6.627 0.211 2.286 0.165 42.856 41.335
217.400 -17.730 -0.475 -17.746 -0.472 -18.106 -0.395 -18.141 -0.388 -18.417 -0.355 -18.644 -0.456 6.628 0.212 2.281 0.165 42.854 41.333
217.800 -17.726 -0.477 -17.741 -0.473 -18.101 -0.396 -18.136 -0.389 -18.412 -0.356 -18.639 -0.457 6.628 0.212 2.275 0.165 42.852 41.332
218.200 -17.721 -0.479 -17.737 -0.475 -18.096 -0.397 -18.131 -0.390 -18.408 -0.356 -18.634 -0.459 6.629 0.213 2.270 0.165 42.850 41.330
218.600 -17.717 -0.481 -17.732 -0.477 -18.091 -0.398 -18.126 -0.392 -18.403 -0.357 -18.629 -0.460 6.630 0.213 2.264 0.165 42.849 41.329
219.000 -17.712 -0.482 -17.728 -0.478 -18.086 -0.399 -18.121 -0.393 -18.398 -0.358 -18.624 -0.461 6.630 0.214 2.258 0.165 42.847 41.328
219.400 -17.708 -0.484 -17.723 -0.480 -18.081 -0.400 -18.116 -0.394 -18.393 -0.358 -18.620 -0.462 6.631 0.214 2.253 0.164 42.845 41.326
219.800 -17.703 -0.486 -17.719 -0.482 -18.076 -0.402 -18.111 -0.395 -18.388 -0.359 -18.615 -0.464 6.632 0.215 2.247 0.164 42.843 41.325
220.200 -17.699 -0.487 -17.714 -0.484 -18.071 -0.403 -18.106 -0.396 -18.384 -0.359 -18.610 -0.465 6.632 0.215 2.242 0.164 42.841 41.323
220.600 -17.694 -0.489 -17.710 -0.485 -18.066 -0.404 -18.101 -0.397 -18.379 -0.360 -18.605 -0.466 6.633 0.216 2.236 0.164 42.839 41.322
221.000 -17.690 -0.491 -17.705 -0.487 -18.061 -0.405 -18.096 -0.398 -18.374 -0.360 -18.600 -0.467 6.634 0.216 2.231 0.164 42.837 41.320
221.400 -17.685 -0.492 -17.701 -0.488 -18.056 -0.406 -18.091 -0.398 -18.369 -0.360 -18.595 -0.468 6.635 0.217 2.225 0.164 42.835 41.319
221.800 -17.681 -0.494 -17.696 -0.490 -18.051 -0.407 -18.086 -0.399 -18.364 -0.361 -18.590 -0.470 6.635 0.217 2.219 0.164 42.833 41.317
222.200 -17.676 -0.496 -17.692 -0.492 -18.046 -0.408 -18.081 -0.400 -18.359 -0.361 -18.585 -0.471 6.636 0.218 2.214 0.164 42.831 41.316
222.600 -17.672 -0.497 -17.687 -0.493 -18.041 -0.409 -18.076 -0.401 -18.354 -0.362 -18.580 -0.472 6.637 0.218 2.208 0.164 42.829 41.314
223.000 -17.667 -0.499 -17.682 -0.495 -18.036 -0.410 -18.071 -0.402 -18.349 -0.362 -18.575 -0.473 6.638 0.219 2.203 0.164 42.827 41.313
223.400 -17.663 -0.500 -17.678 -0.496 -18.031 -0.411 -18.066 -0.403 -18.345 -0.362 -18.570 -0.474 6.639 0.219 2.197 0.163 42.825 41.311
223.800 -17.658 -0.502 -17.673 -0.498 -18.026 -0.412 -18.061 -0.404 -18.340 -0.363 -18.565 -0.475 6.639 0.220 2.191 0.163 42.823 41.309
224.200 -17.654 -0.503 -17.669 -0.499 -18.021 -0.412 -18.056 -0.405 -18.335 -0.363 -18.560 -0.476 6.640 0.220 2.186 0.163 42.821 41.308
224.600 -17.649 -0.505 -17.664 -0.501 -18.016 -0.413 -18.051 -0.406 -18.330 -0.363 -18.555 -0.477 6.641 0.221 2.180 0.163 42.819 41.306
225.000 -17.645 -0.506 -17.660 -0.502 -18.011 -0.414 -18.046 -0.406 -18.325 -0.363 -18.550 -0.478 6.642 0.221 2.175 0.163 42.817 41.305
225.400 -17.640 -0.508 -17.655 -0.504 -18.006 -0.415 -18.041 -0.407 -18.320 -0.364 -18.545 -0.479 6.643 0.222 2.169 0.163 42.815 41.303
225.800 -17.636 -0.509 -17.651 -0.505 -18.001 -0.416 -18.036 -0.408 -18.315 -0.364 -18.540 -0.480 6.644 0.222 2.163 0.163 42.813 41.301
226.200 -17.631 -0.511 -17.646 -0.507 -17.996 -0.417 -18.031 -0.409 -18.310 -0.364 -18.534 -0.481 6.645 0.223 2.158 0.162 42.811 41.299
226.600 -17.626 -0.512 -17.641 -0.508 -17.991 -0.418 -18.026 -0.409 -18.305 -0.364 -18.529 -0.482 6.646 0.223 2.152 0.162 42.809 41.298
227.000 -17.622 -0.514 -17.637 -0.510 -17.986 -0.419 -18.021 -0.410 -18.300 -0.364 -18.524 -0.483 6.647 0.224 2.147 0.162 42.807 41.296
227.400 -17.617 -0.515 -17.632 -0.511 -17.981 -0.419 -18.015 -0.411 -18.295 -0.365 -18.519 -0.484 6.648 0.224 2.141 0.162 42.805 41.294
227.800 -17.613 -0.517 -17.628 -0.512 -17.976 -0.420 -18.010 -0.412 -18.290 -0.365 -18.514 -0.485 6.649 0.225 2.135 0.162 42.803 41.293
228.200 -17.608 -0.518 -17.623 -0.514 -17.971 -0.421 -18.005 -0.412 -18.285 -0.365 -18.509 -0.486 6.649 0.225 2.130 0.162 42.801 41.291
228.600 -17.604 -0.519 -17.618 -0.515 -17.966 -0.422 -18.000 -0.413 -18.280 -0.365 -18.504 -0.487 6.650 0.225 2.124 0.161 42.799 41.289
229.000 -17.599 -0.521 -17.614 -0.516 -17.961 -0.422 -17.995 -0.414 -18.275 -0.365 -18.499 -0.487 6.651 0.226 2.118 0.161 42.797 41.287
229.400 -17.594 -0.522 -17.609 -0.518 -17.956 -0.423 -17.990 -0.414 -18.270 -0.365 -18.493 -0.488 6.652 0.226 2.113 0.161 42.795 41.285
229.800 -17.590 -0.523 -17.604 -0.519 -17.951 -0.424 -17.985 -0.415 -18.265 -0.365 -18.488 -0.489 6.653 0.227 2.107 0.161 42.792 41.283
230.200 -17.585 -0.525 -17.600 -0.520 -17.946 -0.425 -17.980 -0.416 -18.260 -0.365 -18.483 -0.490 6.655 0.227 2.102 0.161 42.790 41.282
230.600 -17.581 -0.526 -17.595 -0.522 -17.941 -0.425 -17.975 -0.416 -18.255 -0.365 -18.478 -0.491 6.656 0.228 2.096 0.160 42.788 41.280
231.000 -17.576 -0.527 -17.591 -0.523 -17.935 -0.426 -17.970 -0.417 -18.250 -0.365 -18.473 -0.491 6.657 0.228 2.090 0.160 42.786 41.278
231.400 -17.571 -0.529 -17.586 -0.524 -17.930 -0.427 -17.965 -0.417 -18.244 -0.365 -18.467 -0.492 6.658 0.228 2.085 0.160 42.784 41.276
231.800 -17.567 -0.530 -17.581 -0.525 -17.925 -0.427 -17.959 -0.418 -18.239 -0.365 -18.462 -0.493 6.659 0.229 2.079 0.160 42.782 41.274
232.200 -17.562 -0.531 -17.577 -0.527 -17.920 -0.428 -17.954 -0.418 -18.234 -0.365 -18.457 -0.494 6.660 0.229 2.074 0.160 42.780 41.272
232.600 -17.557 -0.532 -17.572 -0.528 -17.915 -0.429 -17.949 -0.419 -18.229 -0.365 -18.452 -0.494 6.661 0.230 2.068 0.159 42.778 41.270
233.000 -17.553 -0.534 -17.567 -0.529 -17.910 -0.429 -17.944 -0.420 -18.224 -0.365 -18.446 -0.495 6.662 0.230 2.063 0.159 42.776 41.268
233.400 -17.548 -0.535 -17.563 -0.530 -17.905 -0.430 -17.939 -0.420 -18.219 -0.365 -18.441 -0.496 6.663 0.231 2.057 0.159 42.774 41.266
233.800 -17.543 -0.536 -17.558 -0.532 -17.900 -0.430 -17.934 -0.421 -18.214 -0.365 -18.436 -0.497 6.664 0.231 2.051 0.159 42.772 41.264
234.200 -17.539 -0.537 -17.553 -0.533 -17.895 -0.431 -17.929 -0.421 -18.209 -0.365 -18.431 -0.497 6.665 0.231 2.046 0.158 42.770 41.262
234.600 -17.534 -0.538 -17.549 -0.534 -17.890 -0.431 -17.924 -0.421 -18.204 -0.365 -18.425 -0.498 6.667 0.232 2.040 0.158 42.768 41.260
235.000 -17.529 -0.539 -17.544 -0.535 -17.884 -0.432 -17.918 -0.422 -18.198 -0.364 -18.420 -0.498 6.668 0.232 2.035 0.158 42.766 41.258
235.400 -17.525 -0.541 -17.539 -0.536 -17.879 -0.433 -17.913 -0.422 -18.193 -0.364 -18.415 -0.499 6.669 0.233 2.029 0.158 42.764 41.256
235.800 -17.520 -0.542 -17.534 -0.537 -17.874 -0.433 -17.908 -0.423 -18.188 -0.364 -18.409 -0.500 6.670 0.233 2.024 0.157 42.762 41.254
236.200 -17.515 -0.543 -17.530 -0.538 -17.869 -0.434 -17.903 -0.423 -18.183 -0.364 -18.404 -0.500 6.671 0.233 2.018 0.157 42.759 41.252
236.600 -17.511 -0.544 -17.525 -0.539 -17.864 -0.434 -17.898 -0.424 -18.178 -0.364 -18.399 -0.501 6.672 0.234 2.012 0.157 42.757 41.250
237.000 -17.506 -0.545 -17.520 -0.540 -17.859 -0.435 -17.893 -0.424 -18.173 -0.364 -18.393 -0.501 6.674 0.234 2.007 0.156 42.755 41.248
237.400 -17.501 -0.546 -17.516 -0.541 -17.854 -0.435 -17.887 -0.424 -18.167 -0.363 -18.388 -0.502 6.675 0.234 2.001 0.156 42.753 41.246
237.800 -17.497 -0.547 -17.511 -0.543 -17.849 -0.435 -17.882 -0.425 -18.162 -0.363 -18.383 -0.503 6.676 0.235 1.996 0.156 42.751 41.244
238.200 -17.492 -0.548 -17.506 -0.544 -17.843 -0.436 -17.877 -0.425 -18.157 -0.363 -18.377 -0.503 6.677 0.235 1.990 0.156 42.749 41.241
238.600 -17.487 -0.549 -17.501 -0.545 -17.838 -0.436 -17.872 -0.426 -18.152 -0.363 -18.372 -0.504 6.679 0.235 1.985 0.155 42.747 41.239
239.000 -17.483 -0.550 -17.497 -0.546 -17.833 -0.437 -17.867 -0.426 -18.147 -0.362 -18.367 -0.504 6.680 0.236 1.979 0.155 42.745 41.237
239.400 -17.478 -0.551 -17.492 -0.547 -17.828 -0.437 -17.862 -0.426 -18.141 -0.362 -18.361 -0.505 6.681 0.236 1.974 0.155 42.743 41.235
239.800 -17.473 -0.552 -17.487 -0.548 -17.823 -0.438 -17.856 -0.427 -18.136 -0.362 -18.356 -0.505 6.682 0.237 1.968 0.154 42.741 41.233
240.200 -17.468 -0.553 -17.482 -0.548 -17.818 -0.438 -17.851 -0.427 -18.131 -0.361 -18.350 -0.505 6.684 0.237 1.963 0.154 42.739 41.231
240.600 -17.464 -0.554 -17.478 -0.549 -17.812 -0.438 -17.846 -0.427 -18.126 -0.361 -18.345 -0.506 6.685 0.237 1.957 0.154 42.736 41.228
241.000 -17.459 -0.555 -17.473 -0.550 -17.807 -0.439 -17.841 -0.428 -18.120 -0.361 -18.340 -0.506 6.686 0.238 1.952 0.153 42.734 41.226
241.400 -17.454 -0.556 -17.468 -0.551 -17.802 -0.439 -17.836 -0.428 -18.115 -0.360 -18.334 -0.507 6.687 0.238 1.946 0.153 42.732 41.224
241.800 -17.449 -0.557 -17.463 -0.552 -17.797 -0.439 -17.831 -0.428 -18.110 -0.360 -18.329 -0.507 6.689 0.238 1.941 0.153 42.730 41.222
242.200 -17.445 -0.558 -17.459 -0.553 -17.792 -0.440 -17.825 -0.428 -18.105 -0.360 -18.323 -0.508 6.690 0.238 1.935 0.153 42.728 41.219
242.600 -17.440 -0.559 -17.454 -0.554 -17.787 -0.440 -17.820 -0.429 -18.099 -0.359 -18.318 -0.508 6.691 0.239 1.930 0.152 42.726 41.217
243.000 -17.435 -0.560 -17.449 -0.555 -17.781 -0.440 -17.815 -0.429 -18.094 -0.359 -18.312 -0.508 6.693 0.239 1.924 0.152 42.724 41.215
243.400 -17.430 -0.560 -17.444 -0.556 -17.776 -0.441 -17.810 -0.429 -18.089 -0.359 -18.307 -0.509 6.694 0.239 1.919 0.152 42.722 41.212
243.800 -17.426 -0.561 -17.440 -0.556 -17.771 -0.441 -17.805 -0.429 -18.084 -0.358 -18.301 -0.509 6.695 0.240 1.914 0.151 42.720 41.210
244.200 -17.421 -0.562 -17.435 -0.557 -17.766 -0.441 -17.799 -0.429 -18.078 -0.358 -18.296 -0.509 6.697 0.240 1.908 0.151 42.717 41.208
244.600 -17.416 -0.563 -17.430 -0.558 -17.761 -0.442 -17.794 -0.430 -18.073 -0.357 -18.291 -0.510 6.698 0.240 1.903 0.151 42.715 41.205
245.000 -17.411 -0.564 -17.425 -0.559 -17.756 -0.442 -17.789 -0.430 -18.068 -0.357 -18.285 -0.510 6.699 0.241 1.897 0.150 42.713 41.203
245.400 -17.407 -0.565 -17.420 -0.560 -17.750 -0.442 -17.784 -0.430 -18.062 -0.357 -18.279 -0.510 6.701 0.241 1.892 0.150 42.711 41.201
245.800 -17.402 -0.565 -17.416 -0.560 -17.745 -0.442 -17.778 -0.430 -18.057 -0.356 -18.274 -0.510 6.702 0.241 1.886 0.149 42.709 41.198
246.200 -17.397 -0.566 -17.411 -0.561 -17.740 -0.443 -17.773 -0.430 -18.052 -0.356 -18.268 -0.511 6.704 0.241 1.881 0.149 42.707 41.196
246.600 -17.392 -0.567 -17.406 -0.562 -17.735 -0.443 -17.768 -0.431 -18.046 -0.355 -18.263 -0.511 6.705 0.242 1.876 0.149 42.705 41.194
247.000 -17.387 -0.568 -17.401 -0.563 -17.730 -0.443 -17.763 -0.431 -18.041 -0.355 -18.257 -0.511 6.706 0.242 1.870 0.148 42.703 41.191
247.400 -17.383 -0.568 -17.396 -0.563 -17.724 -0.443 -17.758 -0.431 -18.036 -0.354 -18.252 -0.511 6.708 0.242 1.865 0.148 42.700 41.189
247.800 -17.378 -0.569 -17.392 -0.564 -17.719 -0.443 -17.752 -0.431 -18.030 -0.354 -18.246 -0.512 6.709 0.242 1.860 0.148 42.698 41.186
248.200 -17.373 -0.570 -17.387 -0.565 -17.714 -0.444 -17.747 -0.431 -18.025 -0.353 -18.241 -0.512 6.711 0.243 1.854 0.147 42.696 41.184
248.600 -17.368 -0.571 -17.382 -0.566 -17.709 -0.444 -17.742 -0.431 -18.020 -0.353 -18.235 -0.512 6.712 0.243 1.849 0.147 42.694 41.182
249.000 -17.363 -0.571 -17.377 -0.566 -17.703 -0.444 -17.737 -0.431 -18.014 -0.352 -18.230 -0.512 6.714 0.243 1.844 0.147 42.692 41.179
249.400 -17.359 -0.572 -17.372 -0.567 -17.698 -0.444 -17.731 -0.431 -18.009 -0.352 -18.224 -0.512 6.715 0.243 1.838 0.146 42.690 41.177
249.800 -17.354 -0.573 -17.367 -0.568 -17.693 -0.444 -17.726 -0.432 -18.004 -0.351 -18.218 -0.513 6.716 0.244 1.833 0.146 42.688 41.174
250.200 -17.349 -0.573 -17.363 -0.568 -17.688 -0.445 -17.721 -0.432 -17.998 -0.351 -18.213 -0.513 6.718 0.244 1.828 0.145 42.686 41.172
250.600 -17.344 -0.574 -17.358 -0.569 -17.683 -0.445 -17.716 -0.432 -17.993 -0.351 -18.207 -0.513 6.719 0.244 1.822 0.145 42.683 41.169
251.000 -17.339 -0.575 -17.353 -0.569 -17.677 -0.445 -17.710 -0.432 -17.988 -0.350 -18.202 -0.513 6.721 0.244 1.817 0.145 42.681 41.167
251.400 -17.334 -0.575 -17.348 -0.570 -17.672 -0.445 -17.705 -0.432 -17.982 -0.350 -18.196 -0.513 6.722 0.245 1.812 0.144 42.679 41.164
251.800 -17.330 -0.576 -17.343 -0.571 -17.667 -0.445 -17.700 -0.432 -17.977 -0.349 -18.190 -0.513 6.724 0.245 1.807 0.144 42.677 41.162
252.200 -17.325 -0.576 -17.338 -0.571 -17.662 -0.445 -17.695 -0.432 -17.972 -0.349 -18.185 -0.513 6.725 0.245 1.801 0.143 42.675 41.159
252.600 -17.320 -0.577 -17.333 -0.572 -17.656 -0.445 -17.689 -0.432 -17.966 -0.348 -18.179 -0.513 6.727 0.245 1.796 0.143 42.673 41.157
253.000 -17.315 -0.577 -17.329 -0.572 -17.651 -0.445 -17.684 -0.432 -17.961 -0.348 -18.173 -0.513 6.728 0.245 1.791 0.143 42.671 41.154
253.400 -17.310 -0.578 -17.324 -0.573 -17.646 -0.445 -17.679 -0.432 -17.955 -0.347 -18.168 -0.513 6.730 0.246 1.786 0.142 42.668 41.152
253.800 -17.305 -0.579 -17.319 -0.573 -17.641 -0.446 -17.674 -0.432 -17.950 -0.347 -18.162 -0.513 6.731 0.246 1.780 0.142 42.666 41.149
254.200 -17.301 -0.579 -17.314 -0.574 -17.635 -0.446 -17.668 -0.432 -17.945 -0.346 -18.157 -0.513 6.733 0.246 1.775 0.141 42.664 41.147
254.600 -17.296 -0.580 -17.309 -0.574 -17.630 -0.446 -17.663 -0.432 -17.939 -0.346 -18.151 -0.513 6.734 0.246 1.770 0.141 42.662 41.144
255.000 -17.291 -0.580 -17.304 -0.575 -17.625 -0.446 -17.658 -0.432 -17.934 -0.345 -18.145 -0.513 6.736 0.246 1.765 0.141 42.660 41.142
255.400 -17.286 -0.581 -17.299 -0.575 -17.620 -0.446 -17.652 -0.432 -17.929 -0.345 -18.140 -0.513 6.737 0.246 1.760 0.140 42.658 41.139
255.800 -17.281 -0.581 -17.294 -0.576 -17.614 -0.446 -17.647 -0.432 -17.923 -0.344 -18.134 -0.513 6.739 0.247 1.755 0.140 42.655 41.136
256.200 -17.276 -0.582 -17.289 -0.576 -17.609 -0.446 -17.642 -0.432 -17.918 -0.344 -18.128 -0.513 6.740 0.247 1.749 0.139 42.653 41.134
256.600 -17.271 -0.582 -17.285 -0.577 -17.604 -0.446 -17.637 -0.432 -17.912 -0.343 -18.122 -0.513 6.742 0.247 1.744 0.139 42.651 41.131
257.000 -17.266 -0.582 -17.280 -0.577 -17.599 -0.446 -17.631 -0.432 -17.907 -0.343 -18.117 -0.513 6.743 0.247 1.739 0.139 42.649 41.129
257.400 -17.262 -0.583 -17.275 -0.578 -17.593 -0.446 -17.626 -0.432 -17.902 -0.342 -18.111 -0.513 6.745 0.247 1.734 0.138 42.647 41.126
257.800 -17.257 -0.583 -17.270 -0.578 -17.588 -0.446 -17.621 -0.432 -17.896 -0.342 -18.105 -0.513 6.746 0.247 1.729 0.138 42.645 41.124
258.200 -17.252 -0.584 -17.265 -0.578 -17.583 -0.446 -17.615 -0.432 -17.891 -0.341 -18.100 -0.513 6.748 0.248 1.724 0.137 42.643 41.121
258.600 -17.247 -0.584 -17.260 -0.579 -17.578 -0.446 -17.610 -0.432 -17.885 -0.341 -18.094 -0.513 6.749 0.248 1.719 0.137 42.640 41.118
259.000 -17.242 -0.585 -17.255 -0.579 -17.572 -0.446 -17.605 -0.432 -17.880 -0.340 -18.088 -0.513 6.751 0.248 1.714 0.137 42.638 41.116
259.400 -17.237 -0.585 -17.250 -0.580 -17.567 -0.446 -17.600 -0.432 -17.874 -0.340 -18.082 -0.513 6.752 0.248 1.709 0.136 42.636 41.113
259.800 -17.232 -0.585 -17.245 -0.580 -17.562 -0.446 -17.594 -0.432 -17.869 -0.339 -18.077 -0.512 6.754 0.248 1.704 0.136 42.634 41.111
260.200 -17.227 -0.586 -17.240 -0.580 -17.557 -0.446 -17.589 -0.432 -17.864 -0.339 -18.071 -0.512 6.755 0.248 1.699 0.135 42.632 41.108
260.600 -17.222 -0.586 -17.235 -0.581 -17.551 -0.446 -17.584 -0.432 -17.858 -0.338 -18.065 -0.512 6.757 0.248 1.694 0.135 42.630 41.105
261.000 -17.217 -0.586 -17.230 -0.581 -17.546 -0.446 -17.578 -0.431 -17.853 -0.338 -18.059 -0.512 6.758 0.248 1.689 0.134 42.627 41.103
261.400 -17.212 -0.587 -17.225 -0.581 -17.541 -0.446 -17.573 -0.431 -17.847 -0.338 -18.054 -0.512 6.760 0.249 1.684 0.134 42.625 41.100
261.800 -17.208 -0.587 -17.221 -0.581 -17.535 -0.446 -17.568 -0.431 -17.842 -0.337 -18.048 -0.512 6.761 0.249 1.679 0.134 42.623 41.098
262.200 -17.203 -0.587 -17.216 -0.582 -17.530 -0.446 -17.562 -0.431 -17.836 -0.337 -18.042 -0.511 6.763 0.249 1.674 0.133 42.621 41.095
262.600 -17.198 -0.587 -17.211 -0.582 -17.525 -0.446 -17.557 -0.431 -17.831 -0.336 -18.036 -0.511 6.765 0.249 1.669 0.133 42.619 41.092
263.000 -17.193 -0.588 -17.206 -0.582 -17.520 -0.446 -17.552 -0.431 -17.826 -0.336 -18.030 -0.511 6.766 0.249 1.664 0.132 42.617 41.090
263.400 -17.188 -0.588 -17.201 -0.583 -17.514 -0.446 -17.547 -0.431 -17.820 -0.336 -18.025 -0.511 6.768 0.249 1.659 0.132 42.614 41.087
263.800 -17.183 -0.588 -17.196 -0.583 -17.509 -0.445 -17.541 -0.431 -17.815 -0.335 -18.019 -0.510 6.769 0.249 1.654 0.131 42.612 41.085
264.200 -17.178 -0.588 -17.191 -0.583 -17.504 -0.445 -17.536 -0.431 -17.809 -0.335 -18.013 -0.510 6.771 0.249 1.650 0.131 42.610 41.082
264.600 -17.173 -0.589 -17.186 -0.583 -17.498 -0.445 -17.531 -0.431 -17.804 -0.335 -18.007 -0.510 6.772 0.249 1.645 0.131 42.608 41.079
265.000 -17.168 -0.589 -17.181 -0.583 -17.493 -0.445 -17.525 -0.430 -17.798 -0.334 -18.001 -0.510 6.774 0.249 1.640 0.130 42.606 41.077
265.400 -17.163 -0.589 -17.176 -0.584 -17.488 -0.445 -17.520 -0.430 -17.793 -0.334 -17.995 -0.509 6.775 0.249 1.635 0.130 42.604 41.074
265.800 -17.158 -0.589 -17.171 -0.584 -17.482 -0.445 -17.515 -0.430 -17.787 -0.333 -17.990 -0.509 6.777 0.249 1.630 0.129 42.601 41.072
266.200 -17.153 -0.590 -17.166 -0.584 -17.477 -0.445 -17.509 -0.430 -17.782 -0.333 -17.984 -0.509 6.778 0.250 1.625 0.129 42.599 41.069
266.600 -17.148 -0.590 -17.161 -0.584 -17.472 -0.445 -17.504 -0.430 -17.777 -0.333 -17.978 -0.508 6.780 0.250 1.621 0.128 42.597 41.067
267.000 -17.143 -0.590 -17.156 -0.584 -17.467 -0.445 -17.499 -0.430 -17.771 -0.332 -17.972 -0.508 6.781 0.250 1.616 0.128 42.595 41.064
267.400 -17.138 -0.590 -17.151 -0.584 -17.461 -0.445 -17.493 -0.430 -17.766 -0.332 -17.966 -0.508 6.783 0.250 1.611 0.128 42.593 41.061
267.800 -17.133 -0.590 -17.146 -0.585 -17.456 -0.444 -17.488 -0.429 -17.760 -0.332 -17.960 -0.507 6.784 0.250 1.606 0.127 42.590 41.059
268.200 -17.128 -0.590 -17.141 -0.585 -17.451 -0.444 -17.483 -0.429 -17.755 -0.332 -17.954 -0.507 6.786 0.250 1.602 0.127 42.588 41.056
268.600 -17.123 -0.590 -17.136 -0.585 -17.445 -0.444 -17.477 -0.429 -17.749 -0.331 -17.949 -0.507 6.787 0.250 1.597 0.126 42.586 41.054
269.000 -17.118 -0.590 -17.131 -0.585 -17.440 -0.444 -17.472 -0.429 -17.744 -0.331 -17.943 -0.506 6.789 0.250 1.592 0.126 42.584 41.051
269.400 -17.113 -0.591 -17.126 -0.585 -17.435 -0.444 -17.467 -0.429 -17.738 -0.331 -17.937 -0.506 6.791 0.250 1.587 0.126 42.582 41.048
269.800 -17.108 -0.591 -17.121 -0.585 -17.429 -0.444 -17.461 -0.428 -17.733 -0.330 -17.931 -0.506 6.792 0.250 1.583 0.125 42.580 41.046
270.200 -17.103 -0.591 -17.116 -0.585 -17.424 -0.443 -17.456 -0.428 -17.727 -0.330 -17.925 -0.505 6.794 0.250 1.578 0.125 42.577 41.043
270.600 -17.098 -0.591 -17.111 -0.585 -17.419 -0.443 -17.450 -0.428 -17.722 -0.330 -17.919 -0.505 6.795 0.250 1.573 0.124 42.575 41.040
271.000 -17.093 -0.591 -17.106 -0.585 -17.413 -0.443 -17.445 -0.428 -17.716 -0.329 -17.913 -0.504 6.797 0.250 1.569 0.124 42.573 41.038
271.400 -17.088 -0.591 -17.101 -0.585 -17.408 -0.443 -17.440 -0.428 -17.711 -0.329 -17.907 -0.504 6.798 0.250 1.564 0.123 42.571 41.035
271.800 -17.083 -0.591 -17.096 -0.585 -17.403 -0.443 -17.434 -0.428 -17.705 -0.329 -17.901 -0.503 6.800 0.250 1.559 0.123 42.569 41.033
272.200 -17.078 -0.591 -17.091 -0.585 -17.397 -0.443 -17.429 -0.427 -17.700 -0.329 -17.895 -0.503 6.801 0.250 1.555 0.123 42.566 41.030
272.600 -17.073 -0.591 -17.086 -0.585 -17.392 -0.442 -17.424 -0.427 -17.694 -0.328 -17.889 -0.502 6.803 0.250 1.550 0.122 42.564 41.027
273.000 -17.068 -0.591 -17.081 -0.585 -17.387 -0.442 -17.418 -0.427 -17.689 -0.328 -17.884 -0.502 6.804 0.250 1.545 0.122 42.562 41.025
273.400 -17.063 -0.591 -17.076 -0.585 -17.381 -0.442 -17.413 -0.427 -17.683 -0.328 -17.878 -0.501 6.806 0.250 1.541 0.121 42.560 41.022
273.800 -17.058 -0.591 -17.071 -0.585 -17.376 -0.442 -17.408 -0.426 -17.678 -0.328 -17.872 -0.501 6.808 0.250 1.536 0.121 42.558 41.020
274.200 -17.053 -0.591 -17.066 -0.585 -17.370 -0.441 -17.402 -0.426 -17.672 -0.327 -17.866 -0.500 6.809 0.250 1.532 0.120 42.556 41.017
274.600 -17.048 -0.591 -17.061 -0.585 -17.365 -0.441 -17.397 -0.426 -17.667 -0.327 -17.860 -0.500 6.811 0.250 1.527 0.120 42.553 41.014
275.000 -17.043 -0.591 -17.056 -0.585 -17.360 -0.441 -17.391 -0.426 -17.661 -0.327 -17.854 -0.499 6.812 0.250 1.523 0.120 42.551 41.012
275.400 -17.038 -0.591 -17.051 -0.585 -17.354 -0.441 -17.386 -0.425 -17.656 -0.327 -17.848 -0.499 6.814 0.250 1.518 0.119 42.549 41.009
275.800 -17.033 -0.591 -17.045 -0.585 -17.349 -0.440 -17.381 -0.425 -17.650 -0.326 -17.842 -0.498 6.815 0.250 1.514 0.119 42.547 41.007
276.200 -17.028 -0.590 -17.040 -0.585 -17.344 -0.440 -17.375 -0.425 -17.645 -0.326 -17.836 -0.498 6.817 0.250 1.509 0.118 42.545 41.004
276.600 -17.023 -0.590 -17.035 -0.585 -17.338 -0.440 -17.370 -0.425 -17.639 -0.326 -17.830 -0.497 6.819 0.250 1.505 0.118 42.542 41.001
277.000 -17.018 -0.590 -17.030 -0.584 -17.333 -0.440 -17.364 -0.424 -17.634 -0.325 -17.824 -0.496 6.820 0.250 1.500 0.118 42.540 40.999
277.400 -17.013 -0.590 -17.025 -0.584 -17.328 -0.439 -17.359 -0.424 -17.628 -0.325 -17.818 -0.496 6.822 0.250 1.496 0.117 42.538 40.996
277.800 -17.008 -0.590 -17.020 -0.584 -17.322 -0.439 -17.354 -0.424 -17.623 -0.325 -17.812 -0.495 6.823 0.250 1.491 0.117 42.536 40.993
278.200 -17.003 -0.590 -17.015 -0.584 -17.317 -0.439 -17.348 -0.423 -17.617 -0.325 -17.806 -0.495 6.825 0.250 1.487 0.116 42.534 40.991
278.600 -16.998 -0.590 -17.010 -0.584 -17.311 -0.439 -17.343 -0.423 -17.612 -0.324 -17.800 -0.494 6.827 0.250 1.482 0.116 42.531 40.988
279.000 -16.993 -0.589 -17.005 -0.584 -17.306 -0.438 -17.337 -0.423 -17.606 -0.324 -17.794 -0.493 6.828 0.250 1.478 0.115 42.529 40.986
279.400 -16.988 -0.589 -17.000 -0.583 -17.301 -0.438 -17.332 -0.423 -17.601 -0.324 -17.788 -0.493 6.830 0.250 1.473 0.115 42.527 40.983
279.800 -16.982 -0.589 -16.995 -0.583 -17.295 -0.438 -17.327 -0.422 -17.595 -0.324 -17.782 -0.492 6.831 0.250 1.469 0.115 42.525 40.980
280.200 -16.977 -0.589 -16.990 -0.583 -17.290 -0.437 -17.321 -0.422 -17.590 -0.323 -17.776 -0.491 6.833 0.250 1.464 0.114 42.523 40.978
280.600 -16.972 -0.589 -16.985 -0.583 -17.284 -0.437 -17.316 -0.422 -17.584 -0.323 -17.770 -0.491 6.835 0.250 1.460 0.114 42.520 40.975
281.000 -16.967 -0.588 -16.979 -0.583 -17.279 -0.437 -17.310 -0.421 -17.578 -0.323 -17.764 -0.490 6.836 0.250 1.456 0.113 42.518 40.972
281.400 -16.962 -0.588 -16.974 -0.582 -17.274 -0.436 -17.305 -0.421 -17.573 -0.323 -17.758 -0.489 6.838 0.250 1.451 0.113 42.516 40.970
281.800 -16.957 -0.588 -16.969 -0.582 -17.268 -0.436 -17.300 -0.421 -17.567 -0.322 -17.752 -0.488 6.839 0.250 1.447 0.112 42.514 40.967
282.200 -16.952 -0.588 -16.964 -0.582 -17.263 -0.436 -17.294 -0.420 -17.562 -0.322 -17.746 -0.488 6.841 0.250 1.442 0.112 42.512 40.965
282.600 -16.947 -0.587 -16.959 -0.581 -17.257 -0.435 -17.289 -0.420 -17.556 -0.322 -17.739 -0.487 6.843 0.250 1.438 0.112 42.509 40.962
283.000 -16.942 -0.587 -16.954 -0.581 -17.252 -0.435 -17.283 -0.420 -17.551 -0.321 -17.733 -0.486 6.844 0.250 1.434 0.111 42.507 40.959
283.400 -16.937 -0.587 -16.949 -0.581 -17.247 -0.435 -17.278 -0.419 -17.545 -0.321 -17.727 -0.485 6.846 0.250 1.429 0.111 42.505 40.957
283.800 -16.932 -0.587 -16.944 -0.581 -17.241 -0.434 -17.272 -0.419 -17.539 -0.321 -17.721 -0.485 6.848 0.250 1.425 0.110 42.503 40.954
284.200 -16.926 -0.586 -16.939 -0.580 -17.236 -0.434 -17.267 -0.418 -17.534 -0.321 -17.715 -0.484 6.849 0.250 1.421 0.110 42.500 40.951
284.600 -16.921 -0.586 -16.933 -0.580 -17.230 -0.433 -17.261 -0.418 -17.528 -0.320 -17.709 -0.483 6.851 0.250 1.416 0.110 42.498 40.949
285.000 -16.916 -0.586 -16.928 -0.580 -17.225 -0.433 -17.256 -0.418 -17.523 -0.320 -17.703 -0.482 6.853 0.250 1.412 0.109 42.496 40.946
285.400 -16.911 -0.585 -16.923 -0.579 -17.219 -0.433 -17.250 -0.417 -17.517 -0.320 -17.697 -0.481 6.854 0.250 1.408 0.109 42.494 40.943
285.800 -16.906 -0.585 -16.918 -0.579 -17.214 -0.432 -17.245 -0.417 -17.511 -0.319 -17.691 -0.480 6.856 0.250 1.404 0.108 42.492 40.941
286.200 -16.901 -0.584 -16.913 -0.578 -17.208 -0.432 -17.240 -0.416 -17.506 -0.319 -17.685 -0.480 6.858 0.250 1.399 0.108 42.489 40.938
286.600 -16.896 -0.584 -16.908 -0.578 -17.203 -0.431 -17.234 -0.416 -17.500 -0.319 -17.679 -0.479 6.859 0.250 1.395 0.108 42.487 40.936
287.000 -16.891 -0.584 -16.903 -0.578 -17.198 -0.431 -17.229 -0.416 -17.495 -0.318 -17.673 -0.478 6.861 0.250 1.391 0.107 42.485 40.933
287.400 -16.886 -0.583 -16.898 -0.577 -17.192 -0.430 -17.223 -0.415 -17.489 -0.318 -17.666 -0.477 6.863 0.250 1.387 0.107 42.483 40.930
287.800 -16.880 -0.583 -16.892 -0.577 -17.187 -0.430 -17.218 -0.415 -17.483 -0.318 -17.660 -0.476 6.864 0.250 1.382 0.106 42.480 40.928
288.200 -16.875 -0.582 -16.887 -0.576 -17.181 -0.429 -17.212 -0.414 -17.478 -0.318 -17.654 -0.475 6.866 0.250 1.378 0.106 42.478 40.925
288.600 -16.870 -0.582 -16.882 -0.576 -17.176 -0.429 -17.207 -0.414 -17.472 -0.317 -17.648 -0.474 6.868 0.250 1.374 0.106 42.476 40.922
289.000 -16.865 -0.582 -16.877 -0.576 -17.170 -0.429 -17.201 -0.413 -17.466 -0.317 -17.642 -0.473 6.869 0.250 1.370 0.105 42.474 40.920
289.400 -16.860 -0.581 -16.872 -0.575 -17.165 -0.428 -17.196 -0.413 -17.461 -0.317 -17.636 -0.472 6.871 0.250 1.365 0.105 42.472 40.917
289.800 -16.855 -0.581 -16.867 -0.575 -17.159 -0.428 -17.190 -0.412 -17.455 -0.316 -17.630 -0.471 6.873 0.250 1.361 0.104 42.469 40.915
290.200 -16.850 -0.580 -16.861 -0.574 -17.154 -0.427 -17.185 -0.412 -17.449 -0.316 -17.624 -0.470 6.875 0.250 1.357 0.104 42.467 40.912
290.600 -16.844 -0.580 -16.856 -0.574 -17.148 -0.427 -17.179 -0.411 -17.444 -0.316 -17.617 -0.469 6.876 0.250 1.353 0.104 42.465 40.909
291.000 -16.839 -0.579 -16.851 -0.573 -17.143 -0.426 -17.174 -0.411 -17.438 -0.315 -17.611 -0.468 6.878 0.249 1.349 0.103 42.463 40.907
291.400 -16.834 -0.579 -16.846 -0.573 -17.137 -0.426 -17.168 -0.410 -17.432 -0.315 -17.605 -0.467 6.880 0.249 1.345 0.103 42.460 40.904
291.800 -16.829 -0.578 -16.841 -0.572 -17.132 -0.425 -17.163 -0.410 -17.427 -0.315 -17.599 -0.466 6.881 0.249 1.341 0.102 42.458 40.901
292.200 -16.824 -0.578 -16.836 -0.572 -17.126 -0.424 -17.157 -0.409 -17.421 -0.314 -17.593 -0.465 6.883 0.249 1.336 0.102 42.456 40.899
292.600 -16.819 -0.577 -16.830 -0.571 -17.121 -0.424 -17.152 -0.409 -17.415 -0.314 -17.587 -0.464 6.885 0.249 1.332 0.102 42.454 40.896
293.000 -16.813 -0.577 -16.825 -0.570 -17.115 -0.423 -17.146 -0.408 -17.410 -0.313 -17.580 -0.463 6.887 0.249 1.328 0.101 42.451 40.894
293.400 -16.808 -0.576 -16.820 -0.570 -17.110 -0.423 -17.141 -0.408 -17.404 -0.313 -17.574 -0.462 6.888 0.249 1.324 0.101 42.449 40.891
293.800 -16.803 -0.575 -16.815 -0.569 -17.104 -0.422 -17.135 -0.407 -17.398 -0.313 -17.568 -0.461 6.890 0.249 1.320 0.101 42.447 40.888
294.200 -16.798 -0.575 -16.810 -0.569 -17.099 -0.422 -17.130 -0.407 -17.393 -0.312 -17.562 -0.460 6.892 0.249 1.316 0.100 42.445 40.886
294.600 -16.793 -0.574 -16.804 -0.568 -17.093 -0.421 -17.124 -0.406 -17.387 -0.312 -17.556 -0.459 6.894 0.249 1.312 0.100 42.442 40.883
295.000 -16.788 -0.574 -16.799 -0.567 -17.088 -0.420 -17.118 -0.405 -17.381 -0.312 -17.549 -0.458 6.895 0.249 1.308 0.099 42.440 40.881
295.400 -16.782 -0.573 -16.794 -0.567 -17.082 -0.420 -17.113 -0.405 -17.375 -0.311 -17.543 -0.456 6.897 0.249 1.304 0.099 42.438 40.878
295.800 -16.777 -0.572 -16.789 -0.566 -17.077 -0.419 -17.107 -0.404 -17.370 -0.311 -17.537 -0.455 6.899 0.249 1.300 0.099 42.436 40.875
296.200 -16.772 -0.572 -16.784 -0.566 -17.071 -0.419 -17.102 -0.404 -17.364 -0.310 -17.531 -0.454 6.901 0.249 1.296 0.098 42.433 40.873
296.600 -16.767 -0.571 -16.778 -0.565 -17.066 -0.418 -17.096 -0.403 -17.358 -0.310 -17.525 -0.453 6.902 0.249 1.292 0.098 42.431 40.870
297.000 -16.762 -0.570 -16.773 -0.564 -17.060 -0.417 -17.091 -0.402 -17.352 -0.310 -17.518 -0.452 6.904 0.249 1.288 0.098 42.429 40.868
297.400 -16.757 -0.570 -16.768 -0.564 -17.055 -0.417 -17.085 -0.402 -17.347 -0.309 -17.512 -0.451 6.906 0.249 1.284 0.097 42.427 40.865
297.800 -16.751 -0.569 -16.763 -0.563 -17.049 -0.416 -17.080 -0.401 -17.341 -0.309 -17.506 -0.449 6.908 0.249 1.279 0.097 42.424 40.863
298.200 -16.746 -0.568 -16.758 -0.562 -17.044 -0.415 -17.074 -0.401 -17.335 -0.309 -17.500 -0.448 6.910 0.249 1.276 0.097 42.422 40.860
298.600 -16.741 -0.568 -16.752 -0.561 -17.038 -0.415 -17.068 -0.400 -17.329 -0.308 -17.494 -0.447 6.911 0.249 1.272 0.096 42.420 40.857
299.000 -16.736 -0.567 -16.747 -0.561 -17.033 -0.414 -17.063 -0.399 -17.324 -0.308 -17.487 -0.446 6.913 0.249 1.268 0.096 42.417 40.855
299.400 -16.731 -0.566 -16.742 -0.560 -17.027 -0.413 -17.057 -0.399 -17.318 -0.307 -17.481 -0.444 6.915 0.249 1.264 0.095 42.415 40.852
299.800 -16.725 -0.565 -16.737 -0.559 -17.021 -0.413 -17.052 -0.398 -17.312 -0.307 -17.475 -0.443 6.917 0.249 1.260 0.095 42.413 40.850
300.200 -16.720 -0.565 -16.732 -0.559 -17.016 -0.412 -17.046 -0.397 -17.306 -0.307 -17.469 -0.442 6.918 0.249 1.256 0.095 42.411 40.847
300.600 -16.715 -0.564 -16.726 -0.558 -17.010 -0.411 -17.041 -0.397 -17.300 -0.306 -17.462 -0.440 6.920 0.249 1.252 0.094 42.408 40.845
301.000 -16.710 -0.563 -16.721 -0.557 -17.005 -0.410 -17.035 -0.396 -17.295 -0.306 -17.456 -0.439 6.922 0.249 1.248 0.094 42.406 40.842
301.400 -16.705 -0.562 -16.716 -0.556 -16.999 -0.410 -17.029 -0.395 -17.289 -0.305 -17.450 -0.438 6.924 0.249 1.244 0.094 42.404 40.840
301.800 -16.699 -0.562 -16.711 -0.555 -16.994 -0.409 -17.024 -0.394 -17.283 -0.305 -17.444 -0.436 6.926 0.249 1.240 0.093 42.402 40.837
302.200 -16.694 -0.561 -16.705 -0.555 -16.988 -0.408 -17.018 -0.394 -17.277 -0.305 -17.437 -0.435 6.928 0.249 1.236 0.093 42.399 40.835
302.600 -16.689 -0.560 -16.700 -0.554 -16.982 -0.407 -17.013 -0.393 -17.271 -0.304 -17.431 -0.434 6.929 0.249 1.232 0.093 42.397 40.832
303.000 -16.684 -0.559 -16.695 -0.553 -16.977 -0.407 -17.007 -0.392 -17.266 -0.304 -17.425 -0.432 6.931 0.250 1.228 0.092 42.395 40.830
303.400 -16.678 -0.558 -16.690 -0.552 -16.971 -0.406 -17.001 -0.391 -17.260 -0.303 -17.419 -0.431 6.933 0.250 1.224 0.092 42.392 40.827
303.800 -16.673 -0.558 -16.684 -0.551 -16.966 -0.405 -16.996 -0.391 -17.254 -0.303 -17.412 -0.429 6.935 0.250 1.221 0.092 42.390 40.825
304.200 -16.668 -0.557 -16.679 -0.550 -16.960 -0.404 -16.990 -0.390 -17.248 -0.303 -17.406 -0.428 6.937 0.250 1.217 0.091 42.388 40.822
304.600 -16.663 -0.556 -16.674 -0.550 -16.954 -0.403 -16.984 -0.389 -17.242 -0.302 -17.400 -0.426 6.939 0.250 1.213 0.091 42.386 40.820
305.000 -16.658 -0.555 -16.669 -0.549 -16.949 -0.402 -16.979 -0.388 -17.236 -0.302 -17.394 -0.425 6.940 0.250 1.209 0.091 42.383 40.817
305.400 -16.652 -0.554 -16.664 -0.548 -16.943 -0.402 -16.973 -0.387 -17.230 -0.301 -17.387 -0.424 6.942 0.250 1.205 0.090 42.381 40.815
305.800 -16.647 -0.553 -16.658 -0.547 -16.938 -0.401 -16.968 -0.387 -17.224 -0.301 -17.381 -0.422 6.944 0.250 1.201 0.090 42.379 40.812
306.200 -16.642 -0.552 -16.653 -0.546 -16.932 -0.400 -16.962 -0.386 -17.219 -0.300 -17.375 -0.420 6.946 0.250 1.198 0.090 42.376 40.810
306.600 -16.637 -0.551 -16.648 -0.545 -16.926 -0.399 -16.956 -0.385 -17.213 -0.300 -17.369 -0.419 6.948 0.250 1.194 0.089 42.374 40.808
307.000 -16.631 -0.550 -16.643 -0.544 -16.921 -0.398 -16.951 -0.384 -17.207 -0.300 -17.362 -0.417 6.949 0.250 1.190 0.089 42.372 40.805
307.400 -16.626 -0.549 -16.637 -0.543 -16.915 -0.397 -16.945 -0.383 -17.201 -0.299 -17.356 -0.416 6.951 0.250 1.186 0.089 42.369 40.803
307.800 -16.621 -0.549 -16.632 -0.542 -16.910 -0.396 -16.939 -0.382 -17.195 -0.299 -17.350 -0.414 6.953 0.250 1.183 0.088 42.367 40.800
308.200 -16.616 -0.548 -16.627 -0.541 -16.904 -0.395 -16.934 -0.381 -17.189 -0.298 -17.343 -0.413 6.955 0.250 1.179 0.088 42.365 40.798
308.600 -16.610 -0.547 -16.622 -0.540 -16.898 -0.394 -16.928 -0.381 -17.183 -0.298 -17.337 -0.411 6.957 0.250 1.175 0.088 42.363 40.795
309.000 -16.605 -0.546 -16.616 -0.539 -16.893 -0.394 -16.922 -0.380 -17.177 -0.297 -17.331 -0.409 6.959 0.250 1.171 0.088 42.360 40.793
309.400 -16.600 -0.545 -16.611 -0.538 -16.887 -0.393 -16.917 -0.379 -17.171 -0.297 -17.325 -0.408 6.960 0.250 1.168 0.087 42.358 40.791
309.800 -16.595 -0.544 -16.606 -0.537 -16.882 -0.392 -16.911 -0.378 -17.165 -0.296 -17.318 -0.406 6.962 0.251 1.164 0.087 42.356 40.788
310.200 -16.589 -0.543 -16.600 -0.536 -16.876 -0.391 -16.905 -0.377 -17.159 -0.296 -17.312 -0.404 6.964 0.251 1.160 0.087 42.353 40.786
310.600 -16.584 -0.542 -16.595 -0.535 -16.870 -0.390 -16.900 -0.376 -17.154 -0.296 -17.306 -0.403 6.966 0.251 1.157 0.086 42.351 40.784
311.000 -16.579 -0.541 -16.590 -0.534 -16.865 -0.389 -16.894 -0.375 -17.148 -0.295 -17.299 -0.401 6.968 0.251 1.153 0.086 42.349 40.781
311.400 -16.574 -0.540 -16.585 -0.533 -16.859 -0.388 -16.888 -0.374 -17.142 -0.295 -17.293 -0.399 6.969 0.251 1.149 0.086 42.346 40.779
311.800 -16.569 -0.539 -16.579 -0.532 -16.853 -0.387 -16.883 -0.373 -17.136 -0.294 -17.287 -0.398 6.971 0.251 1.146 0.085 42.344 40.776
312.200 -16.563 -0.537 -16.574 -0.531 -16.848 -0.386 -16.877 -0.372 -17.130 -0.294 -17.280 -0.396 6.973 0.251 1.142 0.085 42.342 40.774
312.600 -16.558 -0.536 -16.569 -0.530 -16.842 -0.385 -16.871 -0.371 -17.124 -0.293 -17.274 -0.394 6.975 0.251 1.138 0.085 42.340 40.772
313.000 -16.553 -0.535 -16.564 -0.529 -16.837 -0.383 -16.866 -0.370 -17.118 -0.293 -17.268 -0.392 6.976 0.251 1.135 0.085 42.337 40.769
313.400 -16.548 -0.534 -16.558 -0.528 -16.831 -0.382 -16.860 -0.369 -17.112 -0.292 -17.262 -0.391 6.978 0.251 1.131 0.084 42.335 40.767
313.800 -16.542 -0.533 -16.553 -0.527 -16.825 -0.381 -16.854 -0.368 -17.106 -0.291 -17.255 -0.389 6.980 0.251 1.128 0.084 42.333 40.765
314.200 -16.537 -0.532 -16.548 -0.526 -16.820 -0.380 -16.849 -0.367 -17.100 -0.291 -17.249 -0.387 6.981 0.251 1.124 0.084 42.330 40.762
314.600 -16.532 -0.531 -16.543 -0.525 -16.814 -0.379 -16.843 -0.366 -17.094 -0.290 -17.243 -0.385 6.983 0.251 1.121 0.083 42.328 40.760
315.000 -16.527 -0.530 -16.537 -0.523 -16.808 -0.378 -16.837 -0.365 -17.088 -0.290 -17.236 -0.383 6.985 0.252 1.117 0.083 42.326 40.758
315.400 -16.521 -0.529 -16.532 -0.522 -16.803 -0.377 -16.832 -0.364 -17.082 -0.289 -17.230 -0.381 6.987 0.252 1.114 0.083 42.323 40.755
315.800 -16.516 -0.528 -16.527 -0.521 -16.797 -0.376 -16.826 -0.363 -17.076 -0.289 -17.224 -0.379 6.988 0.252 1.110 0.083 42.321 40.753
316.200 -16.511 -0.526 -16.522 -0.520 -16.791 -0.375 -16.820 -0.361 -17.070 -0.288 -17.217 -0.378 6.990 0.252 1.107 0.082 42.319 40.751
316.600 -16.506 -0.525 -16.516 -0.519 -16.786 -0.373 -16.815 -0.360 -17.064 -0.287 -17.211 -0.376 6.991 0.252 1.103 0.082 42.316 40.748
317.000 -16.500 -0.524 -16.511 -0.518 -16.780 -0.372 -16.809 -0.359 -17.058 -0.287 -17.205 -0.374 6.993 0.252 1.100 0.082 42.314 40.746
317.400 -16.495 -0.523 -16.506 -0.516 -16.774 -0.371 -16.803 -0.358 -17.052 -0.286 -17.199 -0.372 6.995 0.252 1.096 0.081 42.312 40.743
317.800 -16.490 -0.522 -16.501 -0.515 -16.769 -0.370 -16.798 -0.357 -17.046 -0.286 -17.192 -0.370 6.996 0.252 1.093 0.081 42.310 40.741
318.200 -16.485 -0.521 -16.495 -0.514 -16.763 -0.369 -16.792 -0.356 -17.040 -0.285 -17.186 -0.368 6.998 0.252 1.090 0.081 42.307 40.739
318.600 -16.479 -0.519 -16.490 -0.513 -16.757 -0.367 -16.786 -0.355 -17.034 -0.284 -17.180 -0.366 6.999 0.252 1.086 0.081 42.305 40.737
319.000 -16.474 -0.518 -16.485 -0.512 -16.752 -0.366 -16.781 -0.353 -17.028 -0.284 -17.173 -0.364 7.001 0.252 1.083 0.080 42.303 40.734
319.400 -16.469 -0.517 -16.479 -0.510 -16.746 -0.365 -16.775 -0.352 -17.022 -0.283 -17.167 -0.362 7.002 0.252 1.080 0.080 42.300 40.732
319.800 -16.464 -0.516 -16.474 -0.509 -16.741 -0.364 -16.769 -0.351 -17.016 -0.282 -17.161 -0.360 7.004 0.252 1.076 0.080 42.298 40.730
320.200 -16.458 -0.515 -16.469 -0.508 -16.735 -0.362 -16.764 -0.350 -17.010 -0.281 -17.154 -0.358 7.005 0.253 1.073 0.079 42.296 40.727
320.600 -16.453 -0.513 -16.464 -0.507 -16.729 -0.361 -16.758 -0.348 -17.004 -0.281 -17.148 -0.356 7.007 0.253 1.070 0.079 42.293 40.725
321.000 -16.448 -0.512 -16.458 -0.505 -16.724 -0.360 -16.752 -0.347 -16.998 -0.280 -17.142 -0.353 7.008 0.253 1.066 0.079 42.291 40.723
321.400 -16.443 -0.511 -16.453 -0.504 -16.718 -0.359 -16.746 -0.346 -16.992 -0.279 -17.136 -0.351 7.009 0.253 1.063 0.079 42.289 40.720
321.800 -16.437 -0.510 -16.448 -0.503 -16.712 -0.357 -16.741 -0.345 -16.986 -0.278 -17.129 -0.349 7.011 0.253 1.060 0.078 42.286 40.718
322.200 -16.432 -0.508 -16.443 -0.502 -16.707 -0.356 -16.735 -0.343 -16.980 -0.278 -17.123 -0.347 7.012 0.253 1.057 0.078 42.284 40.716
322.600 -16.427 -0.507 -16.437 -0.500 -16.701 -0.355 -16.729 -0.342 -16.974 -0.277 -17.117 -0.345 7.013 0.253 1.054 0.078 42.282 40.713
323.000 -16.422 -0.506 -16.432 -0.499 -16.695 -0.353 -16.724 -0.341 -16.968 -0.276 -17.110 -0.343 7.015 0.253 1.050 0.078 42.279 40.711
323.400 -16.417 -0.504 -16.427 -0.498 -16.690 -0.352 -16.718 -0.339 -16.962 -0.275 -17.104 -0.340 7.016 0.253 1.047 0.077 42.277 40.709
323.800 -16.411 -0.503 -16.422 -0.497 -16.684 -0.350 -16.712 -0.338 -16.957 -0.274 -17.098 -0.338 7.017 0.253 1.044 0.077 42.275 40.706
324.200 -16.406 -0.502 -16.416 -0.495 -16.678 -0.349 -16.707 -0.337 -16.951 -0.274 -17.092 -0.336 7.018 0.253 1.041 0.077 42.273 40.704
324.600 -16.401 -0.501 -16.411 -0.494 -16.673 -0.348 -16.701 -0.335 -16.945 -0.273 -17.085 -0.334 7.019 0.253 1.038 0.076 42.270 40.702
325.000 -16.396 -0.499 -16.406 -0.493 -16.667 -0.346 -16.695 -0.334 -16.939 -0.272 -17.079 -0.331 7.021 0.253 1.035 0.076 42.268 40.699
325.400 -16.390 -0.498 -16.401 -0.491 -16.661 -0.345 -16.690 -0.333 -16.933 -0.271 -17.073 -0.329 7.022 0.253 1.032 0.076 42.266 40.697
325.800 -16.385 -0.497 -16.395 -0.490 -16.656 -0.343 -16.684 -0.331 -16.927 -0.270 -17.066 -0.327 7.023 0.253 1.029 0.076 42.263 40.695
326.200 -16.380 -0.495 -16.390 -0.489 -16.650 -0.342 -16.678 -0.330 -16.921 -0.269 -17.060 -0.324 7.024 0.253 1.026 0.075 42.261 40.692
326.600 -16.375 -0.494 -16.385 -0.487 -16.645 -0.340 -16.673 -0.328 -16.915 -0.268 -17.054 -0.322 7.025 0.253 1.023 0.075 42.259 40.690
327.000 -16.370 -0.493 -16.380 -0.486 -16.639 -0.339 -16.667 -0.327 -16.909 -0.267 -17.048 -0.320 7.026 0.253 1.020 0.075 42.256 40.688
327.400 -16.364 -0.491 -16.375 -0.485 -16.633 -0.338 -16.661 -0.325 -16.903 -0.266 -17.041 -0.317 7.027 0.253 1.017 0.075 42.254 40.685
327.800 -16.359 -0.490 -16.369 -0.483 -16.628 -0.336 -16.656 -0.324 -16.897 -0.265 -17.035 -0.315 7.027 0.253 1.014 0.074 42.252 40.683
328.200 -16.354 -0.489 -16.364 -0.482 -16.622 -0.335 -16.650 -0.323 -16.891 -0.264 -17.029 -0.313 7.028 0.253 1.011 0.074 42.250 40.681
328.600 -16.349 -0.487 -16.359 -0.480 -16.616 -0.333 -16.644 -0.321 -16.885 -0.263 -17.023 -0.310 7.029 0.253 1.008 0.074 42.247 40.678
329.000 -16.343 -0.486 -16.354 -0.479 -16.611 -0.331 -16.639 -0.320 -16.879 -0.262 -17.016 -0.308 7.030 0.253 1.005 0.073 42.245 40.676
329.400 -16.338 -0.485 -16.348 -0.478 -16.605 -0.330 -16.633 -0.318 -16.873 -0.261 -17.010 -0.305 7.031 0.253 1.002 0.073 42.243 40.674
329.800 -16.333 -0.483 -16.343 -0.476 -16.600 -0.328 -16.627 -0.317 -16.867 -0.260 -17.004 -0.303 7.031 0.253 0.999 0.073 42.240 40.671
330.200 -16.328 -0.482 -16.338 -0.475 -16.594 -0.327 -16.622 -0.315 -16.861 -0.259 -16.998 -0.300 7.032 0.253 0.996 0.073 42.238 40.669
330.600 -16.323 -0.480 -16.333 -0.474 -16.588 -0.325 -16.616 -0.313 -16.855 -0.258 -16.991 -0.298 7.033 0.253 0.994 0.072 42.236 40.667
331.000 -16.318 -0.479 -16.328 -0.472 -16.583 -0.324 -16.610 -0.312 -16.850 -0.257 -16.985 -0.295 7.033 0.253 0.991 0.072 42.234 40.664
331.400 -16.312 -0.478 -16.322 -0.471 -16.577 -0.322 -16.605 -0.310 -16.844 -0.256 -16.979 -0.293 7.034 0.253 0.988 0.072 42.231 40.662
331.800 -16.307 -0.476 -16.317 -0.469 -16.571 -0.320 -16.599 -0.309 -16.838 -0.255 -16.973 -0.290 7.034 0.253 0.985 0.071 42.229 40.660
332.200 -16.302 -0.475 -16.312 -0.468 -16.566 -0.319 -16.593 -0.307 -16.832 -0.254 -16.966 -0.287 7.035 0.252 0.983 0.071 42.227 40.657
332.600 -16.297 -0.474 -16.307 -0.467 -16.560 -0.317 -16.588 -0.306 -16.826 -0.253 -16.960 -0.285 7.035 0.252 0.980 0.071 42.224 40.655
333.000 -16.292 -0.472 -16.302 -0.465 -16.555 -0.316 -16.582 -0.304 -16.820 -0.251 -16.954 -0.282 7.035 0.252 0.977 0.071 42.222 40.653
333.400 -16.286 -0.471 -16.296 -0.464 -16.549 -0.314 -16.577 -0.302 -16.814 -0.250 -16.948 -0.280 7.036 0.252 0.975 0.070 42.220 40.650
333.800 -16.281 -0.469 -16.291 -0.462 -16.543 -0.312 -16.571 -0.301 -16.808 -0.249 -16.942 -0.277 7.036 0.252 0.972 0.070 42.218 40.648
334.200 -16.276 -0.468 -16.286 -0.461 -16.538 -0.311 -16.565 -0.299 -16.802 -0.248 -16.935 -0.274 7.036 0.252 0.970 0.070 42.215 40.645
334.600 -16.271 -0.467 -16.281 -0.460 -16.532 -0.309 -16.560 -0.298 -16.797 -0.247 -16.929 -0.272 7.036 0.252 0.967 0.070 42.213 40.643
335.000 -16.266 -0.465 -16.276 -0.458 -16.527 -0.307 -16.554 -0.296 -16.791 -0.246 -16.923 -0.269 7.036 0.251 0.964 0.069 42.211 40.641
335.400 -16.261 -0.464 -16.271 -0.457 -16.521 -0.306 -16.549 -0.294 -16.785 -0.244 -16.917 -0.266 7.036 0.251 0.962 0.069 42.208 40.638
335.800 -16.256 -0.462 -16.265 -0.455 -16.516 -0.304 -16.543 -0.293 -16.779 -0.243 -16.911 -0.263 7.036 0.251 0.959 0.069 42.206 40.636
336.200 -16.250 -0.461 -16.260 -0.454 -16.510 -0.302 -16.537 -0.291 -16.773 -0.242 -16.904 -0.261 7.036 0.251 0.957 0.068 42.204 40.633
336.600 -16.245 -0.460 -16.255 -0.453 -16.504 -0.301 -16.532 -0.289 -16.767 -0.241 -16.898 -0.258 7.036 0.250 0.954 0.068 42.202 40.631
337.000 -16.240 -0.458 -16.250 -0.451 -16.499 -0.299 -16.526 -0.288 -16.761 -0.239 -16.892 -0.255 7.036 0.250 0.952 0.068 42.199 40.628
337.400 -16.235 -0.457 -16.245 -0.450 -16.493 -0.297 -16.521 -0.286 -16.756 -0.238 -16.886 -0.252 7.035 0.250 0.950 0.067 42.197 40.626
337.800 -16.230 -0.456 -16.240 -0.448 -16.488 -0.295 -16.515 -0.284 -16.750 -0.237 -16.880 -0.250 7.035 0.250 0.947 0.067 42.195 40.624
338.200 -16.225 -0.454 -16.235 -0.447 -16.482 -0.294 -16.509 -0.282 -16.744 -0.235 -16.874 -0.247 7.035 0.249 0.945 0.067 42.193 40.621
338.600 -16.220 -0.453 -16.229 -0.445 -16.477 -0.292 -16.504 -0.281 -16.738 -0.234 -16.868 -0.244 7.034 0.249 0.943 0.067 42.190 40.619
339.000 -16.215 -0.451 -16.224 -0.444 -16.471 -0.290 -16.498 -0.279 -16.732 -0.233 -16.861 -0.241 7.034 0.249 0.940 0.066 42.188 40.616
339.400 -16.209 -0.450 -16.219 -0.443 -16.466 -0.289 -16.493 -0.277 -16.727 -0.232 -16.855 -0.238 7.033 0.248 0.938 0.066 42.186 40.614
339.800 -16.204 -0.449 -16.214 -0.441 -16.460 -0.287 -16.487 -0.276 -16.721 -0.230 -16.849 -0.235 7.032 0.248 0.936 0.066 42.184 40.611
340.200 -16.199 -0.447 -16.209 -0.440 -16.455 -0.285 -16.482 -0.274 -16.715 -0.229 -16.843 -0.232 7.032 0.247 0.934 0.065 42.181 40.609
340.600 -16.194 -0.446 -16.204 -0.439 -16.449 -0.283 -16.476 -0.272 -16.709 -0.227 -16.837 -0.229 7.031 0.247 0.931 0.065 42.179 40.606
341.000 -16.189 -0.445 -16.199 -0.437 -16.444 -0.282 -16.471 -0.270 -16.703 -0.226 -16.831 -0.226 7.030 0.246 0.929 0.065 42.177 40.604
341.400 -16.184 -0.443 -16.194 -0.436 -16.438 -0.280 -16.465 -0.269 -16.698 -0.225 -16.825 -0.223 7.029 0.246 0.927 0.064 42.175 40.601
341.800 -16.179 -0.442 -16.189 -0.434 -16.433 -0.278 -16.459 -0.267 -16.692 -0.223 -16.819 -0.220 7.028 0.245 0.925 0.064 42.172 40.599
342.200 -16.174 -0.441 -16.183 -0.433 -16.427 -0.276 -16.454 -0.265 -16.686 -0.222 -16.813 -0.218 7.027 0.245 0.923 0.064 42.170 40.596
342.600 -16.169 -0.439 -16.178 -0.432 -16.422 -0.275 -16.448 -0.263 -16.681 -0.221 -16.807 -0.215 7.026 0.244 0.921 0.063 42.168 40.594
343.000 -16.164 -0.438 -16.173 -0.430 -16.416 -0.273 -16.443 -0.262 -16.675 -0.219 -16.801 -0.212 7.025 0.244 0.919 0.063 42.166 40.591
343.400 -16.159 -0.437 -16.168 -0.429 -16.411 -0.271 -16.437 -0.260 -16.669 -0.218 -16.794 -0.209 7.024 0.243 0.917 0.062 42.163 40.588
343.800 -16.154 -0.435 -16.163 -0.428 -16.405 -0.269 -16.432 -0.258 -16.663 -0.217 -16.788 -0.205 7.022 0.242 0.915 0.062 42.161 40.586
344.200 -16.149 -0.434 -16.158 -0.426 -16.400 -0.268 -16.426 -0.257 -16.658 -0.215 -16.782 -0.202 7.021 0.242 0.913 0.062 42.159 40.583
344.600 -16.144 -0.433 -16.153 -0.425 -16.394 -0.266 -16.421 -0.255 -16.652 -0.214 -16.776 -0.199 7.020 0.241 0.911 0.061 42.157 40.581
345.000 -16.139 -0.431 -16.148 -0.424 -16.389 -0.264 -16.416 -0.253 -16.646 -0.212 -16.770 -0.196 7.018 0.240 0.909 0.061 42.155 40.578
345.400 -16.134 -0.430 -16.143 -0.422 -16.384 -0.262 -16.410 -0.251 -16.641 -0.211 -16.764 -0.193 7.016 0.240 0.907 0.061 42.152 40.575
345.800 -16.129 -0.429 -16.138 -0.421 -16.378 -0.261 -16.405 -0.250 -16.635 -0.210 -16.758 -0.190 7.015 0.239 0.905 0.060 42.150 40.573
346.200 -16.124 -0.428 -16.133 -0.420 -16.373 -0.259 -16.399 -0.248 -16.629 -0.208 -16.752 -0.187 7.013 0.238 0.903 0.060 42.148 40.570
346.600 -16.119 -0.426 -16.128 -0.419 -16.367 -0.257 -16.394 -0.246 -16.624 -0.207 -16.746 -0.184 7.011 0.237 0.901 0.059 42.146 40.567
347.000 -16.114 -0.425 -16.123 -0.417 -16.362 -0.256 -16.388 -0.245 -16.618 -0.206 -16.740 -0.181 7.009 0.236 0.899 0.059 42.144 40.565
347.400 -16.109 -0.424 -16.118 -0.416 -16.357 -0.254 -16.383 -0.243 -16.612 -0.204 -16.734 -0.178 7.008 0.235 0.898 0.058 42.141 40.562
347.800 -16.104 -0.423 -16.113 -0.415 -16.351 -0.252 -16.377 -0.241 -16.607 -0.203 -16.728 -0.175 7.006 0.234 0.896 0.058 42.139 40.559
348.200 -16.099 -0.421 -16.108 -0.414 -16.346 -0.251 -16.372 -0.240 -16.601 -0.201 -16.723 -0.171 7.004 0.233 0.894 0.058 42.137 40.556
348.600 -16.094 -0.420 -16.103 -0.412 -16.340 -0.249 -16.367 -0.238 -16.595 -0.200 -16.717 -0.168 7.002 0.232 0.892 0.057 42.135 40.554
349.000 -16.089 -0.419 -16.098 -0.411 -16.335 -0.247 -16.361 -0.236 -16.590 -0.199 -16.711 -0.165 6.999 0.231 0.891 0.057 42.133 40.551
349.400 -16.084 -0.418 -16.093 -0.410 -16.330 -0.246 -16.356 -0.235 -16.584 -0.198 -16.705 -0.162 6.997 0.230 0.889 0.056 42.130 40.548
349.800 -16.079 -0.417 -16.088 -0.409 -16.324 -0.244 -16.350 -0.233 -16.579 -0.196 -16.699 -0.159 6.995 0.229 0.887 0.056 42.128 40.545
350.200 -16.074 -0.416 -16.083 -0.408 -16.319 -0.243 -16.345 -0.232 -16.573 -0.195 -16.693 -0.156 6.993 0.228 0.886 0.055 42.126 40.542
350.600 -16.069 -0.414 -16.078 -0.406 -16.314 -0.241 -16.340 -0.230 -16.568 -0.194 -16.687 -0.153 6.990 0.226 0.884 0.055 42.124 40.540
351.000 -16.064 -0.413 -16.073 -0.405 -16.308 -0.239 -16.334 -0.228 -16.562 -0.192 -16.681 -0.149 6.988 0.225 0.883 0.054 42.122 40.537
351.400 -16.059 -0.412 -16.069 -0.404 -16.303 -0.238 -16.329 -0.227 -16.556 -0.191 -16.675 -0.146 6.986 0.224 0.881 0.054 42.120 40.534
351.800 -16.054 -0.411 -16.064 -0.403 -16.298 -0.236 -16.324 -0.225 -16.551 -0.190 -16.670 -0.143 6.983 0.222 0.879 0.053 42.117 40.531
352.200 -16.050 -0.410 -16.059 -0.402 -16.292 -0.235 -16.318 -0.224 -16.545 -0.189 -16.664 -0.140 6.981 0.221 0.878 0.053 42.115 40.528
352.600 -16.045 -0.409 -16.054 -0.401 -16.287 -0.233 -16.313 -0.222 -16.540 -0.188 -16.658 -0.137 6.979 0.220 0.876 0.052 42.113 40.525
353.000 -16.040 -0.408 -16.049 -0.400 -16.282 -0.232 -16.308 -0.221 -16.534 -0.186 -16.652 -0.134 6.976 0.218 0.875 0.052 42.111 40.522
353.400 -16.035 -0.407 -16.044 -0.399 -16.277 -0.231 -16.303 -0.220 -16.529 -0.185 -16.646 -0.131 6.974 0.217 0.873 0.051 42.109 40.519
353.800 -16.030 -0.406 -16.039 -0.398 -16.271 -0.229 -16.297 -0.218 -16.523 -0.184 -16.640 -0.128 6.971 0.215 0.872 0.050 42.107 40.517
354.200 -16.025 -0.405 -16.034 -0.397 -16.266 -0.228 -16.292 -0.217 -16.518 -0.183 -16.635 -0.124 6.969 0.214 0.870 0.050 42.105 40.514
354.600 -16.021 -0.404 -16.030 -0.396 -16.261 -0.227 -16.287 -0.216 -16.512 -0.182 -16.629 -0.121 6.967 0.212 0.869 0.049 42.103 40.511
355.000 -16.016 -0.403 -16.025 -0.395 -16.256 -0.225 -16.281 -0.214 -16.507 -0.181 -16.623 -0.118 6.964 0.211 0.867 0.049 42.100 40.508
355.400 -16.011 -0.402 -16.020 -0.394 -16.251 -0.224 -16.276 -0.213 -16.501 -0.180 -16.617 -0.115 6.962 0.209 0.866 0.048 42.098 40.505
355.800 -16.006 -0.401 -16.015 -0.393 -16.245 -0.223 -16.271 -0.212 -16.496 -0.179 -16.612 -0.112 6.960 0.208 0.864 0.047 42.096 40.502
356.200 -16.001 -0.400 -16.010 -0.392 -16.240 -0.222 -16.266 -0.211 -16.491 -0.178 -16.606 -0.109 6.957 0.206 0.862 0.047 42.094 40.499
356.600 -15.997 -0.399 -16.005 -0.391 -16.235 -0.220 -16.261 -0.210 -16.485 -0.177 -16.600 -0.107 6.955 0.204 0.861 0.046 42.092 40.496
357.000 -15.992 -0.398 -16.001 -0.390 -16.230 -0.219 -16.255 -0.208 -16.480 -0.176 -16.595 -0.104 6.953 0.203 0.859 0.046 42.090 40.494
357.400 -15.987 -0.398 -15.996 -0.389 -16.225 -0.218 -16.250 -0.207 -16.474 -0.176 -16.589 -0.101 6.951 0.201 0.858 0.045 42.088 40.491
357.800 -15.982 -0.397 -15.991 -0.389 -16.219 -0.217 -16.245 -0.206 -16.469 -0.175 -16.583 -0.098 6.950 0.200 0.856 0.044 42.086 40.488
358.200 -15.977 -0.396 -15.986 -0.388 -16.214 -0.216 -16.240 -0.205 -16.464 -0.174 -16.578 -0.096 6.948 0.198 0.855 0.044 42.084 40.485
358.600 -15.973 -0.395 -15.982 -0.387 -16.209 -0.215 -16.235 -0.204 -16.458 -0.173 -16.572 -0.093 6.946 0.197 0.853 0.043 42.082 40.483
359.000 -15.968 -0.394 -15.977 -0.386 -16.204 -0.214 -16.230 -0.204 -16.453 -0.173 -16.566 -0.090 6.945 0.195 0.851 0.043 42.080 40.480
359.400 -15.963 -0.394 -15.972 -0.386 -16.199 -0.213 -16.224 -0.203 -16.447 -0.172 -16.561 -0.088 6.944 0.194 0.849 0.042 42.077 40.477
359.800 -15.959 -0.393 -15.967 -0.385 -16.194 -0.213 -16.219 -0.202 -16.442 -0.172 -16.555 -0.086 6.943 0.193 0.848 0.041 42.075 40.475
360.200 -15.954 -0.392 -15.963 -0.384 -16.189 -0.212 -16.214 -0.201 -16.437 -0.171 -16.550 -0.083 6.942 0.191 0.846 0.041 42.073 40.472
360.600 -15.949 -0.392 -15.958 -0.383 -16.184 -0.211 -16.209 -0.201 -16.431 -0.171 -16.544 -0.081 6.941 0.190 0.844 0.040 42.071 40.470
361.000 -15.945 -0.391 -15.953 -0.383 -16.179 -0.210 -16.204 -0.200 -16.426 -0.170 -16.539 -0.079 6.941 0.189 0.842 0.040 42.069 40.468
361.400 -15.940 -0.390 -15.949 -0.382 -16.174 -0.210 -16.199 -0.199 -16.421 -0.170 -16.533 -0.077 6.941 0.188 0.840 0.039 42.067 40.465
361.800 -15.935 -0.390 -15.944 -0.381 -16.169 -0.209 -16.194 -0.199 -16.415 -0.170 -16.528 -0.076 6.941 0.187 0.838 0.039 42.065 40.463
362.200 -15.931 -0.389 -15.939 -0.381 -16.164 -0.209 -16.189 -0.198 -16.410 -0.169 -16.522 -0.074 6.941 0.186 0.836 0.039 42.063 40.461
362.600 -15.926 -0.388 -15.935 -0.380 -16.159 -0.208 -16.184 -0.198 -16.405 -0.169 -16.517 -0.073 6.942 0.186 0.834 0.038 42.061 40.459
363.000 -15.921 -0.388 -15.930 -0.380 -16.154 -0.208 -16.179 -0.198 -16.400 -0.169 -16.511 -0.072 6.942 0.185 0.832 0.038 42.059 40.457
363.400 -15.917 -0.387 -15.925 -0.379 -16.149 -0.208 -16.174 -0.197 -16.394 -0.169 -16.506 -0.071 6.944 0.185 0.830 0.038 42.057 40.456
363.800 -15.912 -0.387 -15.921 -0.379 -16.144 -0.207 -16.169 -0.197 -16.389 -0.169 -16.500 -0.070 6.945 0.184 0.828 0.037 42.055 40.454
364.200 -15.908 -0.386 -15.916 -0.378 -16.139 -0.207 -16.164 -0.197 -16.384 -0.169 -16.495 -0.070 6.947 0.184 0.825 0.037 42.053 40.452
364.600 -15.903 -0.386 -15.912 -0.378 -16.134 -0.207 -16.159 -0.197 -16.378 -0.170 -16.489 -0.069 6.949 0.184 0.823 0.037 42.051 40.451
365.000 -15.898 -0.385 -15.907 -0.377 -16.129 -0.207 -16.154 -0.197 -16.373 -0.170 -16.484 -0.069 6.951 0.185 0.820 0.037 42.049 40.449
365.400 -15.894 -0.385 -15.902 -0.377 -16.124 -0.207 -16.149 -0.197 -16.368 -0.170 -16.479 -0.070 6.954 0.185 0.818 0.037 42.047 40.448
365.800 -15.889 -0.385 -15.898 -0.377 -16.119 -0.207 -16.144 -0.197 -16.363 -0.170 -16.473 -0.070 6.957 0.185 0.815 0.037 42.045 40.447
366.200 -15.885 -0.384 -15.893 -0.376 -16.115 -0.207 -16.139 -0.197 -16.358 -0.171 -16.468 -0.071 6.960 0.186 0.813 0.037 42.043 40.446
366.600 -15.880 -0.384 -15.889 -0.376 -16.110 -0.207 -16.134 -0.197 -16.352 -0.171 -16.463 -0.072 6.964 0.187 0.810 0.037 42.041 40.445
367.000 -15.876 -0.384 -15.884 -0.376 -16.105 -0.207 -16.130 -0.198 -16.347 -0.172 -16.457 -0.073 6.968 0.188 0.807 0.037 42.039 40.444
367.400 -15.871 -0.383 -15.880 -0.375 -16.100 -0.208 -16.125 -0.198 -16.342 -0.172 -16.452 -0.074 6.972 0.189 0.804 0.037 42.037 40.444
367.800 -15.867 -0.383 -15.875 -0.375 -16.095 -0.208 -16.120 -0.198 -16.337 -0.173 -16.447 -0.076 6.976 0.190 0.802 0.038 42.035 40.443
368.200 -15.862 -0.383 -15.871 -0.375 -16.090 -0.208 -16.115 -0.199 -16.332 -0.174 -16.442 -0.077 6.981 0.192 0.799 0.038 42.033 40.442
368.600 -15.858 -0.383 -15.866 -0.375 -16.086 -0.209 -16.110 -0.199 -16.326 -0.175 -16.436 -0.079 6.986 0.193 0.796 0.038 42.031 40.442
369.000 -15.853 -0.382 -15.862 -0.374 -16.081 -0.209 -16.105 -0.200 -16.321 -0.175 -16.431 -0.081 6.991 0.195 0.793 0.038 42.029 40.441
369.400 -15.849 -0.382 -15.857 -0.374 -16.076 -0.210 -16.101 -0.200 -16.316 -0.176 -16.426 -0.083 6.997 0.196 0.790 0.039 42.027 40.441
369.800 -15.844 -0.382 -15.853 -0.374 -16.071 -0.210 -16.096 -0.201 -16.311 -0.177 -16.421 -0.085 7.002 0.198 0.787 0.039 42.026 40.440
370.200 -15.840 -0.382 -15.849 -0.374 -16.067 -0.211 -16.091 -0.202 -16.306 -0.178 -16.416 -0.087 7.008 0.200 0.784 0.039 42.024 40.440
370.600 -15.836 -0.382 -15.844 -0.374 -16.062 -0.212 -16.086 -0.202 -16.301 -0.179 -16.410 -0.090 7.014 0.202 0.781 0.040 42.022 40.440
371.000 -15.831 -0.381 -15.840 -0.374 -16.057 -0.213 -16.082 -0.203 -16.296 -0.180 -16.405 -0.092 7.020 0.203 0.778 0.040 42.020 40.439
371.400 -15.827 -0.381 -15.835 -0.374 -16.053 -0.213 -16.077 -0.204 -16.291 -0.181 -16.400 -0.095 7.027 0.205 0.774 0.040 42.018 40.439
371.800 -15.822 -0.381 -15.831 -0.374 -16.048 -0.214 -16.072 -0.205 -16.286 -0.183 -16.395 -0.097 7.033 0.207 0.771 0.041 42.016 40.439
372.200 -15.818 -0.381 -15.827 -0.374 -16.043 -0.215 -16.068 -0.206 -16.280 -0.184 -16.390 -0.100 7.040 0.209 0.768 0.041 42.014 40.439
372.600 -15.814 -0.381 -15.822 -0.374 -16.039 -0.216 -16.063 -0.207 -16.275 -0.185 -16.385 -0.102 7.047 0.211 0.765 0.041 42.012 40.438
373.000 -15.809 -0.381 -15.818 -0.374 -16.034 -0.217 -16.058 -0.208 -16.270 -0.186 -16.380 -0.105 7.054 0.214 0.762 0.042 42.010 40.438
373.400 -15.805 -0.381 -15.813 -0.374 -16.029 -0.218 -16.054 -0.209 -16.265 -0.188 -16.375 -0.108 7.061 0.216 0.759 0.042 42.008 40.438
373.800 -15.801 -0.381 -15.809 -0.374 -16.025 -0.219 -16.049 -0.210 -16.260 -0.189 -16.370 -0.111 7.068 0.218 0.756 0.042 42.007 40.438
374.200 -15.796 -0.381 -15.805 -0.374 -16.020 -0.220 -16.044 -0.211 -16.255 -0.190 -16.365 -0.113 7.075 0.220 0.752 0.043 42.005 40.437
374.600 -15.792 -0.381 -15.800 -0.374 -16.016 -0.221 -16.040 -0.212 -16.250 -0.192 -16.360 -0.116 7.083 0.222 0.749 0.043 42.003 40.437
375.000 -15.788 -0.381 -15.796 -0.374 -16.011 -0.222 -16.035 -0.214 -16.245 -0.193 -16.355 -0.119 7.090 0.224 0.746 0.043 42.001 40.437
375.400 -15.784 -0.381 -15.792 -0.374 -16.007 -0.223 -16.031 -0.215 -16.240 -0.195 -16.350 -0.122 7.098 0.226 0.743 0.044 41.999 40.437
375.800 -15.779 -0.382 -15.788 -0.374 -16.002 -0.224 -16.026 -0.216 -16.235 -0.196 -16.345 -0.125 7.105 0.228 0.740 0.044 41.997 40.436
376.200 -15.775 -0.382 -15.783 -0.374 -15.998 -0.226 -16.021 -0.217 -16.230 -0.198 -16.340 -0.128 7.113 0.230 0.737 0.044 41.996 40.436
376.600 -15.771 -0.382 -15.779 -0.374 -15.993 -0.227 -16.017 -0.219 -16.226 -0.199 -16.335 -0.131 7.120 0.232 0.734 0.044 41.994 40.436
377.000 -15.767 -0.382 -15.775 -0.375 -15.989 -0.228 -16.012 -0.220 -16.221 -0.201 -16.330 -0.134 7.128 0.234 0.731 0.045 41.992 40.435
377.400 -15.762 -0.382 -15.771 -0.375 -15.984 -0.229 -16.008 -0.221 -16.216 -0.202 -16.325 -0.136 7.135 0.236 0.727 0.045 41.990 40.435
377.800 -15.758 -0.382 -15.766 -0.375 -15.980 -0.231 -16.003 -0.223 -16.211 -0.204 -16.320 -0.139 7.143 0.237 0.724 0.045 41.988 40.434
378.200 -15.754 -0.382 -15.762 -0.375 -15.975 -0.232 -15.999 -0.224 -16.206 -0.206 -16.315 -0.142 7.151 0.239 0.721 0.045 41.986 40.434
378.600 -15.750 -0.383 -15.758 -0.375 -15.971 -0.233 -15.994 -0.225 -16.201 -0.207 -16.311 -0.145 7.158 0.241 0.718 0.045 41.985 40.433
379.000 -15.746 -0.383 -15.754 -0.376 -15.966 -0.235 -15.990 -0.227 -16.196 -0.209 -16.306 -0.148 7.166 0.243 0.715 0.046 41.983 40.433
379.400 -15.741 -0.383 -15.750 -0.376 -15.962 -0.236 -15.986 -0.228 -16.191 -0.211 -16.301 -0.151 7.173 0.245 0.712 0.046 41.981 40.432
379.800 -15.737 -0.383 -15.745 -0.376 -15.958 -0.237 -15.981 -0.230 -16.186 -0.212 -16.296 -0.154 7.181 0.246 0.709 0.046 41.979 40.432
380.200 -15.733 -0.383 -15.741 -0.376 -15.953 -0.239 -15.977 -0.231 -16.182 -0.214 -16.291 -0.157 7.188 0.248 0.707 0.046 41.978 40.431
380.600 -15.729 -0.384 -15.737 -0.377 -15.949 -0.240 -15.972 -0.233 -16.177 -0.216 -16.287 -0.159 7.196 0.250 0.704 0.046 41.976 40.430
381.000 -15.725 -0.384 -15.733 -0.377 -15.944 -0.242 -15.968 -0.234 -16.172 -0.218 -16.282 -0.162 7.203 0.251 0.701 0.046 41.974 40.430
381.400 -15.721 -0.384 -15.729 -0.377 -15.940 -0.243 -15.963 -0.236 -16.167 -0.219 -16.277 -0.165 7.211 0.253 0.698 0.046 41.972 40.429
381.800 -15.717 -0.385 -15.725 -0.378 -15.936 -0.245 -15.959 -0.237 -16.163 -0.221 -16.272 -0.168 7.218 0.254 0.695 0.047 41.971 40.428
382.200 -15.712 -0.385 -15.721 -0.378 -15.931 -0.246 -15.955 -0.239 -16.158 -0.223 -16.268 -0.171 7.225 0.256 0.692 0.047 41.969 40.427
382.600 -15.708 -0.385 -15.717 -0.378 -15.927 -0.247 -15.950 -0.240 -16.153 -0.225 -16.263 -0.174 7.232 0.257 0.690 0.047 41.967 40.427
383.000 -15.704 -0.385 -15.713 -0.379 -15.923 -0.249 -15.946 -0.242 -16.148 -0.226 -16.258 -0.176 7.240 0.259 0.687 0.047 41.965 40.426
383.400 -15.700 -0.386 -15.708 -0.379 -15.918 -0.250 -15.942 -0.243 -16.144 -0.228 -16.253 -0.179 7.247 0.260 0.684 0.047 41.964 40.425
383.800 -15.696 -0.386 -15.704 -0.379 -15.914 -0.252 -15.937 -0.245 -16.139 -0.230 -16.249 -0.182 7.254 0.261 0.681 0.047 41.962 40.424
384.200 -15.692 -0.386 -15.700 -0.380 -15.910 -0.253 -15.933 -0.247 -16.134 -0.232 -16.244 -0.184 7.261 0.263 0.679 0.047 41.960 40.423
384.600 -15.688 -0.387 -15.696 -0.380 -15.906 -0.255 -15.929 -0.248 -16.130 -0.233 -16.239 -0.187 7.268 0.264 0.676 0.047 41.959 40.422
385.000 -15.684 -0.387 -15.692 -0.380 -15.901 -0.256 -15.925 -0.250 -16.125 -0.235 -16.235 -0.190 7.275 0.265 0.674 0.047 41.957 40.421
385.400 -15.680 -0.387 -15.688 -0.381 -15.897 -0.258 -15.920 -0.251 -16.120 -0.237 -16.230 -0.193 7.282 0.266 0.671 0.047 41.955 40.420
385.800 -15.676 -0.388 -15.684 -0.381 -15.893 -0.259 -15.916 -0.253 -16.116 -0.239 -16.226 -0.195 7.288 0.267 0.669 0.047 41.954 40.419
386.200 -15.672 -0.388 -15.680 -0.382 -15.889 -0.261 -15.912 -0.254 -16.111 -0.241 -16.221 -0.198 7.295 0.268 0.666 0.047 41.952 40.418
386.600 -15.668 -0.388 -15.676 -0.382 -15.885 -0.262 -15.908 -0.256 -16.106 -0.242 -16.216 -0.200 7.302 0.270 0.664 0.047 41.950 40.417
387.000 -15.664 -0.389 -15.672 -0.382 -15.880 -0.264 -15.903 -0.257 -16.102 -0.244 -16.212 -0.203 7.308 0.271 0.661 0.047 41.949 40.416
387.400 -15.660 -0.389 -15.668 -0.383 -15.876 -0.265 -15.899 -0.259 -16.097 -0.246 -16.207 -0.206 7.315 0.272 0.659 0.047 41.947 40.415
387.800 -15.656 -0.389 -15.664 -0.383 -15.872 -0.267 -15.895 -0.261 -16.093 -0.248 -16.203 -0.208 7.321 0.273 0.656 0.047 41.945 40.414
388.200 -15.652 -0.390 -15.661 -0.383 -15.868 -0.268 -15.891 -0.262 -16.088 -0.249 -16.198 -0.211 7.327 0.274 0.654 0.047 41.944 40.413
388.600 -15.649 -0.390 -15.657 -0.384 -15.864 -0.270 -15.887 -0.264 -16.084 -0.251 -16.194 -0.213 7.334 0.275 0.652 0.047 41.942 40.412
389.000 -15.645 -0.390 -15.653 -0.384 -15.860 -0.271 -15.883 -0.265 -16.079 -0.253 -16.189 -0.216 7.340 0.275 0.649 0.047 41.940 40.411
389.400 -15.641 -0.391 -15.649 -0.385 -15.856 -0.272 -15.878 -0.267 -16.075 -0.255 -16.185 -0.218 7.346 0.276 0.647 0.047 41.939 40.409
389.800 -15.637 -0.391 -15.645 -0.385 -15.852 -0.274 -15.874 -0.268 -16.070 -0.256 -16.180 -0.220 7.352 0.277 0.645 0.047 41.937 40.408
390.200 -15.633 -0.391 -15.641 -0.385 -15.848 -0.275 -15.870 -0.270 -16.066 -0.258 -16.176 -0.223 7.358 0.278 0.642 0.047 41.935 40.407
390.600 -15.629 -0.392 -15.637 -0.386 -15.843 -0.277 -15.866 -0.271 -16.061 -0.260 -16.171 -0.225 7.364 0.279 0.640 0.047 41.934 40.406
391.000 -15.625 -0.392 -15.633 -0.386 -15.839 -0.278 -15.862 -0.273 -16.057 -0.261 -16.167 -0.228 7.370 0.280 0.638 0.047 41.932 40.404
391.400 -15.621 -0.392 -15.629 -0.387 -15.835 -0.280 -15.858 -0.274 -16.052 -0.263 -16.163 -0.230 7.375 0.280 0.636 0.047 41.931 40.403
391.800 -15.618 -0.393 -15.626 -0.387 -15.831 -0.281 -15.854 -0.276 -16.048 -0.265 -16.158 -0.232 7.381 0.281 0.634 0.047 41.929 40.402
392.200 -15.614 -0.393 -15.622 -0.387 -15.827 -0.282 -15.850 -0.277 -16.043 -0.266 -16.154 -0.234 7.387 0.282 0.631 0.047 41.927 40.401
392.600 -15.610 -0.393 -15.618 -0.388 -15.823 -0.284 -15.846 -0.278 -16.039 -0.268 -16.149 -0.237 7.392 0.282 0.629 0.047 41.926 40.399
393.000 -15.606 -0.394 -15.614 -0.388 -15.819 -0.285 -15.842 -0.280 -16.035 -0.270 -16.145 -0.239 7.398 0.283 0.627 0.047 41.924 40.398
393.400 -15.602 -0.394 -15.610 -0.388 -15.815 -0.286 -15.838 -0.281 -16.030 -0.271 -16.141 -0.241 7.403 0.284 0.625 0.047 41.923 40.397
393.800 -15.599 -0.394 -15.607 -0.389 -15.811 -0.288 -15.834 -0.283 -16.026 -0.273 -16.136 -0.243 7.409 0.284 0.623 0.047 41.921 40.395
394.200 -15.595 -0.395 -15.603 -0.389 -15.807 -0.289 -15.830 -0.284 -16.022 -0.275 -16.132 -0.245 7.414 0.285 0.621 0.047 41.919 40.394
394.600 -15.591 -0.395 -15.599 -0.389 -15.803 -0.290 -15.826 -0.285 -16.017 -0.276 -16.128 -0.248 7.419 0.286 0.619 0.046 41.918 40.393
395.000 -15.587 -0.395 -15.595 -0.390 -15.800 -0.292 -15.822 -0.287 -16.013 -0.278 -16.123 -0.250 7.424 0.286 0.617 0.046 41.916 40.391
395.400 -15.583 -0.396 -15.591 -0.390 -15.796 -0.293 -15.818 -0.288 -16.009 -0.279 -16.119 -0.252 7.430 0.287 0.615 0.046 41.915 40.390
395.800 -15.580 -0.396 -15.588 -0.390 -15.792 -0.294 -15.814 -0.289 -16.004 -0.281 -16.115 -0.254 7.435 0.287 0.613 0.046 41.913 40.388
396.200 -15.576 -0.396 -15.584 -0.391 -15.788 -0.295 -15.810 -0.291 -16.000 -0.282 -16.110 -0.256 7.440 0.288 0.611 0.046 41.912 40.387
396.600 -15.572 -0.396 -15.580 -0.391 -15.784 -0.297 -15.806 -0.292 -15.996 -0.284 -16.106 -0.258 7.445 0.288 0.609 0.046 41.910 40.386
397.000 -15.569 -0.397 -15.577 -0.391 -15.780 -0.298 -15.802 -0.293 -15.992 -0.285 -16.102 -0.260 7.449 0.289 0.608 0.046 41.909 40.384
397.400 -15.565 -0.397 -15.573 -0.391 -15.776 -0.299 -15.798 -0.294 -15.987 -0.287 -16.098 -0.262 7.454 0.289 0.606 0.046 41.907 40.383
397.800 -15.561 -0.397 -15.569 -0.392 -15.772 -0.300 -15.794 -0.296 -15.983 -0.288 -16.093 -0.264 7.459 0.290 0.604 0.046 41.905 40.381
398.200 -15.558 -0.397 -15.566 -0.392 -15.768 -0.301 -15.791 -0.297 -15.979 -0.290 -16.089 -0.265 7.464 0.290 0.602 0.046 41.904 40.380
398.600 -15.554 -0.397 -15.562 -0.392 -15.765 -0.302 -15.787 -0.298 -15.975 -0.291 -16.085 -0.267 7.468 0.290 0.600 0.046 41.902 40.378
399.000 -15.550 -0.398 -15.558 -0.392 -15.761 -0.304 -15.783 -0.299 -15.971 -0.292 -16.081 -0.269 7.473 0.291 0.598 0.046 41.901 40.377
399.400 -15.547 -0.398 -15.555 -0.393 -15.757 -0.305 -15.779 -0.300 -15.967 -0.294 -16.077 -0.271 7.477 0.291 0.597 0.046 41.899 40.375
399.800 -15.543 -0.398 -15.551 -0.393 -15.753 -0.306 -15.775 -0.302 -15.962 -0.295 -16.072 -0.273 7.482 0.292 0.595 0.045 41.898 40.374
400.200 -15.539 -0.398 -15.547 -0.393 -15.749 -0.307 -15.771 -0.303 -15.958 -0.296 -16.068 -0.274 7.486 0.292 0.593 0.045 41.896 40.372
400.600 -15.536 -0.398 -15.544 -0.393 -15.746 -0.308 -15.768 -0.304 -15.954 -0.298 -16.064 -0.276 7.491 0.292 0.592 0.045 41.895 40.371
401.000 -15.532 -0.398 -15.540 -0.393 -15.742 -0.309 -15.764 -0.305 -15.950 -0.299 -16.060 -0.278 7.495 0.293 0.590 0.045 41.893 40.369
401.400 -15.528 -0.398 -15.536 -0.393 -15.738 -0.310 -15.760 -0.306 -15.946 -0.300 -16.056 -0.279 7.499 0.293 0.588 0.045 41.892 40.368
401.800 -15.525 -0.399 -15.533 -0.394 -15.734 -0.311 -15.756 -0.307 -15.942 -0.302 -16.052 -0.281 7.504 0.293 0.586 0.045 41.890 40.366
402.200 -15.521 -0.399 -15.529 -0.394 -15.731 -0.312 -15.753 -0.308 -15.938 -0.303 -16.048 -0.283 7.508 0.294 0.585 0.045 41.889 40.365
402.600 -15.518 -0.399 -15.526 -0.394 -15.727 -0.313 -15.749 -0.309 -15.934 -0.304 -16.044 -0.284 7.512 0.294 0.583 0.045 41.887 40.363
403.000 -15.514 -0.399 -15.522 -0.394 -15.723 -0.313 -15.745 -0.310 -15.930 -0.305 -16.039 -0.286 7.516 0.294 0.582 0.045 41.886 40.362
403.400 -15.511 -0.399 -15.519 -0.394 -15.720 -0.314 -15.741 -0.311 -15.926 -0.306 -16.035 -0.287 7.520 0.294 0.580 0.045 41.884 40.360
403.800 -15.507 -0.399 -15.515 -0.394 -15.716 -0.315 -15.738 -0.312 -15.922 -0.308 -16.031 -0.289 7.524 0.295 0.578 0.044 41.883 40.358
404.200 -15.504 -0.399 -15.511 -0.394 -15.712 -0.316 -15.734 -0.313 -15.918 -0.309 -16.027 -0.290 7.528 0.295 0.577 0.044 41.881 40.357
404.600 -15.500 -0.399 -15.508 -0.394 -15.709 -0.317 -15.730 -0.313 -15.914 -0.310 -16.023 -0.291 7.532 0.295 0.575 0.044 41.880 40.355
405.000 -15.497 -0.399 -15.504 -0.394 -15.705 -0.318 -15.727 -0.314 -15.910 -0.311 -16.019 -0.293 7.536 0.295 0.574 0.044 41.879 40.354
405.400 -15.493 -0.399 -15.501 -0.394 -15.701 -0.318 -15.723 -0.315 -15.906 -0.312 -16.015 -0.294 7.539 0.296 0.572 0.044 41.877 40.352
405.800 -15.490 -0.399 -15.497 -0.394 -15.698 -0.319 -15.719 -0.316 -15.902 -0.313 -16.011 -0.295 7.543 0.296 0.571 0.044 41.876 40.351
406.200 -15.486 -0.399 -15.494 -0.394 -15.694 -0.320 -15.716 -0.317 -15.898 -0.314 -16.007 -0.297 7.547 0.296 0.569 0.044 41.874 40.349
406.600 -15.483 -0.399 -15.490 -0.394 -15.691 -0.321 -15.712 -0.317 -15.894 -0.315 -16.003 -0.298 7.551 0.296 0.568 0.044 41.873 40.347
407.000 -15.479 -0.399 -15.487 -0.394 -15.687 -0.321 -15.708 -0.318 -15.890 -0.316 -15.999 -0.299 7.554 0.296 0.566 0.044 41.871 40.346
407.400 -15.476 -0.398 -15.484 -0.394 -15.683 -0.322 -15.705 -0.319 -15.886 -0.317 -15.995 -0.300 7.558 0.296 0.565 0.044 41.870 40.344
407.800 -15.472 -0.398 -15.480 -0.394 -15.680 -0.322 -15.701 -0.319 -15.882 -0.318 -15.991 -0.302 7.561 0.297 0.563 0.043 41.868 40.343
408.200 -15.469 -0.398 -15.477 -0.394 -15.676 -0.323 -15.698 -0.320 -15.879 -0.319 -15.987 -0.303 7.565 0.297 0.562 0.043 41.867 40.341
408.600 -15.465 -0.398 -15.473 -0.394 -15.673 -0.324 -15.694 -0.321 -15.875 -0.320 -15.983 -0.304 7.568 0.297 0.560 0.043 41.866 40.339
409.000 -15.462 -0.398 -15.470 -0.393 -15.669 -0.324 -15.691 -0.321 -15.871 -0.320 -15.980 -0.305 7.572 0.297 0.559 0.043 41.864 40.338
409.400 -15.459 -0.398 -15.466 -0.393 -15.666 -0.325 -15.687 -0.322 -15.867 -0.321 -15.976 -0.306 7.575 0.297 0.557 0.043 41.863 40.336
409.800 -15.455 -0.397 -15.463 -0.393 -15.662 -0.325 -15.684 -0.322 -15.863 -0.322 -15.972 -0.307 7.579 0.297 0.556 0.043 41.861 40.334
410.200 -15.452 -0.397 -15.460 -0.393 -15.659 -0.326 -15.680 -0.323 -15.859 -0.323 -15.968 -0.308 7.582 0.297 0.555 0.043 41.860 40.333
410.600 -15.448 -0.397 -15.456 -0.393 -15.655 -0.326 -15.677 -0.323 -15.856 -0.324 -15.964 -0.309 7.585 0.297 0.553 0.043 41.859 40.331
411.000 -15.445 -0.397 -15.453 -0.392 -15.652 -0.326 -15.673 -0.324 -15.852 -0.324 -15.960 -0.310 7.589 0.298 0.552 0.043 41.857 40.330
411.400 -15.442 -0.396 -15.449 -0.392 -15.648 -0.327 -15.670 -0.324 -15.848 -0.325 -15.956 -0.311 7.592 0.298 0.551 0.042 41.856 40.328
411.800 -15.438 -0.396 -15.446 -0.392 -15.645 -0.327 -15.666 -0.325 -15.844 -0.326 -15.952 -0.312 7.595 0.298 0.549 0.042 41.854 40.326
412.200 -15.435 -0.396 -15.443 -0.391 -15.641 -0.327 -15.663 -0.325 -15.841 -0.326 -15.949 -0.313 7.598 0.298 0.548 0.042 41.853 40.325
412.600 -15.432 -0.395 -15.439 -0.391 -15.638 -0.328 -15.659 -0.325 -15.837 -0.327 -15.945 -0.313 7.602 0.298 0.547 0.042 41.852 40.323
413.000 -15.428 -0.395 -15.436 -0.391 -15.635 -0.328 -15.656 -0.326 -15.833 -0.328 -15.941 -0.314 7.605 0.298 0.545 0.042 41.850 40.321
413.400 -15.425 -0.394 -15.433 -0.390 -15.631 -0.328 -15.652 -0.326 -15.829 -0.328 -15.937 -0.315 7.608 0.298 0.544 0.042 41.849 40.320
413.800 -15.422 -0.394 -15.429 -0.390 -15.628 -0.328 -15.649 -0.326 -15.826 -0.329 -15.933 -0.316 7.611 0.298 0.543 0.042 41.848 40.318
414.200 -15.418 -0.394 -15.426 -0.389 -15.624 -0.329 -15.645 -0.327 -15.822 -0.329 -15.930 -0.316 7.614 0.298 0.541 0.042 41.846 40.316
414.600 -15.415 -0.393 -15.423 -0.389 -15.621 -0.329 -15.642 -0.327 -15.818 -0.330 -15.926 -0.317 7.617 0.298 0.540 0.042 41.845 40.315
415.000 -15.412 -0.393 -15.419 -0.389 -15.618 -0.329 -15.639 -0.327 -15.815 -0.330 -15.922 -0.318 7.620 0.298 0.539 0.042 41.843 40.313
415.400 -15.408 -0.392 -15.416 -0.388 -15.614 -0.329 -15.635 -0.327 -15.811 -0.331 -15.918 -0.318 7.623 0.298 0.538 0.041 41.842 40.311
415.800 -15.405 -0.392 -15.413 -0.388 -15.611 -0.329 -15.632 -0.327 -15.808 -0.331 -15.914 -0.319 7.626 0.298 0.536 0.041 41.841 40.310
416.200 -15.402 -0.391 -15.410 -0.387 -15.608 -0.329 -15.629 -0.327 -15.804 -0.332 -15.911 -0.319 7.629 0.298 0.535 0.041 41.839 40.308
416.600 -15.399 -0.390 -15.406 -0.387 -15.604 -0.329 -15.625 -0.327 -15.800 -0.332 -15.907 -0.320 7.632 0.298 0.534 0.041 41.838 40.306
417.000 -15.395 -0.390 -15.403 -0.386 -15.601 -0.329 -15.622 -0.327 -15.797 -0.332 -15.903 -0.320 7.634 0.298 0.533 0.041 41.837 40.304
417.400 -15.392 -0.389 -15.400 -0.385 -15.598 -0.329 -15.619 -0.327 -15.793 -0.333 -15.900 -0.321 7.637 0.298 0.531 0.041 41.835 40.303
417.800 -15.389 -0.389 -15.397 -0.385 -15.594 -0.329 -15.615 -0.327 -15.790 -0.333 -15.896 -0.321 7.640 0.298 0.530 0.041 41.834 40.301
418.200 -15.386 -0.388 -15.393 -0.384 -15.591 -0.329 -15.612 -0.327 -15.786 -0.333 -15.892 -0.321 7.643 0.298 0.529 0.041 41.833 40.299
418.600 -15.382 -0.387 -15.390 -0.383 -15.588 -0.329 -15.609 -0.327 -15.783 -0.333 -15.889 -0.322 7.646 0.298 0.528 0.041 41.831 40.298
419.000 -15.379 -0.387 -15.387 -0.383 -15.584 -0.329 -15.605 -0.327 -15.779 -0.334 -15.885 -0.322 7.648 0.298 0.527 0.040 41.830 40.296
419.400 -15.376 -0.386 -15.384 -0.382 -15.581 -0.328 -15.602 -0.327 -15.775 -0.334 -15.881 -0.322 7.651 0.298 0.525 0.040 41.829 40.294
419.800 -15.373 -0.385 -15.381 -0.381 -15.578 -0.328 -15.599 -0.327 -15.772 -0.334 -15.878 -0.323 7.654 0.298 0.524 0.040 41.827 40.292
420.200 -15.370 -0.384 -15.377 -0.380 -15.575 -0.328 -15.596 -0.327 -15.768 -0.334 -15.874 -0.323 7.656 0.298 0.523 0.040 41.826 40.291
420.600 -15.366 -0.383 -15.374 -0.380 -15.572 -0.328 -15.592 -0.326 -15.765 -0.334 -15.870 -0.323 7.659 0.298 0.522 0.040 41.825 40.289
421.000 -15.363 -0.383 -15.371 -0.379 -15.568 -0.327 -15.589 -0.326 -15.761 -0.334 -15.867 -0.323 7.662 0.298 0.521 0.040 41.824 40.287
421.400 -15.360 -0.382 -15.368 -0.378 -15.565 -0.327 -15.586 -0.326 -15.758 -0.334 -15.863 -0.323 7.664 0.297 0.520 0.040 41.822 40.286
421.800 -15.357 -0.381 -15.365 -0.377 -15.562 -0.327 -15.583 -0.326 -15.755 -0.334 -15.859 -0.323 7.667 0.297 0.519 0.040 41.821 40.284
422.200 -15.354 -0.380 -15.362 -0.376 -15.559 -0.326 -15.580 -0.325 -15.751 -0.334 -15.856 -0.324 7.669 0.297 0.517 0.040 41.820 40.282
422.600 -15.351 -0.379 -15.358 -0.375 -15.556 -0.326 -15.576 -0.325 -15.748 -0.334 -15.852 -0.324 7.672 0.297 0.516 0.039 41.818 40.280
423.000 -15.347 -0.378 -15.355 -0.375 -15.552 -0.325 -15.573 -0.324 -15.744 -0.334 -15.849 -0.324 7.674 0.297 0.515 0.039 41.817 40.279
423.400 -15.344 -0.377 -15.352 -0.374 -15.549 -0.325 -15.570 -0.324 -15.741 -0.334 -15.845 -0.324 7.677 0.297 0.514 0.039 41.816 40.277
423.800 -15.341 -0.376 -15.349 -0.373 -15.546 -0.325 -15.567 -0.324 -15.737 -0.334 -15.841 -0.324 7.679 0.297 0.513 0.039 41.814 40.275
424.200 -15.338 -0.375 -15.346 -0.372 -15.543 -0.324 -15.564 -0.323 -15.734 -0.334 -15.838 -0.323 7.682 0.297 0.512 0.039 41.813 40.273
424.600 -15.335 -0.374 -15.343 -0.371 -15.540 -0.323 -15.561 -0.323 -15.731 -0.334 -15.834 -0.323 7.684 0.297 0.511 0.039 41.812 40.272
425.000 -15.332 -0.373 -15.340 -0.370 -15.537 -0.323 -15.557 -0.322 -15.727 -0.334 -15.831 -0.323 7.687 0.297 0.510 0.039 41.811 40.270
425.400 -15.329 -0.372 -15.337 -0.369 -15.534 -0.322 -15.554 -0.321 -15.724 -0.334 -15.827 -0.323 7.689 0.296 0.509 0.039 41.809 40.268
425.800 -15.326 -0.371 -15.334 -0.367 -15.531 -0.322 -15.551 -0.321 -15.721 -0.333 -15.824 -0.323 7.692 0.296 0.508 0.039 41.808 40.266
426.200 -15.323 -0.370 -15.330 -0.366 -15.527 -0.321 -15.548 -0.320 -15.717 -0.333 -15.820 -0.323 7.694 0.296 0.507 0.039 41.807 40.264
426.600 -15.320 -0.369 -15.327 -0.365 -15.524 -0.320 -15.545 -0.320 -15.714 -0.333 -15.817 -0.322 7.696 0.296 0.506 0.038 41.806 40.263
427.000 -15.317 -0.368 -15.324 -0.364 -15.521 -0.319 -15.542 -0.319 -15.711 -0.333 -15.813 -0.322 7.699 0.296 0.505 0.038 41.804 40.261
427.400 -15.314 -0.366 -15.321 -0.363 -15.518 -0.319 -15.539 -0.318 -15.707 -0.332 -15.810 -0.322 7.701 0.296 0.504 0.038 41.803 40.259
427.800 -15.310 -0.365 -15.318 -0.362 -15.515 -0.318 -15.536 -0.317 -15.704 -0.332 -15.806 -0.322 7.703 0.296 0.503 0.038 41.802 40.257
428.200 -15.307 -0.364 -15.315 -0.360 -15.512 -0.317 -15.533 -0.317 -15.701 -0.332 -15.803 -0.321 7.706 0.295 0.502 0.038 41.801 40.255
428.600 -15.304 -0.363 -15.312 -0.359 -15.509 -0.316 -15.530 -0.316 -15.697 -0.331 -15.799 -0.321 7.708 0.295 0.500 0.038 41.799 40.254
429.000 -15.301 -0.361 -15.309 -0.358 -15.506 -0.315 -15.527 -0.315 -15.694 -0.331 -15.796 -0.320 7.710 0.295 0.499 0.038 41.798 40.252
429.400 -15.298 -0.360 -15.306 -0.357 -15.503 -0.314 -15.524 -0.314 -15.691 -0.330 -15.793 -0.320 7.713 0.295 0.498 0.038 41.797 40.250
429.800 -15.295 -0.359 -15.303 -0.355 -15.500 -0.313 -15.521 -0.313 -15.688 -0.330 -15.789 -0.319 7.715 0.295 0.497 0.038 41.796 40.248
430.200 -15.292 -0.357 -15.300 -0.354 -15.497 -0.312 -15.518 -0.312 -15.684 -0.329 -15.786 -0.319 7.717 0.295 0.496 0.037 41.794 40.246
430.600 -15.289 -0.356 -15.297 -0.353 -15.494 -0.311 -15.515 -0.311 -15.681 -0.329 -15.782 -0.318 7.719 0.294 0.496 0.037 41.793 40.245
431.000 -15.286 -0.355 -15.294 -0.351 -15.491 -0.310 -15.512 -0.310 -15.678 -0.328 -15.779 -0.318 7.722 0.294 0.495 0.037 41.792 40.243
431.400 -15.283 -0.353 -15.291 -0.350 -15.488 -0.309 -15.509 -0.309 -15.675 -0.328 -15.775 -0.317 7.724 0.294 0.494 0.037 41.791 40.241
431.800 -15.280 -0.352 -15.288 -0.348 -15.485 -0.308 -15.506 -0.308 -15.672 -0.327 -15.772 -0.317 7.726 0.294 0.493 0.037 41.790 40.239
432.200 -15.277 -0.350 -15.285 -0.347 -15.482 -0.307 -15.503 -0.307 -15.668 -0.327 -15.769 -0.316 7.728 0.294 0.492 0.037 41.788 40.237
432.600 -15.275 -0.349 -15.282 -0.345 -15.479 -0.306 -15.500 -0.306 -15.665 -0.326 -15.765 -0.315 7.730 0.293 0.491 0.037 41.787 40.235
433.000 -15.272 -0.347 -15.279 -0.344 -15.476 -0.305 -15.497 -0.305 -15.662 -0.325 -15.762 -0.315 7.733 0.293 0.490 0.037 41.786 40.234
433.400 -15.269 -0.346 -15.276 -0.342 -15.473 -0.304 -15.494 -0.304 -15.659 -0.325 -15.759 -0.314 7.735 0.293 0.489 0.037 41.785 40.232
433.800 -15.266 -0.344 -15.274 -0.341 -15.471 -0.302 -15.491 -0.303 -15.656 -0.324 -15.755 -0.313 7.737 0.293 0.488 0.037 41.784 40.230
434.200 -15.263 -0.343 -15.271 -0.339 -15.468 -0.301 -15.488 -0.302 -15.652 -0.323 -15.752 -0.313 7.739 0.293 0.487 0.036 41.782 40.228
434.600 -15.260 -0.341 -15.268 -0.338 -15.465 -0.300 -15.485 -0.300 -15.649 -0.323 -15.749 -0.312 7.741 0.293 0.486 0.036 41.781 40.226
435.000 -15.257 -0.339 -15.265 -0.336 -15.462 -0.299 -15.482 -0.299 -15.646 -0.322 -15.745 -0.311 7.743 0.292 0.485 0.036 41.780 40.224
435.400 -15.254 -0.338 -15.262 -0.334 -15.459 -0.297 -15.480 -0.298 -15.643 -0.321 -15.742 -0.310 7.745 0.292 0.484 0.036 41.779 40.223
435.800 -15.251 -0.336 -15.259 -0.333 -15.456 -0.296 -15.477 -0.296 -15.640 -0.320 -15.739 -0.309 7.748 0.292 0.483 0.036 41.778 40.221
436.200 -15.248 -0.334 -15.256 -0.331 -15.453 -0.294 -15.474 -0.295 -15.637 -0.320 -15.735 -0.308 7.750 0.292 0.482 0.036 41.776 40.219
436.600 -15.245 -0.333 -15.253 -0.329 -15.450 -0.293 -15.471 -0.294 -15.634 -0.319 -15.732 -0.307 7.752 0.292 0.481 0.036 41.775 40.217
437.000 -15.242 -0.331 -15.250 -0.328 -15.448 -0.292 -15.468 -0.292 -15.631 -0.318 -15.729 -0.307 7.754 0.291 0.480 0.036 41.774 40.215
437.400 -15.240 -0.329 -15.247 -0.326 -15.445 -0.290 -15.465 -0.291 -15.628 -0.317 -15.725 -0.306 7.756 0.291 0.479 0.036 41.773 40.213
437.800 -15.237 -0.328 -15.244 -0.324 -15.442 -0.289 -15.462 -0.289 -15.624 -0.316 -15.722 -0.305 7.758 0.291 0.479 0.036 41.772 40.211
438.200 -15.234 -0.326 -15.242 -0.322 -15.439 -0.287 -15.460 -0.288 -15.621 -0.315 -15.719 -0.304 7.760 0.291 0.478 0.035 41.771 40.209
438.600 -15.231 -0.324 -15.239 -0.321 -15.436 -0.285 -15.457 -0.286 -15.618 -0.314 -15.716 -0.303 7.762 0.291 0.477 0.035 41.769 40.208
439.000 -15.228 -0.322 -15.236 -0.319 -15.433 -0.284 -15.454 -0.285 -15.615 -0.313 -15.712 -0.302 7.764 0.290 0.476 0.035 41.768 40.206
439.400 -15.225 -0.320 -15.233 -0.317 -15.431 -0.282 -15.451 -0.283 -15.612 -0.312 -15.709 -0.301 7.766 0.290 0.475 0.035 41.767 40.204
439.800 -15.222 -0.319 -15.230 -0.315 -15.428 -0.281 -15.448 -0.282 -15.609 -0.311 -15.706 -0.300 7.769 0.290 0.474 0.035 41.766 40.202
440.200 -15.220 -0.317 -15.227 -0.313 -15.425 -0.279 -15.446 -0.280 -15.606 -0.310 -15.703 -0.298 7.771 0.290 0.473 0.035 41.765 40.200
440.600 -15.217 -0.315 -15.225 -0.311 -15.422 -0.277 -15.443 -0.279 -15.603 -0.309 -15.699 -0.297 7.773 0.290 0.472 0.035 41.764 40.198
441.000 -15.214 -0.313 -15.222 -0.310 -15.420 -0.276 -15.440 -0.277 -15.600 -0.308 -15.696 -0.296 7.775 0.289 0.471 0.035 41.762 40.196
441.400 -15.211 -0.311 -15.219 -0.308 -15.417 -0.274 -15.437 -0.275 -15.597 -0.307 -15.693 -0.295 7.777 0.289 0.471 0.035 41.761 40.194
441.800 -15.208 -0.309 -15.216 -0.306 -15.414 -0.272 -15.434 -0.274 -15.594 -0.306 -15.690 -0.294 7.779 0.289 0.470 0.035 41.760 40.192
442.200 -15.206 -0.307 -15.213 -0.304 -15.411 -0.270 -15.432 -0.272 -15.591 -0.305 -15.687 -0.293 7.781 0.289 0.469 0.035 41.759 40.190
442.600 -15.203 -0.305 -15.211 -0.302 -15.409 -0.269 -15.429 -0.270 -15.588 -0.304 -15.683 -0.291 7.783 0.289 0.468 0.034 41.758 40.189
443.000 -15.200 -0.303 -15.208 -0.300 -15.406 -0.267 -15.426 -0.268 -15.585 -0.303 -15.680 -0.290 7.785 0.289 0.467 0.034 41.757 40.187
443.400 -15.197 -0.301 -15.205 -0.298 -15.403 -0.265 -15.423 -0.267 -15.582 -0.302 -15.677 -0.289 7.787 0.288 0.466 0.034 41.756 40.185
443.800 -15.194 -0.299 -15.202 -0.296 -15.400 -0.263 -15.421 -0.265 -15.579 -0.301 -15.674 -0.288 7.789 0.288 0.465 0.034 41.754 40.183
444.200 -15.192 -0.297 -15.199 -0.294 -15.398 -0.261 -15.418 -0.263 -15.576 -0.300 -15.671 -0.287 7.791 0.288 0.464 0.034 41.753 40.181
444.600 -15.189 -0.295 -15.197 -0.292 -15.395 -0.259 -15.415 -0.261 -15.573 -0.299 -15.667 -0.285 7.794 0.288 0.464 0.034 41.752 40.179
445.000 -15.186 -0.293 -15.194 -0.290 -15.392 -0.257 -15.413 -0.259 -15.570 -0.297 -15.664 -0.284 7.796 0.288 0.463 0.034 41.751 40.177
445.400 -15.183 -0.291 -15.191 -0.288 -15.390 -0.256 -15.410 -0.258 -15.567 -0.296 -15.661 -0.283 7.798 0.288 0.462 0.034 41.750 40.175
445.800 -15.181 -0.289 -15.188 -0.286 -15.387 -0.254 -15.407 -0.256 -15.564 -0.295 -15.658 -0.281 7.800 0.288 0.461 0.034 41.749 40.173
446.200 -15.178 -0.287 -15.186 -0.284 -15.384 -0.252 -15.405 -0.254 -15.561 -0.294 -15.655 -0.280 7.802 0.287 0.460 0.034 41.748 40.171
446.600 -15.175 -0.285 -15.183 -0.282 -15.382 -0.250 -15.402 -0.252 -15.558 -0.293 -15.652 -0.279 7.804 0.287 0.459 0.034 41.746 40.169
447.000 -15.172 -0.283 -15.180 -0.279 -15.379 -0.248 -15.399 -0.250 -15.555 -0.291 -15.649 -0.277 7.806 0.287 0.459 0.033 41.745 40.167
447.400 -15.170 -0.281 -15.177 -0.277 -15.376 -0.246 -15.397 -0.248 -15.553 -0.290 -15.646 -0.276 7.808 0.287 0.458 0.033 41.744 40.165
447.800 -15.167 -0.279 -15.175 -0.275 -15.374 -0.244 -15.394 -0.246 -15.550 -0.289 -15.642 -0.275 7.811 0.287 0.457 0.033 41.743 40.163
448.200 -15.164 -0.277 -15.172 -0.273 -15.371 -0.242 -15.391 -0.244 -15.547 -0.288 -15.639 -0.273 7.813 0.287 0.456 0.033 41.742 40.161
448.600 -15.161 -0.275 -15.169 -0.271 -15.368 -0.240 -15.389 -0.242 -15.544 -0.287 -15.636 -0.272 7.815 0.287 0.455 0.033 41.741 40.160
449.000 -15.159 -0.273 -15.167 -0.269 -15.366 -0.238 -15.386 -0.240 -15.541 -0.285 -15.633 -0.271 7.817 0.287 0.454 0.033 41.740 40.158
449.400 -15.156 -0.271 -15.164 -0.267 -15.363 -0.235 -15.383 -0.238 -15.538 -0.284 -15.630 -0.269 7.819 0.287 0.453 0.033 41.739 40.156
449.800 -15.153 -0.269 -15.161 -0.265 -15.360 -0.233 -15.381 -0.236 -15.535 -0.283 -15.627 -0.268 7.821 0.287 0.453 0.033 41.737 40.154
450.200 -15.151 -0.266 -15.159 -0.263 -15.358 -0.231 -15.378 -0.234 -15.532 -0.282 -15.624 -0.267 7.824 0.287 0.452 0.033 41.736 40.152
450.600 -15.148 -0.264 -15.156 -0.261 -15.355 -0.229 -15.375 -0.232 -15.529 -0.281 -15.621 -0.265 7.826 0.287 0.451 0.033 41.735 40.150
451.000 -15.145 -0.262 -15.153 -0.259 -15.353 -0.227 -15.373 -0.230 -15.526 -0.279 -15.618 -0.264 7.828 0.287 0.450 0.033 41.734 40.148
451.400 -15.143 -0.260 -15.150 -0.256 -15.350 -0.225 -15.370 -0.228 -15.524 -0.278 -15.615 -0.263 7.830 0.287 0.449 0.033 41.733 40.146
451.800 -15.140 -0.258 -15.148 -0.254 -15.347 -0.223 -15.368 -0.226 -15.521 -0.277 -15.612 -0.261 7.833 0.287 0.448 0.033 41.732 40.144
452.200 -15.137 -0.256 -15.145 -0.252 -15.345 -0.221 -15.365 -0.224 -15.518 -0.276 -15.609 -0.260 7.835 0.287 0.448 0.033 41.731 40.142
452.600 -15.135 -0.254 -15.143 -0.250 -15.342 -0.219 -15.362 -0.222 -15.515 -0.275 -15.606 -0.259 7.837 0.287 0.447 0.032 41.730 40.140
453.000 -15.132 -0.252 -15.140 -0.248 -15.340 -0.217 -15.360 -0.220 -15.512 -0.273 -15.603 -0.257 7.840 0.287 0.446 0.032 41.729 40.138
453.400 -15.129 -0.250 -15.137 -0.246 -15.337 -0.214 -15.357 -0.218 -15.509 -0.272 -15.600 -0.256 7.842 0.287 0.445 0.032 41.727 40.136
453.800 -15.127 -0.248 -15.135 -0.244 -15.334 -0.212 -15.355 -0.216 -15.506 -0.271 -15.597 -0.255 7.844 0.287 0.444 0.032 41.726 40.134
454.200 -15.124 -0.246 -15.132 -0.242 -15.332 -0.210 -15.352 -0.214 -15.504 -0.270 -15.594 -0.253 7.847 0.287 0.443 0.032 41.725 40.132
454.600 -15.122 -0.244 -15.129 -0.240 -15.329 -0.208 -15.349 -0.212 -15.501 -0.269 -15.591 -0.252 7.849 0.287 0.443 0.032 41.724 40.130
455.000 -15.119 -0.242 -15.127 -0.238 -15.327 -0.206 -15.347 -0.210 -15.498 -0.268 -15.588 -0.251 7.852 0.287 0.442 0.032 41.723 40.128
455.400 -15.116 -0.240 -15.124 -0.236 -15.324 -0.204 -15.344 -0.208 -15.495 -0.267 -15.585 -0.250 7.854 0.287 0.441 0.032 41.722 40.126
455.800 -15.114 -0.238 -15.122 -0.234 -15.322 -0.202 -15.342 -0.206 -15.492 -0.265 -15.582 -0.249 7.856 0.287 0.440 0.032 41.721 40.124
456.200 -15.111 -0.237 -15.119 -0.232 -15.319 -0.200 -15.339 -0.204 -15.489 -0.264 -15.579 -0.247 7.859 0.288 0.439 0.032 41.720 40.122
456.600 -15.108 -0.235 -15.116 -0.230 -15.316 -0.198 -15.337 -0.202 -15.487 -0.263 -15.576 -0.246 7.861 0.288 0.438 0.032 41.719 40.120
457.000 -15.106 -0.233 -15.114 -0.229 -15.314 -0.196 -15.334 -0.200 -15.484 -0.262 -15.573 -0.245 7.864 0.288 0.438 0.032 41.717 40.118
457.400 -15.103 -0.231 -15.111 -0.227 -15.311 -0.194 -15.332 -0.198 -15.481 -0.261 -15.570 -0.244 7.866 0.288 0.437 0.032 41.716 40.116
457.800 -15.101 -0.229 -15.109 -0.225 -15.309 -0.192 -15.329 -0.196 -15.478 -0.260 -15.567 -0.243 7.869 0.288 0.436 0.032 41.715 40.114
458.200 -15.098 -0.228 -15.106 -0.223 -15.306 -0.190 -15.326 -0.194 -15.475 -0.259 -15.564 -0.242 7.872 0.289 0.435 0.032 41.714 40.112
458.600 -15.096 -0.226 -15.103 -0.222 -15.304 -0.188 -15.324 -0.192 -15.473 -0.258 -15.561 -0.241 7.874 0.289 0.434 0.032 41.713 40.110
459.000 -15.093 -0.224 -15.101 -0.220 -15.301 -0.186 -15.321 -0.190 -15.470 -0.257 -15.558 -0.240 7.877 0.289 0.433 0.032 41.712 40.108
459.400 -15.091 -0.223 -15.098 -0.218 -15.299 -0.184 -15.319 -0.189 -15.467 -0.256 -15.555 -0.239 7.879 0.289 0.433 0.032 41.711 40.106
459.800 -15.088 -0.221 -15.096 -0.217 -15.296 -0.183 -15.316 -0.187 -15.464 -0.256 -15.552 -0.238 7.882 0.290 0.432 0.032 41.710 40.104
460.200 -15.085 -0.220 -15.093 -0.215 -15.294 -0.181 -15.314 -0.185 -15.461 -0.255 -15.549 -0.237 7.885 0.290 0.431 0.032 41.709 40.103
460.600 -15.083 -0.218 -15.091 -0.214 -15.291 -0.179 -15.311 -0.184 -15.459 -0.254 -15.546 -0.236 7.887 0.290 0.430 0.032 41.708 40.101
461.000 -15.080 -0.217 -15.088 -0.212 -15.289 -0.178 -15.309 -0.182 -15.456 -0.253 -15.544 -0.236 7.890 0.291 0.429 0.031 41.706 40.099
461.400 -15.078 -0.216 -15.086 -0.211 -15.286 -0.176 -15.306 -0.181 -15.453 -0.252 -15.541 -0.235 7.893 0.291 0.428 0.031 41.705 40.097
461.800 -15.075 -0.214 -15.083 -0.210 -15.284 -0.174 -15.304 -0.179 -15.450 -0.252 -15.538 -0.234 7.895 0.291 0.428 0.031 41.704 40.095
462.200 -15.073 -0.213 -15.081 -0.209 -15.281 -0.173 -15.301 -0.178 -15.448 -0.251 -15.535 -0.234 7.898 0.292 0.427 0.031 41.703 40.093
462.600 -15.070 -0.212 -15.078 -0.207 -15.279 -0.172 -15.299 -0.176 -15.445 -0.250 -15.532 -0.233 7.901 0.292 0.426 0.031 41.702 40.091
463.000 -15.068 -0.211 -15.076 -0.206 -15.276 -0.170 -15.296 -0.175 -15.442 -0.250 -15.529 -0.233 7.903 0.292 0.425 0.031 41.701 40.089
463.400 -15.065 -0.210 -15.073 -0.205 -15.273 -0.169 -15.293 -0.174 -15.439 -0.249 -15.526 -0.232 7.906 0.293 0.424 0.031 41.700 40.088
463.800 -15.063 -0.209 -15.071 -0.204 -15.271 -0.168 -15.291 -0.173 -15.436 -0.249 -15.523 -0.232 7.909 0.293 0.423 0.031 41.699 40.086
464.200 -15.060 -0.208 -15.068 -0.204 -15.268 -0.167 -15.288 -0.172 -15.434 -0.248 -15.521 -0.231 7.911 0.293 0.423 0.031 41.698 40.084
464.600 -15.058 -0.208 -15.066 -0.203 -15.266 -0.166 -15.286 -0.171 -15.431 -0.248 -15.518 -0.231 7.914 0.294 0.422 0.031 41.697 40.082
465.000 -15.056 -0.207 -15.063 -0.202 -15.263 -0.165 -15.283 -0.170 -15.428 -0.248 -15.515 -0.231 7.916 0.294 0.421 0.031 41.696 40.081
465.400 -15.053 -0.206 -15.061 -0.202 -15.261 -0.164 -15.281 -0.169 -15.425 -0.247 -15.512 -0.231 7.919 0.294 0.420 0.031 41.695 40.079
465.800 -15.051 -0.206 -15.058 -0.201 -15.258 -0.163 -15.278 -0.168 -15.423 -0.247 -15.509 -0.231 7.921 0.295 0.419 0.031 41.693 40.078
466.200 -15.048 -0.206 -15.056 -0.201 -15.256 -0.162 -15.276 -0.168 -15.420 -0.247 -15.506 -0.231 7.924 0.295 0.419 0.031 41.692 40.076
466.600 -15.046 -0.205 -15.054 -0.200 -15.253 -0.162 -15.273 -0.167 -15.417 -0.247 -15.504 -0.231 7.926 0.296 0.418 0.031 41.691 40.075
467.000 -15.043 -0.205 -15.051 -0.200 -15.251 -0.161 -15.271 -0.167 -15.414 -0.247 -15.501 -0.231 7.929 0.296 0.417 0.031 41.690 40.073
467.400 -15.041 -0.205 -15.049 -0.200 -15.248 -0.161 -15.268 -0.166 -15.412 -0.247 -15.498 -0.232 7.931 0.296 0.416 0.031 41.689 40.072
467.800 -15.039 -0.205 -15.046 -0.200 -15.246 -0.161 -15.266 -0.166 -15.409 -0.247 -15.495 -0.232 7.933 0.296 0.416 0.031 41.688 40.071
468.200 -15.036 -0.205 -15.044 -0.200 -15.243 -0.161 -15.263 -0.166 -15.406 -0.247 -15.492 -0.232 7.936 0.297 0.415 0.031 41.687 40.069
468.600 -15.034 -0.205 -15.042 -0.200 -15.241 -0.161 -15.260 -0.166 -15.404 -0.247 -15.490 -0.233 7.938 0.297 0.414 0.031 41.686 40.068
469.000 -15.032 -0.206 -15.039 -0.201 -15.238 -0.161 -15.258 -0.166 -15.401 -0.247 -15.487 -0.234 7.940 0.297 0.414 0.031 41.685 40.067
469.400 -15.029 -0.206 -15.037 -0.201 -15.236 -0.161 -15.255 -0.166 -15.398 -0.247 -15.484 -0.234 7.942 0.298 0.413 0.031 41.684 40.066
469.800 -15.027 -0.207 -15.035 -0.202 -15.233 -0.162 -15.253 -0.167 -15.395 -0.248 -15.481 -0.235 7.944 0.298 0.412 0.031 41.683 40.065
470.200 -15.024 -0.207 -15.032 -0.202 -15.230 -0.162 -15.250 -0.167 -15.393 -0.248 -15.478 -0.236 7.946 0.298 0.411 0.031 41.682 40.064
470.600 -15.022 -0.208 -15.030 -0.203 -15.228 -0.163 -15.248 -0.168 -15.390 -0.248 -15.476 -0.237 7.948 0.298 0.411 0.031 41.681 40.063
