"Time (MJD)" B-4345.28 B-4345.28_err B-4369.53 B-4369.53_err I-8568.89 I-8568.89_err R-6695.83 R-6695.83_err U-3551.05 U-3551.05_err UVM2-2245.03 UVM2-2245.03_err UVW1-2681.67 UVW1-2681.67_err UVW2-2083.95 UVW2-2083.95_err V-5467.57 V-5467.57_err "Temp./1e3 (K)" "Temp. Err." "Radius/1e15 (cm)" "Radius Err." "Log10(Bol. Lum)" "Log10(Bol. Err)"
-30.000 -20.148 -0.084 -20.369 -0.071 -20.833 -0.068 -21.443 -0.061 -21.707 -0.015 -21.709 -0.014 -21.384 -0.053 -21.048 -0.059 -20.820 -0.089 11.799 0.790 4.006 0.457 44.346 43.186
-29.600 -20.153 -0.081 -20.375 -0.069 -20.839 -0.066 -21.448 -0.058 -21.712 -0.014 -21.714 -0.013 -21.392 -0.050 -21.058 -0.057 -20.829 -0.086 11.784 0.781 4.024 0.455 44.347 43.181
-29.200 -20.157 -0.079 -20.380 -0.066 -20.845 -0.063 -21.453 -0.056 -21.716 -0.014 -21.718 -0.013 -21.400 -0.047 -21.067 -0.056 -20.839 -0.083 11.774 0.770 4.034 0.452 44.348 43.179
-28.800 -20.162 -0.076 -20.386 -0.064 -20.851 -0.061 -21.458 -0.054 -21.721 -0.014 -21.723 -0.014 -21.408 -0.045 -21.076 -0.055 -20.849 -0.080 11.769 0.757 4.036 0.446 44.348 43.178
-28.400 -20.167 -0.074 -20.391 -0.062 -20.857 -0.059 -21.464 -0.052 -21.725 -0.015 -21.727 -0.014 -21.416 -0.042 -21.085 -0.054 -20.859 -0.078 11.767 0.742 4.031 0.440 44.346 43.177
-28.000 -20.171 -0.072 -20.397 -0.060 -20.863 -0.056 -21.469 -0.050 -21.729 -0.015 -21.732 -0.015 -21.424 -0.039 -21.095 -0.054 -20.869 -0.075 11.768 0.726 4.020 0.432 44.344 43.175
-27.600 -20.176 -0.070 -20.402 -0.058 -20.869 -0.054 -21.474 -0.048 -21.734 -0.016 -21.736 -0.016 -21.432 -0.037 -21.104 -0.053 -20.878 -0.073 11.773 0.708 4.006 0.423 44.342 43.173
-27.200 -20.180 -0.068 -20.408 -0.056 -20.875 -0.052 -21.479 -0.046 -21.738 -0.017 -21.740 -0.016 -21.440 -0.034 -21.113 -0.052 -20.888 -0.071 11.780 0.690 3.990 0.413 44.339 43.170
-26.800 -20.185 -0.066 -20.413 -0.054 -20.881 -0.050 -21.484 -0.044 -21.742 -0.018 -21.744 -0.017 -21.448 -0.032 -21.122 -0.052 -20.897 -0.069 11.788 0.671 3.972 0.402 44.337 43.165
-26.400 -20.189 -0.064 -20.419 -0.052 -20.887 -0.048 -21.489 -0.042 -21.746 -0.018 -21.748 -0.018 -21.456 -0.030 -21.131 -0.051 -20.907 -0.067 11.798 0.652 3.954 0.391 44.334 43.159
-26.000 -20.194 -0.063 -20.424 -0.051 -20.893 -0.046 -21.493 -0.041 -21.750 -0.019 -21.753 -0.019 -21.463 -0.027 -21.140 -0.051 -20.916 -0.065 11.809 0.632 3.937 0.379 44.332 43.152
-25.600 -20.198 -0.061 -20.430 -0.050 -20.898 -0.045 -21.498 -0.040 -21.754 -0.020 -21.757 -0.020 -21.471 -0.025 -21.149 -0.050 -20.925 -0.063 11.819 0.613 3.922 0.367 44.330 43.143
-25.200 -20.203 -0.060 -20.435 -0.048 -20.904 -0.043 -21.503 -0.038 -21.758 -0.020 -21.761 -0.020 -21.479 -0.024 -21.158 -0.050 -20.934 -0.062 11.828 0.594 3.910 0.355 44.329 43.133
-24.800 -20.207 -0.059 -20.440 -0.047 -20.910 -0.042 -21.508 -0.037 -21.763 -0.021 -21.765 -0.021 -21.486 -0.022 -21.167 -0.049 -20.943 -0.060 11.835 0.576 3.900 0.343 44.328 43.124
-24.400 -20.212 -0.058 -20.446 -0.046 -20.916 -0.040 -21.512 -0.036 -21.767 -0.021 -21.770 -0.021 -21.494 -0.021 -21.176 -0.049 -20.952 -0.059 11.840 0.560 3.895 0.332 44.327 43.114
-24.000 -20.216 -0.057 -20.451 -0.045 -20.921 -0.039 -21.517 -0.036 -21.771 -0.022 -21.774 -0.022 -21.501 -0.020 -21.184 -0.048 -20.960 -0.058 11.842 0.544 3.893 0.323 44.327 43.105
-23.600 -20.221 -0.056 -20.456 -0.045 -20.927 -0.038 -21.522 -0.035 -21.776 -0.022 -21.779 -0.022 -21.508 -0.019 -21.193 -0.048 -20.969 -0.057 11.841 0.531 3.897 0.316 44.328 43.097
-23.200 -20.225 -0.056 -20.462 -0.044 -20.933 -0.038 -21.526 -0.035 -21.781 -0.023 -21.783 -0.023 -21.515 -0.019 -21.202 -0.048 -20.977 -0.056 11.836 0.519 3.904 0.311 44.329 43.091
-22.800 -20.230 -0.055 -20.467 -0.044 -20.938 -0.037 -21.531 -0.035 -21.785 -0.023 -21.788 -0.023 -21.522 -0.020 -21.210 -0.047 -20.985 -0.055 11.829 0.511 3.914 0.308 44.330 43.087
-22.400 -20.234 -0.055 -20.472 -0.044 -20.944 -0.037 -21.535 -0.035 -21.790 -0.024 -21.793 -0.024 -21.529 -0.020 -21.218 -0.047 -20.993 -0.055 11.822 0.504 3.926 0.308 44.332 43.086
-22.000 -20.239 -0.055 -20.477 -0.044 -20.949 -0.037 -21.539 -0.036 -21.796 -0.024 -21.798 -0.024 -21.536 -0.021 -21.227 -0.046 -21.001 -0.054 11.815 0.500 3.939 0.309 44.333 43.086
-21.600 -20.244 -0.055 -20.482 -0.044 -20.955 -0.037 -21.544 -0.036 -21.801 -0.024 -21.804 -0.024 -21.542 -0.022 -21.235 -0.046 -21.008 -0.054 11.810 0.498 3.951 0.310 44.335 43.089
-21.200 -20.248 -0.055 -20.487 -0.044 -20.960 -0.037 -21.548 -0.037 -21.806 -0.025 -21.809 -0.025 -21.549 -0.024 -21.243 -0.045 -21.016 -0.054 11.807 0.497 3.963 0.313 44.337 43.093
-20.800 -20.253 -0.055 -20.492 -0.045 -20.965 -0.038 -21.552 -0.038 -21.812 -0.025 -21.815 -0.025 -21.555 -0.025 -21.251 -0.044 -21.023 -0.053 11.806 0.498 3.974 0.316 44.340 43.098
-20.400 -20.258 -0.056 -20.496 -0.045 -20.971 -0.039 -21.556 -0.039 -21.818 -0.025 -21.820 -0.025 -21.562 -0.027 -21.259 -0.044 -21.030 -0.053 11.807 0.501 3.983 0.319 44.342 43.104
-20.000 -20.262 -0.056 -20.501 -0.046 -20.976 -0.040 -21.560 -0.040 -21.823 -0.025 -21.826 -0.025 -21.568 -0.029 -21.267 -0.043 -21.037 -0.054 11.810 0.505 3.992 0.323 44.344 43.112
-19.600 -20.267 -0.057 -20.506 -0.047 -20.981 -0.041 -21.564 -0.041 -21.829 -0.025 -21.832 -0.026 -21.574 -0.030 -21.274 -0.042 -21.044 -0.054 11.814 0.510 3.999 0.326 44.346 43.120
-19.200 -20.271 -0.058 -20.510 -0.048 -20.986 -0.042 -21.568 -0.042 -21.835 -0.026 -21.838 -0.026 -21.580 -0.032 -21.282 -0.041 -21.050 -0.054 11.821 0.516 4.006 0.330 44.349 43.128
-18.800 -20.276 -0.058 -20.515 -0.048 -20.991 -0.043 -21.572 -0.044 -21.841 -0.026 -21.844 -0.026 -21.586 -0.034 -21.289 -0.040 -21.056 -0.055 11.828 0.523 4.012 0.334 44.351 43.138
-18.400 -20.281 -0.059 -20.519 -0.049 -20.995 -0.044 -21.576 -0.045 -21.847 -0.026 -21.850 -0.026 -21.591 -0.036 -21.297 -0.039 -21.063 -0.055 11.838 0.532 4.018 0.338 44.354 43.147
-18.000 -20.285 -0.060 -20.523 -0.050 -21.000 -0.045 -21.580 -0.046 -21.853 -0.026 -21.856 -0.026 -21.597 -0.037 -21.304 -0.038 -21.069 -0.056 11.849 0.541 4.023 0.343 44.357 43.158
-17.600 -20.289 -0.061 -20.528 -0.051 -21.004 -0.047 -21.583 -0.048 -21.860 -0.025 -21.862 -0.025 -21.602 -0.039 -21.311 -0.037 -21.074 -0.056 11.861 0.552 4.027 0.347 44.359 43.169
-17.200 -20.294 -0.062 -20.532 -0.052 -21.009 -0.048 -21.587 -0.049 -21.866 -0.025 -21.869 -0.025 -21.607 -0.041 -21.318 -0.036 -21.080 -0.057 11.876 0.564 4.030 0.352 44.362 43.180
-16.800 -20.298 -0.063 -20.536 -0.054 -21.013 -0.050 -21.590 -0.051 -21.872 -0.025 -21.875 -0.025 -21.612 -0.042 -21.325 -0.035 -21.085 -0.058 11.893 0.577 4.032 0.357 44.365 43.193
-16.400 -20.302 -0.065 -20.540 -0.055 -21.017 -0.051 -21.593 -0.052 -21.878 -0.025 -21.881 -0.025 -21.617 -0.044 -21.331 -0.034 -21.091 -0.059 11.912 0.591 4.032 0.362 44.368 43.205
-16.000 -20.306 -0.066 -20.544 -0.056 -21.021 -0.052 -21.597 -0.054 -21.884 -0.024 -21.887 -0.024 -21.622 -0.046 -21.338 -0.033 -21.096 -0.059 11.934 0.607 4.031 0.368 44.371 43.219
-15.600 -20.311 -0.067 -20.548 -0.057 -21.025 -0.054 -21.600 -0.055 -21.890 -0.024 -21.893 -0.024 -21.627 -0.047 -21.344 -0.031 -21.101 -0.060 11.959 0.624 4.029 0.373 44.374 43.233
-15.200 -20.315 -0.068 -20.551 -0.058 -21.029 -0.055 -21.603 -0.057 -21.896 -0.024 -21.899 -0.023 -21.631 -0.049 -21.350 -0.030 -21.106 -0.061 11.989 0.642 4.024 0.378 44.377 43.248
-14.800 -20.318 -0.069 -20.555 -0.059 -21.032 -0.057 -21.605 -0.058 -21.902 -0.023 -21.905 -0.023 -21.636 -0.050 -21.356 -0.029 -21.110 -0.062 12.022 0.662 4.017 0.384 44.381 43.263
-14.400 -20.322 -0.070 -20.559 -0.060 -21.036 -0.058 -21.608 -0.059 -21.908 -0.023 -21.911 -0.022 -21.640 -0.051 -21.362 -0.027 -21.115 -0.063 12.059 0.683 4.008 0.389 44.384 43.279
-14.000 -20.326 -0.072 -20.562 -0.061 -21.039 -0.059 -21.611 -0.061 -21.914 -0.022 -21.917 -0.022 -21.644 -0.053 -21.368 -0.026 -21.119 -0.063 12.101 0.706 3.997 0.394 44.387 43.296
-13.600 -20.329 -0.073 -20.565 -0.063 -21.042 -0.061 -21.613 -0.062 -21.919 -0.021 -21.922 -0.021 -21.648 -0.054 -21.373 -0.025 -21.123 -0.064 12.146 0.729 3.983 0.399 44.391 43.313
-13.200 -20.333 -0.074 -20.569 -0.064 -21.045 -0.062 -21.616 -0.064 -21.925 -0.021 -21.928 -0.020 -21.652 -0.055 -21.378 -0.024 -21.127 -0.065 12.196 0.753 3.968 0.404 44.395 43.330
-12.800 -20.336 -0.075 -20.572 -0.065 -21.048 -0.063 -21.618 -0.065 -21.930 -0.020 -21.933 -0.020 -21.656 -0.057 -21.384 -0.023 -21.131 -0.066 12.247 0.777 3.951 0.408 44.398 43.347
-12.400 -20.339 -0.076 -20.575 -0.066 -21.050 -0.065 -21.620 -0.066 -21.935 -0.020 -21.938 -0.019 -21.660 -0.058 -21.389 -0.022 -21.135 -0.067 12.299 0.800 3.934 0.411 44.402 43.363
-12.000 -20.342 -0.078 -20.578 -0.067 -21.053 -0.066 -21.622 -0.068 -21.940 -0.020 -21.943 -0.019 -21.663 -0.059 -21.393 -0.021 -21.138 -0.067 12.347 0.822 3.919 0.414 44.405 43.378
-11.600 -20.345 -0.079 -20.580 -0.068 -21.055 -0.067 -21.624 -0.069 -21.945 -0.019 -21.948 -0.019 -21.666 -0.060 -21.398 -0.020 -21.142 -0.068 12.389 0.840 3.907 0.417 44.409 43.391
-11.200 -20.348 -0.080 -20.583 -0.069 -21.058 -0.068 -21.626 -0.070 -21.950 -0.019 -21.953 -0.019 -21.670 -0.061 -21.402 -0.020 -21.145 -0.069 12.420 0.854 3.900 0.420 44.412 43.401
-10.800 -20.351 -0.081 -20.585 -0.070 -21.060 -0.070 -21.628 -0.071 -21.954 -0.019 -21.957 -0.019 -21.673 -0.062 -21.406 -0.020 -21.148 -0.069 12.437 0.863 3.901 0.422 44.414 43.408
-10.400 -20.353 -0.083 -20.588 -0.071 -21.061 -0.071 -21.629 -0.073 -21.958 -0.019 -21.961 -0.019 -21.676 -0.063 -21.410 -0.020 -21.151 -0.070 12.437 0.867 3.909 0.424 44.416 43.411
-10.000 -20.356 -0.084 -20.590 -0.072 -21.063 -0.072 -21.631 -0.074 -21.962 -0.020 -21.965 -0.019 -21.678 -0.064 -21.414 -0.020 -21.154 -0.070 12.422 0.865 3.924 0.426 44.417 43.411
-9.600 -20.358 -0.085 -20.592 -0.073 -21.065 -0.073 -21.632 -0.075 -21.966 -0.020 -21.969 -0.020 -21.681 -0.064 -21.418 -0.021 -21.156 -0.071 12.395 0.858 3.944 0.429 44.418 43.408
-9.200 -20.360 -0.086 -20.594 -0.074 -21.066 -0.074 -21.633 -0.076 -21.969 -0.021 -21.973 -0.020 -21.684 -0.065 -21.421 -0.022 -21.159 -0.071 12.359 0.849 3.969 0.430 44.418 43.403
-8.800 -20.362 -0.088 -20.595 -0.076 -21.067 -0.075 -21.634 -0.077 -21.973 -0.021 -21.976 -0.021 -21.686 -0.066 -21.424 -0.023 -21.161 -0.071 12.319 0.837 3.995 0.432 44.418 43.397
-8.400 -20.364 -0.089 -20.597 -0.077 -21.068 -0.076 -21.635 -0.078 -21.976 -0.022 -21.979 -0.022 -21.688 -0.066 -21.427 -0.025 -21.164 -0.072 12.277 0.823 4.021 0.432 44.418 43.390
-8.000 -20.365 -0.090 -20.598 -0.078 -21.069 -0.077 -21.635 -0.079 -21.978 -0.023 -21.982 -0.023 -21.690 -0.067 -21.430 -0.026 -21.166 -0.072 12.236 0.810 4.047 0.433 44.418 43.382
-7.600 -20.367 -0.091 -20.599 -0.079 -21.070 -0.079 -21.636 -0.080 -21.981 -0.024 -21.984 -0.023 -21.692 -0.067 -21.433 -0.028 -21.168 -0.072 12.196 0.796 4.071 0.433 44.417 43.375
-7.200 -20.368 -0.093 -20.600 -0.080 -21.070 -0.080 -21.636 -0.081 -21.983 -0.025 -21.986 -0.024 -21.694 -0.067 -21.435 -0.029 -21.170 -0.072 12.159 0.782 4.093 0.432 44.417 43.367
-6.800 -20.369 -0.094 -20.601 -0.081 -21.071 -0.081 -21.636 -0.081 -21.985 -0.026 -21.988 -0.025 -21.696 -0.068 -21.437 -0.031 -21.172 -0.072 12.126 0.769 4.113 0.431 44.416 43.360
-6.400 -20.370 -0.096 -20.602 -0.082 -21.071 -0.082 -21.636 -0.082 -21.987 -0.027 -21.990 -0.026 -21.698 -0.068 -21.439 -0.033 -21.173 -0.072 12.096 0.757 4.130 0.430 44.415 43.354
-6.000 -20.370 -0.097 -20.602 -0.084 -21.070 -0.083 -21.636 -0.083 -21.988 -0.028 -21.992 -0.027 -21.699 -0.068 -21.441 -0.034 -21.175 -0.072 12.070 0.746 4.144 0.429 44.415 43.348
-5.600 -20.371 -0.099 -20.602 -0.085 -21.070 -0.084 -21.636 -0.084 -21.990 -0.029 -21.993 -0.028 -21.701 -0.068 -21.443 -0.036 -21.177 -0.072 12.048 0.736 4.156 0.427 44.414 43.342
-5.200 -20.371 -0.100 -20.602 -0.086 -21.070 -0.085 -21.635 -0.084 -21.991 -0.030 -21.994 -0.029 -21.702 -0.068 -21.444 -0.038 -21.178 -0.072 12.029 0.726 4.166 0.425 44.413 43.337
-4.800 -20.371 -0.102 -20.602 -0.087 -21.069 -0.086 -21.635 -0.085 -21.991 -0.031 -21.995 -0.030 -21.703 -0.068 -21.446 -0.039 -21.179 -0.072 12.012 0.718 4.174 0.423 44.412 43.333
-4.400 -20.371 -0.103 -20.602 -0.089 -21.068 -0.087 -21.634 -0.086 -21.992 -0.032 -21.995 -0.031 -21.704 -0.068 -21.447 -0.041 -21.180 -0.071 11.998 0.710 4.180 0.421 44.412 43.328
-4.000 -20.370 -0.105 -20.601 -0.090 -21.067 -0.088 -21.633 -0.086 -21.992 -0.033 -21.995 -0.032 -21.705 -0.068 -21.448 -0.043 -21.181 -0.071 11.987 0.702 4.183 0.418 44.411 43.324
-3.600 -20.370 -0.106 -20.600 -0.092 -21.066 -0.090 -21.632 -0.087 -21.992 -0.034 -21.995 -0.033 -21.706 -0.068 -21.449 -0.044 -21.182 -0.070 11.978 0.696 4.185 0.416 44.410 43.320
-3.200 -20.369 -0.108 -20.599 -0.093 -21.064 -0.091 -21.631 -0.087 -21.991 -0.034 -21.995 -0.034 -21.706 -0.067 -21.450 -0.046 -21.183 -0.070 11.971 0.689 4.185 0.413 44.409 43.317
-2.800 -20.368 -0.110 -20.598 -0.095 -21.063 -0.092 -21.629 -0.088 -21.991 -0.035 -21.994 -0.035 -21.707 -0.067 -21.450 -0.047 -21.184 -0.069 11.966 0.684 4.184 0.410 44.408 43.314
-2.400 -20.366 -0.112 -20.596 -0.096 -21.061 -0.093 -21.627 -0.088 -21.990 -0.036 -21.993 -0.036 -21.707 -0.067 -21.451 -0.048 -21.185 -0.069 11.963 0.679 4.181 0.406 44.407 43.311
-2.000 -20.365 -0.114 -20.594 -0.098 -21.059 -0.095 -21.626 -0.089 -21.989 -0.037 -21.992 -0.037 -21.707 -0.066 -21.451 -0.050 -21.185 -0.068 11.961 0.674 4.177 0.403 44.406 43.308
-1.600 -20.363 -0.115 -20.592 -0.100 -21.056 -0.096 -21.624 -0.089 -21.987 -0.038 -21.991 -0.038 -21.708 -0.066 -21.451 -0.051 -21.186 -0.067 11.960 0.670 4.172 0.400 44.404 43.305
-1.200 -20.361 -0.117 -20.590 -0.102 -21.054 -0.097 -21.622 -0.089 -21.986 -0.039 -21.989 -0.039 -21.708 -0.065 -21.451 -0.053 -21.186 -0.067 11.961 0.666 4.166 0.396 44.403 43.303
-0.800 -20.359 -0.119 -20.587 -0.103 -21.051 -0.098 -21.619 -0.090 -21.984 -0.040 -21.987 -0.040 -21.708 -0.064 -21.451 -0.054 -21.187 -0.066 11.963 0.662 4.159 0.393 44.402 43.300
-0.400 -20.357 -0.121 -20.585 -0.105 -21.048 -0.100 -21.617 -0.090 -21.982 -0.041 -21.985 -0.040 -21.707 -0.064 -21.451 -0.055 -21.187 -0.065 11.966 0.659 4.151 0.389 44.401 43.298
-0.000 -20.354 -0.124 -20.582 -0.107 -21.045 -0.101 -21.614 -0.090 -21.979 -0.041 -21.983 -0.041 -21.707 -0.063 -21.450 -0.056 -21.187 -0.064 11.970 0.656 4.143 0.385 44.400 43.296
0.400 -20.352 -0.126 -20.579 -0.109 -21.042 -0.103 -21.611 -0.091 -21.977 -0.042 -21.980 -0.042 -21.707 -0.062 -21.450 -0.057 -21.187 -0.063 11.974 0.653 4.134 0.381 44.399 43.294
0.800 -20.349 -0.128 -20.575 -0.111 -21.039 -0.104 -21.608 -0.091 -21.974 -0.043 -21.977 -0.043 -21.706 -0.061 -21.449 -0.058 -21.187 -0.062 11.979 0.651 4.124 0.377 44.397 43.293
1.200 -20.346 -0.130 -20.572 -0.113 -21.035 -0.105 -21.605 -0.091 -21.971 -0.043 -21.974 -0.043 -21.706 -0.060 -21.448 -0.059 -21.187 -0.061 11.985 0.648 4.114 0.373 44.396 43.291
1.600 -20.342 -0.132 -20.568 -0.115 -21.031 -0.107 -21.602 -0.091 -21.967 -0.044 -21.971 -0.044 -21.705 -0.060 -21.448 -0.060 -21.187 -0.060 11.992 0.646 4.104 0.369 44.395 43.289
2.000 -20.339 -0.134 -20.564 -0.117 -21.027 -0.108 -21.598 -0.091 -21.964 -0.044 -21.968 -0.044 -21.704 -0.059 -21.447 -0.061 -21.187 -0.059 11.999 0.644 4.093 0.365 44.393 43.288
2.400 -20.335 -0.137 -20.560 -0.120 -21.023 -0.110 -21.594 -0.091 -21.960 -0.045 -21.964 -0.045 -21.704 -0.058 -21.445 -0.062 -21.186 -0.058 12.006 0.642 4.082 0.361 44.392 43.287
2.800 -20.331 -0.139 -20.556 -0.122 -21.018 -0.111 -21.591 -0.092 -21.957 -0.046 -21.961 -0.045 -21.703 -0.057 -21.444 -0.063 -21.186 -0.056 12.014 0.641 4.070 0.357 44.391 43.286
3.200 -20.327 -0.141 -20.551 -0.124 -21.014 -0.113 -21.587 -0.092 -21.953 -0.046 -21.957 -0.046 -21.702 -0.056 -21.443 -0.064 -21.186 -0.055 12.022 0.639 4.059 0.352 44.390 43.284
3.600 -20.322 -0.144 -20.546 -0.126 -21.009 -0.114 -21.582 -0.092 -21.948 -0.046 -21.952 -0.046 -21.700 -0.055 -21.442 -0.065 -21.185 -0.054 12.030 0.637 4.047 0.348 44.388 43.283
4.000 -20.318 -0.146 -20.541 -0.128 -21.004 -0.116 -21.578 -0.092 -21.944 -0.047 -21.948 -0.047 -21.699 -0.053 -21.440 -0.065 -21.185 -0.053 12.039 0.636 4.035 0.344 44.387 43.282
4.400 -20.313 -0.149 -20.536 -0.131 -20.999 -0.118 -21.574 -0.092 -21.940 -0.047 -21.944 -0.047 -21.698 -0.052 -21.438 -0.066 -21.184 -0.051 12.048 0.634 4.023 0.339 44.385 43.281
4.800 -20.308 -0.151 -20.531 -0.133 -20.993 -0.119 -21.569 -0.092 -21.935 -0.048 -21.939 -0.048 -21.697 -0.051 -21.437 -0.067 -21.183 -0.050 12.056 0.632 4.010 0.334 44.384 43.280
5.200 -20.303 -0.154 -20.525 -0.135 -20.988 -0.121 -21.564 -0.092 -21.930 -0.048 -21.934 -0.048 -21.695 -0.050 -21.435 -0.067 -21.183 -0.049 12.065 0.630 3.998 0.330 44.383 43.279
5.600 -20.297 -0.156 -20.519 -0.138 -20.982 -0.122 -21.559 -0.093 -21.925 -0.048 -21.930 -0.048 -21.694 -0.049 -21.433 -0.068 -21.182 -0.048 12.073 0.629 3.986 0.325 44.381 43.278
6.000 -20.292 -0.159 -20.513 -0.140 -20.976 -0.124 -21.554 -0.093 -21.920 -0.049 -21.924 -0.049 -21.692 -0.048 -21.431 -0.068 -21.181 -0.046 12.081 0.626 3.974 0.321 44.380 43.277
6.400 -20.286 -0.161 -20.507 -0.142 -20.970 -0.126 -21.549 -0.093 -21.915 -0.049 -21.919 -0.049 -21.690 -0.047 -21.429 -0.069 -21.181 -0.045 12.088 0.624 3.963 0.316 44.378 43.276
6.800 -20.280 -0.164 -20.501 -0.145 -20.963 -0.127 -21.543 -0.093 -21.910 -0.049 -21.914 -0.049 -21.689 -0.046 -21.427 -0.069 -21.180 -0.044 12.095 0.622 3.952 0.311 44.377 43.274
7.200 -20.274 -0.166 -20.494 -0.147 -20.957 -0.129 -21.538 -0.093 -21.904 -0.050 -21.909 -0.050 -21.687 -0.045 -21.425 -0.070 -21.179 -0.043 12.100 0.619 3.941 0.307 44.375 43.273
7.600 -20.268 -0.169 -20.488 -0.150 -20.950 -0.131 -21.532 -0.093 -21.899 -0.050 -21.903 -0.050 -21.685 -0.044 -21.422 -0.070 -21.178 -0.042 12.105 0.616 3.931 0.302 44.374 43.271
8.000 -20.261 -0.171 -20.481 -0.152 -20.943 -0.132 -21.526 -0.093 -21.893 -0.050 -21.898 -0.050 -21.683 -0.043 -21.420 -0.071 -21.177 -0.041 12.108 0.613 3.922 0.298 44.372 43.269
8.400 -20.254 -0.174 -20.474 -0.155 -20.936 -0.134 -21.520 -0.094 -21.887 -0.051 -21.892 -0.051 -21.681 -0.043 -21.418 -0.071 -21.176 -0.040 12.109 0.610 3.913 0.293 44.370 43.267
8.800 -20.248 -0.177 -20.466 -0.157 -20.929 -0.136 -21.514 -0.094 -21.881 -0.051 -21.886 -0.051 -21.679 -0.042 -21.415 -0.072 -21.175 -0.039 12.108 0.606 3.906 0.289 44.369 43.264
9.200 -20.241 -0.179 -20.459 -0.160 -20.922 -0.138 -21.508 -0.094 -21.875 -0.052 -21.880 -0.051 -21.677 -0.041 -21.413 -0.072 -21.174 -0.039 12.105 0.602 3.900 0.285 44.367 43.261
9.600 -20.233 -0.182 -20.451 -0.162 -20.914 -0.139 -21.501 -0.095 -21.869 -0.052 -21.874 -0.052 -21.675 -0.041 -21.410 -0.072 -21.173 -0.038 12.100 0.598 3.895 0.282 44.365 43.258
10.000 -20.226 -0.184 -20.444 -0.165 -20.906 -0.141 -21.495 -0.095 -21.863 -0.053 -21.868 -0.052 -21.673 -0.041 -21.407 -0.073 -21.172 -0.038 12.091 0.593 3.891 0.279 44.363 43.254
10.400 -20.218 -0.187 -20.436 -0.167 -20.898 -0.143 -21.488 -0.095 -21.857 -0.053 -21.862 -0.053 -21.671 -0.040 -21.405 -0.073 -21.171 -0.037 12.080 0.589 3.889 0.276 44.361 43.249
10.800 -20.211 -0.190 -20.428 -0.170 -20.890 -0.145 -21.481 -0.096 -21.851 -0.054 -21.856 -0.054 -21.668 -0.040 -21.402 -0.074 -21.170 -0.037 12.066 0.584 3.888 0.273 44.359 43.244
11.200 -20.203 -0.192 -20.419 -0.172 -20.882 -0.146 -21.474 -0.096 -21.844 -0.054 -21.849 -0.054 -21.666 -0.040 -21.399 -0.074 -21.169 -0.037 12.049 0.579 3.889 0.271 44.356 43.239
11.600 -20.195 -0.195 -20.411 -0.175 -20.874 -0.148 -21.467 -0.097 -21.838 -0.055 -21.843 -0.055 -21.664 -0.041 -21.396 -0.074 -21.167 -0.037 12.030 0.573 3.890 0.268 44.354 43.233
12.000 -20.187 -0.198 -20.403 -0.177 -20.865 -0.150 -21.460 -0.097 -21.832 -0.056 -21.837 -0.056 -21.661 -0.041 -21.393 -0.075 -21.166 -0.038 12.009 0.568 3.893 0.267 44.351 43.227
12.400 -20.178 -0.200 -20.394 -0.180 -20.857 -0.152 -21.453 -0.098 -21.825 -0.057 -21.830 -0.056 -21.659 -0.041 -21.390 -0.075 -21.165 -0.038 11.985 0.563 3.897 0.265 44.349 43.220
12.800 -20.170 -0.203 -20.385 -0.182 -20.848 -0.153 -21.445 -0.098 -21.818 -0.057 -21.824 -0.057 -21.656 -0.042 -21.387 -0.076 -21.164 -0.039 11.961 0.557 3.901 0.264 44.346 43.214
13.200 -20.161 -0.206 -20.376 -0.185 -20.839 -0.155 -21.438 -0.099 -21.812 -0.058 -21.817 -0.058 -21.654 -0.042 -21.384 -0.076 -21.163 -0.039 11.934 0.552 3.906 0.262 44.343 43.207
13.600 -20.152 -0.208 -20.367 -0.187 -20.829 -0.157 -21.430 -0.100 -21.805 -0.059 -21.810 -0.059 -21.651 -0.043 -21.381 -0.076 -21.161 -0.040 11.907 0.546 3.911 0.261 44.341 43.199
14.000 -20.143 -0.211 -20.357 -0.190 -20.820 -0.159 -21.422 -0.100 -21.798 -0.060 -21.803 -0.060 -21.648 -0.043 -21.378 -0.077 -21.160 -0.040 11.879 0.540 3.916 0.260 44.338 43.192
14.400 -20.134 -0.214 -20.348 -0.192 -20.811 -0.160 -21.414 -0.101 -21.791 -0.061 -21.797 -0.061 -21.646 -0.044 -21.375 -0.077 -21.159 -0.041 11.851 0.535 3.922 0.259 44.335 43.185
14.800 -20.125 -0.216 -20.338 -0.195 -20.801 -0.162 -21.406 -0.102 -21.784 -0.061 -21.790 -0.061 -21.643 -0.045 -21.371 -0.077 -21.158 -0.041 11.822 0.529 3.928 0.258 44.332 43.177
15.200 -20.115 -0.219 -20.328 -0.197 -20.791 -0.164 -21.398 -0.102 -21.777 -0.062 -21.783 -0.062 -21.640 -0.046 -21.368 -0.077 -21.156 -0.042 11.793 0.524 3.934 0.257 44.329 43.170
15.600 -20.106 -0.222 -20.318 -0.200 -20.781 -0.166 -21.389 -0.103 -21.770 -0.063 -21.775 -0.063 -21.637 -0.046 -21.365 -0.078 -21.155 -0.043 11.764 0.519 3.939 0.256 44.326 43.163
16.000 -20.096 -0.224 -20.308 -0.202 -20.771 -0.167 -21.381 -0.104 -21.763 -0.064 -21.768 -0.064 -21.634 -0.047 -21.361 -0.078 -21.153 -0.043 11.735 0.513 3.945 0.255 44.323 43.155
16.400 -20.086 -0.227 -20.298 -0.205 -20.761 -0.169 -21.372 -0.105 -21.755 -0.065 -21.761 -0.065 -21.631 -0.048 -21.358 -0.078 -21.152 -0.044 11.706 0.508 3.951 0.254 44.320 43.148
16.800 -20.076 -0.230 -20.288 -0.207 -20.751 -0.171 -21.364 -0.106 -21.748 -0.066 -21.754 -0.066 -21.628 -0.048 -21.354 -0.078 -21.151 -0.044 11.677 0.503 3.956 0.252 44.317 43.141
17.200 -20.066 -0.232 -20.277 -0.210 -20.740 -0.173 -21.355 -0.106 -21.741 -0.067 -21.746 -0.067 -21.625 -0.049 -21.351 -0.079 -21.149 -0.045 11.649 0.498 3.961 0.251 44.314 43.133
17.600 -20.055 -0.235 -20.267 -0.212 -20.730 -0.174 -21.346 -0.107 -21.733 -0.068 -21.739 -0.067 -21.622 -0.050 -21.347 -0.079 -21.148 -0.045 11.620 0.493 3.966 0.250 44.310 43.126
18.000 -20.045 -0.238 -20.256 -0.215 -20.719 -0.176 -21.337 -0.108 -21.725 -0.068 -21.731 -0.068 -21.618 -0.050 -21.343 -0.079 -21.146 -0.046 11.592 0.488 3.971 0.249 44.307 43.119
18.400 -20.034 -0.240 -20.245 -0.217 -20.708 -0.178 -21.328 -0.109 -21.718 -0.069 -21.724 -0.069 -21.615 -0.051 -21.340 -0.079 -21.144 -0.046 11.564 0.483 3.975 0.248 44.304 43.112
18.800 -20.024 -0.243 -20.234 -0.220 -20.697 -0.180 -21.318 -0.110 -21.710 -0.070 -21.716 -0.070 -21.611 -0.051 -21.336 -0.079 -21.143 -0.046 11.537 0.479 3.979 0.246 44.301 43.105
19.200 -20.013 -0.245 -20.223 -0.222 -20.686 -0.181 -21.309 -0.110 -21.702 -0.071 -21.708 -0.071 -21.608 -0.052 -21.332 -0.079 -21.141 -0.047 11.510 0.474 3.983 0.245 44.298 43.099
19.600 -20.002 -0.248 -20.211 -0.225 -20.675 -0.183 -21.299 -0.111 -21.694 -0.072 -21.701 -0.071 -21.604 -0.052 -21.328 -0.079 -21.140 -0.047 11.483 0.469 3.987 0.243 44.294 43.092
20.000 -19.991 -0.250 -20.200 -0.227 -20.663 -0.185 -21.290 -0.112 -21.686 -0.072 -21.693 -0.072 -21.600 -0.053 -21.324 -0.079 -21.138 -0.047 11.456 0.465 3.990 0.242 44.291 43.085
20.400 -19.979 -0.253 -20.188 -0.229 -20.652 -0.187 -21.280 -0.113 -21.678 -0.073 -21.685 -0.073 -21.597 -0.053 -21.320 -0.079 -21.136 -0.047 11.430 0.461 3.994 0.240 44.288 43.079
20.800 -19.968 -0.256 -20.177 -0.232 -20.640 -0.188 -21.270 -0.114 -21.670 -0.074 -21.677 -0.074 -21.593 -0.053 -21.316 -0.079 -21.134 -0.047 11.403 0.456 3.997 0.239 44.284 43.072
21.200 -19.957 -0.258 -20.165 -0.234 -20.628 -0.190 -21.260 -0.115 -21.662 -0.075 -21.669 -0.074 -21.589 -0.054 -21.312 -0.079 -21.132 -0.047 11.378 0.452 4.000 0.237 44.281 43.066
21.600 -19.945 -0.261 -20.153 -0.237 -20.616 -0.192 -21.250 -0.115 -21.654 -0.075 -21.660 -0.075 -21.584 -0.054 -21.308 -0.079 -21.131 -0.047 11.352 0.448 4.002 0.235 44.278 43.060
22.000 -19.933 -0.263 -20.141 -0.239 -20.604 -0.193 -21.240 -0.116 -21.645 -0.076 -21.652 -0.076 -21.580 -0.054 -21.304 -0.079 -21.129 -0.046 11.327 0.444 4.005 0.233 44.274 43.054
22.400 -19.921 -0.266 -20.129 -0.241 -20.592 -0.195 -21.230 -0.117 -21.637 -0.077 -21.644 -0.076 -21.576 -0.054 -21.300 -0.079 -21.127 -0.046 11.302 0.439 4.007 0.231 44.271 43.048
22.800 -19.909 -0.268 -20.117 -0.244 -20.580 -0.197 -21.220 -0.118 -21.628 -0.077 -21.635 -0.077 -21.571 -0.054 -21.296 -0.079 -21.125 -0.046 11.277 0.435 4.009 0.229 44.268 43.042
23.200 -19.897 -0.271 -20.104 -0.246 -20.568 -0.198 -21.209 -0.119 -21.620 -0.078 -21.627 -0.078 -21.567 -0.054 -21.291 -0.079 -21.123 -0.045 11.252 0.431 4.011 0.227 44.264 43.036
23.600 -19.885 -0.273 -20.092 -0.248 -20.555 -0.200 -21.199 -0.119 -21.611 -0.079 -21.618 -0.078 -21.562 -0.054 -21.287 -0.079 -21.121 -0.045 11.228 0.427 4.012 0.225 44.261 43.030
24.000 -19.873 -0.276 -20.079 -0.251 -20.543 -0.202 -21.188 -0.120 -21.602 -0.079 -21.609 -0.079 -21.558 -0.054 -21.283 -0.079 -21.119 -0.044 11.204 0.423 4.014 0.223 44.257 43.024
24.400 -19.860 -0.278 -20.066 -0.253 -20.530 -0.203 -21.177 -0.121 -21.594 -0.080 -21.601 -0.080 -21.553 -0.054 -21.278 -0.079 -21.116 -0.043 11.179 0.419 4.015 0.221 44.254 43.018
24.800 -19.848 -0.281 -20.054 -0.255 -20.517 -0.205 -21.167 -0.122 -21.585 -0.080 -21.592 -0.080 -21.548 -0.054 -21.274 -0.079 -21.114 -0.043 11.156 0.414 4.016 0.218 44.250 43.013
25.200 -19.835 -0.283 -20.041 -0.257 -20.505 -0.206 -21.156 -0.123 -21.576 -0.081 -21.583 -0.081 -21.543 -0.054 -21.269 -0.079 -21.112 -0.042 11.132 0.410 4.017 0.215 44.247 43.007
25.600 -19.823 -0.285 -20.028 -0.260 -20.492 -0.208 -21.145 -0.123 -21.567 -0.082 -21.574 -0.081 -21.538 -0.053 -21.265 -0.078 -21.110 -0.041 11.108 0.406 4.018 0.213 44.243 43.001
26.000 -19.810 -0.288 -20.015 -0.262 -20.479 -0.210 -21.133 -0.124 -21.557 -0.082 -21.565 -0.082 -21.532 -0.053 -21.260 -0.078 -21.107 -0.040 11.085 0.401 4.019 0.210 44.240 42.996
26.400 -19.797 -0.290 -20.001 -0.264 -20.465 -0.211 -21.122 -0.125 -21.548 -0.083 -21.556 -0.082 -21.527 -0.053 -21.256 -0.078 -21.105 -0.039 11.061 0.397 4.019 0.207 44.236 42.990
26.800 -19.784 -0.292 -19.988 -0.266 -20.452 -0.213 -21.111 -0.126 -21.539 -0.083 -21.546 -0.083 -21.521 -0.053 -21.251 -0.078 -21.102 -0.038 11.038 0.392 4.020 0.204 44.233 42.984
27.200 -19.771 -0.295 -19.975 -0.269 -20.439 -0.214 -21.100 -0.126 -21.530 -0.084 -21.537 -0.084 -21.516 -0.052 -21.246 -0.078 -21.100 -0.037 11.015 0.388 4.020 0.201 44.229 42.978
27.600 -19.757 -0.297 -19.961 -0.271 -20.425 -0.216 -21.088 -0.127 -21.520 -0.084 -21.528 -0.084 -21.510 -0.052 -21.242 -0.078 -21.097 -0.036 10.991 0.383 4.021 0.197 44.226 42.973
28.000 -19.744 -0.299 -19.948 -0.273 -20.412 -0.217 -21.077 -0.128 -21.511 -0.085 -21.518 -0.085 -21.504 -0.052 -21.237 -0.078 -21.095 -0.034 10.968 0.378 4.021 0.194 44.222 42.967
28.400 -19.731 -0.302 -19.934 -0.275 -20.398 -0.219 -21.065 -0.128 -21.501 -0.086 -21.509 -0.085 -21.498 -0.051 -21.232 -0.078 -21.092 -0.033 10.944 0.373 4.022 0.190 44.218 42.961
28.800 -19.717 -0.304 -19.920 -0.277 -20.385 -0.220 -21.053 -0.129 -21.491 -0.086 -21.499 -0.086 -21.492 -0.051 -21.227 -0.079 -21.089 -0.032 10.920 0.368 4.022 0.187 44.215 42.955
29.200 -19.703 -0.306 -19.906 -0.279 -20.371 -0.222 -21.042 -0.130 -21.481 -0.087 -21.489 -0.086 -21.486 -0.051 -21.222 -0.079 -21.087 -0.031 10.895 0.363 4.023 0.183 44.211 42.948
29.600 -19.690 -0.309 -19.892 -0.281 -20.357 -0.223 -21.030 -0.130 -21.471 -0.087 -21.479 -0.087 -21.479 -0.050 -21.217 -0.079 -21.084 -0.030 10.870 0.357 4.024 0.179 44.207 42.942
30.000 -19.676 -0.311 -19.878 -0.283 -20.343 -0.224 -21.018 -0.131 -21.461 -0.088 -21.469 -0.088 -21.473 -0.050 -21.212 -0.079 -21.081 -0.029 10.845 0.352 4.026 0.176 44.203 42.935
30.400 -19.662 -0.313 -19.864 -0.285 -20.329 -0.226 -21.006 -0.132 -21.451 -0.089 -21.460 -0.088 -21.466 -0.050 -21.207 -0.079 -21.078 -0.028 10.818 0.347 4.028 0.172 44.200 42.928
30.800 -19.648 -0.315 -19.850 -0.287 -20.315 -0.227 -20.994 -0.132 -21.441 -0.089 -21.449 -0.089 -21.459 -0.050 -21.202 -0.080 -21.075 -0.027 10.791 0.341 4.030 0.169 44.196 42.921
31.200 -19.634 -0.317 -19.836 -0.289 -20.301 -0.229 -20.982 -0.133 -21.431 -0.090 -21.439 -0.090 -21.452 -0.050 -21.197 -0.080 -21.072 -0.026 10.762 0.336 4.034 0.166 44.192 42.913
31.600 -19.620 -0.320 -19.821 -0.291 -20.286 -0.230 -20.970 -0.134 -21.421 -0.091 -21.429 -0.090 -21.445 -0.050 -21.192 -0.081 -21.069 -0.025 10.732 0.331 4.038 0.163 44.188 42.904
32.000 -19.606 -0.322 -19.807 -0.293 -20.272 -0.231 -20.957 -0.134 -21.410 -0.091 -21.419 -0.091 -21.438 -0.050 -21.187 -0.081 -21.065 -0.025 10.700 0.326 4.043 0.161 44.184 42.896
32.400 -19.591 -0.324 -19.792 -0.295 -20.258 -0.233 -20.945 -0.135 -21.400 -0.092 -21.408 -0.092 -21.431 -0.050 -21.182 -0.082 -21.062 -0.025 10.667 0.321 4.049 0.159 44.180 42.886
32.800 -19.577 -0.326 -19.778 -0.297 -20.243 -0.234 -20.933 -0.136 -21.389 -0.093 -21.398 -0.092 -21.423 -0.050 -21.176 -0.082 -21.059 -0.025 10.632 0.317 4.056 0.158 44.176 42.877
33.200 -19.563 -0.328 -19.763 -0.299 -20.229 -0.235 -20.920 -0.136 -21.379 -0.093 -21.387 -0.093 -21.416 -0.050 -21.171 -0.083 -21.055 -0.025 10.596 0.313 4.064 0.157 44.171 42.866
33.600 -19.548 -0.330 -19.748 -0.301 -20.214 -0.236 -20.908 -0.137 -21.368 -0.094 -21.377 -0.094 -21.408 -0.051 -21.166 -0.083 -21.052 -0.026 10.558 0.309 4.073 0.157 44.167 42.856
34.000 -19.534 -0.332 -19.734 -0.303 -20.199 -0.238 -20.895 -0.138 -21.357 -0.095 -21.366 -0.095 -21.400 -0.051 -21.160 -0.084 -21.049 -0.026 10.519 0.305 4.083 0.158 44.163 42.845
34.400 -19.519 -0.334 -19.719 -0.305 -20.185 -0.239 -20.883 -0.138 -21.347 -0.096 -21.355 -0.095 -21.392 -0.052 -21.155 -0.085 -21.045 -0.028 10.480 0.302 4.093 0.159 44.158 42.833
34.800 -19.504 -0.336 -19.704 -0.307 -20.170 -0.240 -20.870 -0.139 -21.336 -0.096 -21.345 -0.096 -21.384 -0.052 -21.150 -0.085 -21.041 -0.029 10.440 0.299 4.104 0.160 44.154 42.821
35.200 -19.489 -0.338 -19.689 -0.309 -20.155 -0.241 -20.857 -0.139 -21.325 -0.097 -21.334 -0.097 -21.375 -0.053 -21.144 -0.086 -21.038 -0.030 10.400 0.296 4.115 0.161 44.150 42.810
35.600 -19.474 -0.340 -19.674 -0.310 -20.140 -0.243 -20.845 -0.140 -21.314 -0.098 -21.323 -0.098 -21.367 -0.054 -21.139 -0.087 -21.034 -0.032 10.359 0.293 4.125 0.163 44.145 42.798
36.000 -19.460 -0.342 -19.659 -0.312 -20.125 -0.244 -20.832 -0.140 -21.303 -0.099 -21.312 -0.098 -21.358 -0.054 -21.133 -0.088 -21.030 -0.033 10.319 0.290 4.136 0.165 44.141 42.786
36.400 -19.445 -0.344 -19.644 -0.314 -20.110 -0.245 -20.819 -0.141 -21.292 -0.099 -21.301 -0.099 -21.350 -0.055 -21.128 -0.088 -21.026 -0.035 10.280 0.287 4.147 0.166 44.136 42.774
36.800 -19.429 -0.346 -19.628 -0.316 -20.095 -0.246 -20.806 -0.141 -21.281 -0.100 -21.290 -0.100 -21.341 -0.056 -21.122 -0.089 -21.022 -0.037 10.241 0.285 4.157 0.168 44.132 42.762
37.200 -19.414 -0.348 -19.613 -0.317 -20.080 -0.247 -20.793 -0.142 -21.270 -0.101 -21.279 -0.100 -21.332 -0.057 -21.117 -0.090 -21.018 -0.039 10.202 0.282 4.167 0.170 44.127 42.750
37.600 -19.399 -0.350 -19.598 -0.319 -20.065 -0.248 -20.780 -0.142 -21.259 -0.101 -21.268 -0.101 -21.323 -0.058 -21.111 -0.091 -21.014 -0.041 10.164 0.280 4.177 0.171 44.123 42.738
38.000 -19.384 -0.352 -19.582 -0.321 -20.050 -0.249 -20.767 -0.143 -21.247 -0.102 -21.257 -0.102 -21.314 -0.059 -21.105 -0.091 -21.010 -0.043 10.127 0.278 4.186 0.173 44.118 42.726
38.400 -19.369 -0.354 -19.567 -0.323 -20.034 -0.250 -20.754 -0.143 -21.236 -0.103 -21.245 -0.102 -21.305 -0.060 -21.100 -0.092 -21.006 -0.045 10.090 0.275 4.195 0.174 44.114 42.715
38.800 -19.353 -0.355 -19.551 -0.324 -20.019 -0.251 -20.741 -0.144 -21.225 -0.103 -21.234 -0.103 -21.296 -0.060 -21.094 -0.093 -21.002 -0.046 10.054 0.273 4.203 0.176 44.109 42.704
39.200 -19.338 -0.357 -19.536 -0.326 -20.004 -0.252 -20.728 -0.144 -21.214 -0.104 -21.223 -0.103 -21.287 -0.061 -21.088 -0.093 -20.998 -0.048 10.019 0.271 4.210 0.177 44.105 42.692
39.600 -19.322 -0.359 -19.520 -0.328 -19.988 -0.253 -20.715 -0.145 -21.202 -0.104 -21.212 -0.104 -21.277 -0.062 -21.083 -0.094 -20.993 -0.050 9.984 0.269 4.218 0.178 44.100 42.681
40.000 -19.307 -0.361 -19.504 -0.329 -19.973 -0.254 -20.702 -0.145 -21.191 -0.105 -21.201 -0.105 -21.268 -0.063 -21.077 -0.095 -20.989 -0.052 9.951 0.266 4.225 0.179 44.096 42.671
40.400 -19.291 -0.363 -19.489 -0.331 -19.957 -0.255 -20.689 -0.145 -21.180 -0.105 -21.189 -0.105 -21.258 -0.064 -21.071 -0.095 -20.985 -0.054 9.917 0.264 4.231 0.180 44.091 42.660
40.800 -19.276 -0.364 -19.473 -0.332 -19.942 -0.256 -20.675 -0.146 -21.169 -0.106 -21.178 -0.106 -21.249 -0.065 -21.065 -0.096 -20.980 -0.056 9.885 0.262 4.237 0.181 44.087 42.650
41.200 -19.260 -0.366 -19.457 -0.334 -19.926 -0.257 -20.662 -0.146 -21.157 -0.106 -21.167 -0.106 -21.239 -0.066 -21.060 -0.097 -20.976 -0.058 9.853 0.261 4.243 0.182 44.082 42.640
41.600 -19.244 -0.368 -19.441 -0.335 -19.911 -0.258 -20.649 -0.146 -21.146 -0.107 -21.156 -0.107 -21.229 -0.066 -21.054 -0.097 -20.972 -0.059 9.822 0.259 4.248 0.183 44.078 42.630
42.000 -19.229 -0.370 -19.425 -0.337 -19.895 -0.259 -20.636 -0.147 -21.135 -0.107 -21.144 -0.107 -21.220 -0.067 -21.048 -0.098 -20.967 -0.061 9.791 0.257 4.253 0.184 44.073 42.620
42.400 -19.213 -0.371 -19.410 -0.338 -19.880 -0.260 -20.622 -0.147 -21.123 -0.108 -21.133 -0.107 -21.210 -0.068 -21.042 -0.098 -20.962 -0.063 9.760 0.255 4.257 0.185 44.069 42.611
42.800 -19.197 -0.373 -19.394 -0.340 -19.864 -0.261 -20.609 -0.147 -21.112 -0.108 -21.122 -0.108 -21.200 -0.068 -21.036 -0.099 -20.958 -0.064 9.731 0.254 4.262 0.185 44.065 42.602
43.200 -19.181 -0.375 -19.378 -0.341 -19.848 -0.262 -20.596 -0.147 -21.101 -0.108 -21.110 -0.108 -21.190 -0.069 -21.030 -0.099 -20.953 -0.066 9.701 0.252 4.266 0.186 44.060 42.593
43.600 -19.165 -0.376 -19.362 -0.343 -19.832 -0.262 -20.582 -0.147 -21.089 -0.109 -21.099 -0.108 -21.180 -0.070 -21.024 -0.099 -20.949 -0.068 9.672 0.251 4.270 0.187 44.056 42.584
44.000 -19.149 -0.378 -19.346 -0.344 -19.817 -0.263 -20.569 -0.147 -21.078 -0.109 -21.088 -0.108 -21.170 -0.070 -21.018 -0.100 -20.944 -0.069 9.643 0.249 4.273 0.188 44.051 42.576
44.400 -19.133 -0.379 -19.329 -0.346 -19.801 -0.264 -20.556 -0.147 -21.067 -0.109 -21.077 -0.109 -21.160 -0.071 -21.012 -0.100 -20.939 -0.071 9.615 0.248 4.277 0.188 44.047 42.567
44.800 -19.117 -0.381 -19.313 -0.347 -19.785 -0.265 -20.542 -0.147 -21.055 -0.109 -21.066 -0.109 -21.151 -0.071 -21.006 -0.100 -20.934 -0.072 9.587 0.247 4.280 0.189 44.042 42.559
45.200 -19.101 -0.382 -19.297 -0.348 -19.769 -0.265 -20.529 -0.147 -21.044 -0.109 -21.054 -0.109 -21.141 -0.071 -21.000 -0.101 -20.930 -0.073 9.560 0.246 4.282 0.190 44.038 42.551
45.600 -19.085 -0.384 -19.281 -0.350 -19.753 -0.266 -20.515 -0.147 -21.033 -0.109 -21.043 -0.109 -21.131 -0.072 -20.994 -0.101 -20.925 -0.075 9.533 0.245 4.285 0.191 44.034 42.543
46.000 -19.069 -0.386 -19.265 -0.351 -19.737 -0.267 -20.502 -0.147 -21.022 -0.109 -21.032 -0.109 -21.121 -0.072 -20.988 -0.101 -20.920 -0.076 9.506 0.244 4.288 0.191 44.029 42.536
46.400 -19.053 -0.387 -19.249 -0.352 -19.722 -0.267 -20.489 -0.147 -21.011 -0.109 -21.021 -0.109 -21.111 -0.072 -20.982 -0.101 -20.915 -0.077 9.480 0.243 4.290 0.192 44.025 42.528
46.800 -19.037 -0.389 -19.232 -0.354 -19.706 -0.268 -20.475 -0.147 -21.000 -0.109 -21.010 -0.109 -21.101 -0.072 -20.976 -0.101 -20.910 -0.078 9.454 0.242 4.292 0.193 44.021 42.521
47.200 -19.021 -0.390 -19.216 -0.355 -19.690 -0.269 -20.462 -0.147 -20.988 -0.109 -20.999 -0.109 -21.091 -0.072 -20.970 -0.101 -20.905 -0.079 9.428 0.241 4.294 0.193 44.016 42.514
47.600 -19.004 -0.391 -19.200 -0.356 -19.674 -0.269 -20.448 -0.147 -20.977 -0.109 -20.988 -0.109 -21.081 -0.072 -20.964 -0.101 -20.900 -0.081 9.403 0.240 4.296 0.194 44.012 42.507
48.000 -18.988 -0.393 -19.183 -0.357 -19.658 -0.270 -20.435 -0.147 -20.966 -0.109 -20.977 -0.109 -21.071 -0.072 -20.958 -0.101 -20.895 -0.082 9.378 0.240 4.298 0.195 44.008 42.500
48.400 -18.972 -0.394 -19.167 -0.359 -19.642 -0.271 -20.422 -0.146 -20.956 -0.109 -20.966 -0.109 -21.061 -0.072 -20.952 -0.101 -20.890 -0.082 9.353 0.239 4.300 0.196 44.003 42.494
48.800 -18.955 -0.396 -19.151 -0.360 -19.626 -0.271 -20.408 -0.146 -20.945 -0.109 -20.955 -0.108 -21.051 -0.072 -20.946 -0.100 -20.885 -0.083 9.328 0.239 4.301 0.197 43.999 42.487
49.200 -18.939 -0.397 -19.134 -0.361 -19.610 -0.272 -20.395 -0.146 -20.934 -0.108 -20.945 -0.108 -21.041 -0.072 -20.940 -0.100 -20.880 -0.084 9.303 0.238 4.303 0.197 43.995 42.481
49.600 -18.923 -0.398 -19.118 -0.362 -19.594 -0.272 -20.381 -0.146 -20.923 -0.108 -20.934 -0.108 -21.032 -0.072 -20.934 -0.100 -20.875 -0.085 9.279 0.238 4.304 0.198 43.991 42.475
50.000 -18.906 -0.400 -19.102 -0.363 -19.578 -0.273 -20.368 -0.145 -20.912 -0.108 -20.923 -0.108 -21.022 -0.071 -20.927 -0.100 -20.870 -0.086 9.255 0.237 4.306 0.199 43.986 42.468
50.400 -18.890 -0.401 -19.085 -0.365 -19.562 -0.273 -20.355 -0.145 -20.902 -0.107 -20.913 -0.107 -21.012 -0.071 -20.921 -0.099 -20.865 -0.086 9.231 0.237 4.307 0.200 43.982 42.462
50.800 -18.874 -0.402 -19.069 -0.366 -19.546 -0.274 -20.341 -0.144 -20.891 -0.107 -20.902 -0.107 -21.003 -0.070 -20.915 -0.099 -20.860 -0.087 9.208 0.237 4.309 0.201 43.978 42.457
51.200 -18.857 -0.404 -19.052 -0.367 -19.530 -0.274 -20.328 -0.144 -20.881 -0.107 -20.892 -0.106 -20.993 -0.070 -20.909 -0.098 -20.854 -0.087 9.185 0.237 4.310 0.202 43.974 42.451
51.600 -18.841 -0.405 -19.036 -0.368 -19.514 -0.275 -20.315 -0.143 -20.870 -0.106 -20.881 -0.106 -20.983 -0.069 -20.903 -0.098 -20.849 -0.088 9.161 0.237 4.311 0.203 43.970 42.445
52.000 -18.824 -0.406 -19.019 -0.369 -19.498 -0.275 -20.302 -0.143 -20.860 -0.105 -20.871 -0.105 -20.974 -0.069 -20.897 -0.097 -20.844 -0.088 9.139 0.237 4.313 0.204 43.966 42.439
52.400 -18.808 -0.408 -19.003 -0.370 -19.482 -0.276 -20.288 -0.142 -20.849 -0.105 -20.861 -0.105 -20.965 -0.068 -20.891 -0.096 -20.839 -0.089 9.116 0.237 4.314 0.205 43.962 42.434
52.800 -18.791 -0.409 -18.986 -0.371 -19.466 -0.276 -20.275 -0.142 -20.839 -0.104 -20.851 -0.104 -20.955 -0.067 -20.885 -0.096 -20.834 -0.089 9.093 0.237 4.315 0.206 43.958 42.428
53.200 -18.775 -0.410 -18.970 -0.372 -19.450 -0.276 -20.262 -0.141 -20.829 -0.104 -20.841 -0.103 -20.946 -0.066 -20.878 -0.095 -20.828 -0.089 9.071 0.237 4.316 0.207 43.954 42.423
53.600 -18.758 -0.411 -18.954 -0.373 -19.434 -0.277 -20.249 -0.140 -20.819 -0.103 -20.831 -0.103 -20.937 -0.066 -20.872 -0.094 -20.823 -0.089 9.049 0.237 4.317 0.208 43.950 42.418
54.000 -18.742 -0.412 -18.937 -0.374 -19.418 -0.277 -20.236 -0.140 -20.809 -0.102 -20.821 -0.102 -20.928 -0.065 -20.866 -0.093 -20.818 -0.089 9.027 0.237 4.319 0.209 43.946 42.412
54.400 -18.725 -0.414 -18.921 -0.375 -19.402 -0.277 -20.223 -0.139 -20.799 -0.101 -20.811 -0.101 -20.919 -0.064 -20.860 -0.093 -20.813 -0.089 9.006 0.238 4.320 0.210 43.942 42.407
54.800 -18.709 -0.415 -18.904 -0.376 -19.386 -0.278 -20.210 -0.138 -20.789 -0.100 -20.801 -0.100 -20.910 -0.063 -20.854 -0.092 -20.807 -0.089 8.984 0.238 4.321 0.211 43.938 42.402
55.200 -18.692 -0.416 -18.888 -0.377 -19.370 -0.278 -20.197 -0.137 -20.780 -0.100 -20.792 -0.099 -20.901 -0.061 -20.848 -0.091 -20.802 -0.089 8.963 0.238 4.322 0.212 43.934 42.397
55.600 -18.676 -0.417 -18.871 -0.378 -19.355 -0.278 -20.184 -0.136 -20.770 -0.099 -20.782 -0.098 -20.892 -0.060 -20.842 -0.090 -20.797 -0.089 8.942 0.239 4.323 0.213 43.930 42.391
56.000 -18.659 -0.418 -18.855 -0.379 -19.339 -0.279 -20.171 -0.136 -20.761 -0.098 -20.773 -0.098 -20.884 -0.059 -20.835 -0.089 -20.792 -0.089 8.922 0.239 4.324 0.214 43.926 42.386
56.400 -18.643 -0.419 -18.838 -0.380 -19.323 -0.279 -20.158 -0.135 -20.751 -0.097 -20.763 -0.097 -20.875 -0.058 -20.829 -0.088 -20.786 -0.089 8.901 0.240 4.325 0.215 43.923 42.381
56.800 -18.626 -0.420 -18.822 -0.381 -19.307 -0.279 -20.145 -0.134 -20.742 -0.096 -20.754 -0.096 -20.867 -0.057 -20.823 -0.086 -20.781 -0.088 8.881 0.240 4.326 0.216 43.919 42.376
57.200 -18.610 -0.421 -18.805 -0.382 -19.291 -0.280 -20.132 -0.133 -20.733 -0.095 -20.745 -0.095 -20.858 -0.055 -20.817 -0.085 -20.776 -0.088 8.861 0.241 4.328 0.218 43.915 42.371
57.600 -18.593 -0.422 -18.789 -0.383 -19.275 -0.280 -20.120 -0.132 -20.724 -0.094 -20.736 -0.093 -20.850 -0.054 -20.811 -0.084 -20.771 -0.088 8.841 0.241 4.329 0.219 43.912 42.366
58.000 -18.577 -0.423 -18.772 -0.384 -19.259 -0.280 -20.107 -0.131 -20.715 -0.093 -20.727 -0.092 -20.842 -0.052 -20.805 -0.083 -20.765 -0.087 8.822 0.242 4.330 0.220 43.908 42.360
58.400 -18.560 -0.425 -18.756 -0.385 -19.244 -0.280 -20.094 -0.130 -20.706 -0.091 -20.718 -0.091 -20.834 -0.051 -20.798 -0.082 -20.760 -0.087 8.803 0.243 4.331 0.221 43.904 42.355
58.800 -18.544 -0.426 -18.739 -0.385 -19.228 -0.281 -20.081 -0.129 -20.697 -0.090 -20.710 -0.090 -20.826 -0.049 -20.792 -0.080 -20.755 -0.086 8.784 0.244 4.332 0.222 43.901 42.350
59.200 -18.527 -0.427 -18.723 -0.386 -19.212 -0.281 -20.069 -0.128 -20.688 -0.089 -20.701 -0.089 -20.819 -0.048 -20.786 -0.079 -20.750 -0.085 8.766 0.245 4.333 0.224 43.897 42.344
59.600 -18.511 -0.428 -18.707 -0.387 -19.197 -0.281 -20.056 -0.126 -20.680 -0.088 -20.693 -0.088 -20.811 -0.046 -20.780 -0.078 -20.744 -0.085 8.748 0.246 4.334 0.225 43.894 42.339
60.000 -18.494 -0.429 -18.690 -0.388 -19.181 -0.281 -20.044 -0.125 -20.671 -0.087 -20.684 -0.086 -20.804 -0.045 -20.774 -0.076 -20.739 -0.084 8.730 0.247 4.335 0.226 43.891 42.333
60.400 -18.478 -0.430 -18.674 -0.389 -19.165 -0.281 -20.031 -0.124 -20.663 -0.085 -20.676 -0.085 -20.797 -0.043 -20.768 -0.075 -20.734 -0.083 8.712 0.248 4.335 0.228 43.887 42.328
60.800 -18.461 -0.430 -18.657 -0.389 -19.150 -0.282 -20.019 -0.123 -20.655 -0.084 -20.668 -0.084 -20.790 -0.041 -20.762 -0.074 -20.729 -0.082 8.695 0.249 4.336 0.229 43.884 42.322
61.200 -18.445 -0.431 -18.641 -0.390 -19.134 -0.282 -20.007 -0.122 -20.647 -0.083 -20.660 -0.083 -20.783 -0.040 -20.755 -0.072 -20.723 -0.082 8.678 0.250 4.337 0.231 43.881 42.316
61.600 -18.428 -0.432 -18.625 -0.391 -19.118 -0.282 -19.995 -0.120 -20.639 -0.082 -20.652 -0.081 -20.776 -0.038 -20.749 -0.071 -20.718 -0.081 8.661 0.251 4.338 0.232 43.878 42.310
62.000 -18.412 -0.433 -18.608 -0.392 -19.103 -0.282 -19.982 -0.119 -20.631 -0.080 -20.644 -0.080 -20.769 -0.036 -20.743 -0.069 -20.713 -0.080 8.645 0.253 4.339 0.234 43.875 42.304
62.400 -18.395 -0.434 -18.592 -0.393 -19.087 -0.282 -19.970 -0.118 -20.623 -0.079 -20.637 -0.079 -20.763 -0.034 -20.737 -0.068 -20.708 -0.079 8.629 0.254 4.340 0.235 43.872 42.298
62.800 -18.379 -0.435 -18.576 -0.393 -19.072 -0.283 -19.958 -0.117 -20.616 -0.078 -20.629 -0.077 -20.757 -0.033 -20.731 -0.066 -20.703 -0.078 8.614 0.256 4.341 0.237 43.869 42.291
63.200 -18.362 -0.436 -18.560 -0.394 -19.057 -0.283 -19.946 -0.115 -20.608 -0.076 -20.622 -0.076 -20.750 -0.031 -20.725 -0.065 -20.697 -0.077 8.599 0.258 4.342 0.239 43.866 42.285
63.600 -18.346 -0.437 -18.543 -0.395 -19.041 -0.283 -19.934 -0.114 -20.601 -0.075 -20.615 -0.075 -20.745 -0.029 -20.719 -0.064 -20.692 -0.075 8.584 0.260 4.343 0.241 43.863 42.278
64.000 -18.330 -0.438 -18.527 -0.396 -19.026 -0.283 -19.922 -0.113 -20.594 -0.073 -20.608 -0.073 -20.739 -0.028 -20.712 -0.062 -20.687 -0.074 8.569 0.262 4.345 0.243 43.861 42.271
64.400 -18.313 -0.439 -18.511 -0.396 -19.010 -0.283 -19.910 -0.111 -20.587 -0.072 -20.601 -0.072 -20.733 -0.026 -20.706 -0.061 -20.682 -0.073 8.555 0.264 4.346 0.245 43.858 42.265
64.800 -18.297 -0.439 -18.495 -0.397 -18.995 -0.284 -19.899 -0.110 -20.580 -0.071 -20.594 -0.070 -20.728 -0.025 -20.700 -0.060 -20.677 -0.072 8.542 0.266 4.347 0.247 43.855 42.259
65.200 -18.281 -0.440 -18.479 -0.398 -18.980 -0.284 -19.887 -0.109 -20.573 -0.069 -20.587 -0.069 -20.723 -0.023 -20.694 -0.058 -20.672 -0.070 8.528 0.269 4.349 0.250 43.853 42.253
65.600 -18.264 -0.441 -18.462 -0.398 -18.965 -0.284 -19.875 -0.107 -20.567 -0.068 -20.581 -0.068 -20.718 -0.022 -20.688 -0.057 -20.667 -0.069 8.515 0.271 4.350 0.253 43.851 42.247
66.000 -18.248 -0.442 -18.446 -0.399 -18.950 -0.284 -19.864 -0.106 -20.560 -0.067 -20.574 -0.066 -20.713 -0.021 -20.682 -0.056 -20.662 -0.068 8.502 0.274 4.352 0.256 43.848 42.243
66.400 -18.232 -0.443 -18.430 -0.400 -18.934 -0.284 -19.852 -0.105 -20.554 -0.065 -20.568 -0.065 -20.708 -0.020 -20.675 -0.055 -20.657 -0.066 8.490 0.277 4.354 0.259 43.846 42.241
66.800 -18.215 -0.444 -18.414 -0.400 -18.919 -0.284 -19.841 -0.103 -20.547 -0.064 -20.562 -0.064 -20.704 -0.020 -20.669 -0.054 -20.652 -0.065 8.477 0.280 4.355 0.262 43.844 42.240
67.200 -18.199 -0.444 -18.398 -0.401 -18.904 -0.285 -19.829 -0.102 -20.541 -0.063 -20.556 -0.063 -20.700 -0.019 -20.663 -0.053 -20.647 -0.064 8.465 0.283 4.357 0.266 43.842 42.242
67.600 -18.183 -0.445 -18.382 -0.402 -18.889 -0.285 -19.818 -0.101 -20.535 -0.062 -20.550 -0.061 -20.696 -0.019 -20.657 -0.053 -20.642 -0.062 8.453 0.287 4.358 0.270 43.839 42.246
68.000 -18.167 -0.446 -18.366 -0.402 -18.874 -0.285 -19.807 -0.099 -20.530 -0.060 -20.545 -0.060 -20.692 -0.019 -20.651 -0.052 -20.637 -0.061 8.442 0.290 4.359 0.274 43.837 42.252
68.400 -18.151 -0.447 -18.350 -0.403 -18.860 -0.285 -19.795 -0.098 -20.524 -0.059 -20.539 -0.059 -20.689 -0.019 -20.645 -0.052 -20.632 -0.059 8.430 0.293 4.360 0.278 43.835 42.260
68.800 -18.134 -0.447 -18.334 -0.404 -18.845 -0.285 -19.784 -0.097 -20.518 -0.058 -20.534 -0.058 -20.685 -0.020 -20.638 -0.051 -20.627 -0.058 8.419 0.297 4.361 0.282 43.833 42.269
69.200 -18.118 -0.448 -18.318 -0.404 -18.830 -0.286 -19.773 -0.095 -20.513 -0.057 -20.528 -0.057 -20.682 -0.020 -20.632 -0.051 -20.622 -0.056 8.407 0.300 4.362 0.287 43.831 42.279
69.600 -18.102 -0.449 -18.303 -0.405 -18.815 -0.286 -19.762 -0.094 -20.508 -0.056 -20.523 -0.056 -20.679 -0.021 -20.626 -0.051 -20.617 -0.055 8.396 0.303 4.362 0.291 43.829 42.290
70.000 -18.086 -0.450 -18.287 -0.406 -18.801 -0.286 -19.751 -0.093 -20.503 -0.055 -20.518 -0.055 -20.676 -0.021 -20.620 -0.051 -20.613 -0.054 8.385 0.306 4.363 0.295 43.826 42.300
70.400 -18.070 -0.450 -18.271 -0.406 -18.786 -0.286 -19.740 -0.092 -20.498 -0.054 -20.513 -0.054 -20.673 -0.022 -20.613 -0.052 -20.608 -0.052 8.373 0.309 4.364 0.300 43.824 42.311
70.800 -18.054 -0.451 -18.255 -0.407 -18.771 -0.287 -19.729 -0.091 -20.493 -0.053 -20.508 -0.053 -20.671 -0.023 -20.607 -0.052 -20.603 -0.050 8.362 0.312 4.365 0.303 43.822 42.321
71.200 -18.038 -0.452 -18.239 -0.407 -18.757 -0.287 -19.719 -0.089 -20.488 -0.052 -20.504 -0.052 -20.668 -0.023 -20.601 -0.052 -20.598 -0.049 8.352 0.315 4.365 0.307 43.820 42.331
71.600 -18.022 -0.452 -18.224 -0.408 -18.742 -0.287 -19.708 -0.088 -20.483 -0.051 -20.499 -0.051 -20.666 -0.024 -20.595 -0.053 -20.594 -0.047 8.342 0.317 4.365 0.311 43.818 42.340
72.000 -18.006 -0.453 -18.208 -0.409 -18.728 -0.287 -19.697 -0.087 -20.479 -0.050 -20.495 -0.050 -20.663 -0.024 -20.588 -0.054 -20.589 -0.046 8.332 0.319 4.365 0.313 43.816 42.348
72.400 -17.990 -0.454 -18.193 -0.409 -18.713 -0.288 -19.687 -0.086 -20.474 -0.049 -20.490 -0.049 -20.661 -0.025 -20.582 -0.054 -20.584 -0.044 8.324 0.321 4.363 0.316 43.814 42.357
72.800 -17.974 -0.454 -18.177 -0.410 -18.699 -0.288 -19.676 -0.085 -20.469 -0.048 -20.486 -0.048 -20.658 -0.025 -20.576 -0.055 -20.579 -0.043 8.316 0.323 4.361 0.318 43.812 42.364
73.200 -17.958 -0.455 -18.161 -0.410 -18.685 -0.288 -19.666 -0.084 -20.465 -0.048 -20.481 -0.047 -20.656 -0.026 -20.569 -0.056 -20.575 -0.041 8.310 0.324 4.358 0.320 43.810 42.371
73.600 -17.943 -0.456 -18.146 -0.411 -18.671 -0.289 -19.656 -0.083 -20.460 -0.047 -20.477 -0.047 -20.654 -0.026 -20.563 -0.057 -20.570 -0.039 8.304 0.325 4.354 0.320 43.808 42.378
74.000 -17.927 -0.456 -18.130 -0.412 -18.656 -0.289 -19.646 -0.083 -20.456 -0.046 -20.473 -0.046 -20.652 -0.026 -20.557 -0.058 -20.565 -0.038 8.301 0.326 4.348 0.321 43.806 42.384
74.400 -17.911 -0.457 -18.115 -0.412 -18.642 -0.289 -19.635 -0.082 -20.452 -0.045 -20.468 -0.045 -20.650 -0.026 -20.550 -0.059 -20.560 -0.036 8.298 0.326 4.341 0.320 43.804 42.389
74.800 -17.895 -0.458 -18.100 -0.413 -18.628 -0.290 -19.625 -0.081 -20.447 -0.044 -20.464 -0.044 -20.647 -0.026 -20.544 -0.060 -20.556 -0.034 8.298 0.326 4.332 0.319 43.802 42.394
75.200 -17.880 -0.458 -18.084 -0.413 -18.614 -0.290 -19.615 -0.080 -20.443 -0.044 -20.460 -0.043 -20.645 -0.027 -20.538 -0.061 -20.551 -0.033 8.299 0.326 4.321 0.316 43.800 42.399
75.600 -17.864 -0.459 -18.069 -0.414 -18.600 -0.290 -19.605 -0.080 -20.439 -0.043 -20.456 -0.043 -20.643 -0.027 -20.531 -0.062 -20.546 -0.031 8.302 0.325 4.309 0.313 43.798 42.403
76.000 -17.848 -0.459 -18.054 -0.415 -18.586 -0.291 -19.595 -0.079 -20.434 -0.042 -20.451 -0.042 -20.640 -0.027 -20.525 -0.063 -20.541 -0.029 8.306 0.325 4.295 0.309 43.796 42.407
76.400 -17.833 -0.460 -18.038 -0.415 -18.572 -0.291 -19.585 -0.079 -20.430 -0.041 -20.447 -0.041 -20.638 -0.027 -20.518 -0.064 -20.536 -0.028 8.312 0.323 4.279 0.305 43.794 42.411
76.800 -17.817 -0.461 -18.023 -0.416 -18.559 -0.292 -19.576 -0.079 -20.425 -0.041 -20.443 -0.041 -20.636 -0.027 -20.512 -0.065 -20.531 -0.026 8.320 0.322 4.262 0.300 43.792 42.414
77.200 -17.802 -0.461 -18.008 -0.416 -18.545 -0.292 -19.566 -0.078 -20.421 -0.040 -20.438 -0.040 -20.633 -0.027 -20.505 -0.066 -20.527 -0.025 8.328 0.320 4.244 0.294 43.790 42.418
77.600 -17.786 -0.462 -17.993 -0.417 -18.531 -0.292 -19.556 -0.078 -20.416 -0.040 -20.434 -0.039 -20.630 -0.027 -20.499 -0.067 -20.522 -0.023 8.336 0.318 4.225 0.288 43.788 42.421
78.000 -17.771 -0.462 -17.978 -0.417 -18.518 -0.293 -19.547 -0.078 -20.412 -0.039 -20.429 -0.039 -20.628 -0.027 -20.492 -0.068 -20.517 -0.022 8.345 0.317 4.207 0.283 43.786 42.423
78.400 -17.755 -0.463 -17.963 -0.418 -18.504 -0.293 -19.537 -0.078 -20.407 -0.039 -20.425 -0.038 -20.625 -0.027 -20.486 -0.070 -20.511 -0.021 8.352 0.316 4.190 0.277 43.784 42.426
78.800 -17.740 -0.464 -17.948 -0.418 -18.491 -0.294 -19.528 -0.078 -20.402 -0.038 -20.420 -0.038 -20.622 -0.027 -20.479 -0.071 -20.506 -0.020 8.358 0.315 4.174 0.274 43.782 42.428
79.200 -17.724 -0.464 -17.933 -0.419 -18.477 -0.294 -19.519 -0.079 -20.397 -0.038 -20.415 -0.038 -20.619 -0.027 -20.473 -0.072 -20.501 -0.020 8.361 0.315 4.160 0.271 43.780 42.430
79.600 -17.709 -0.465 -17.918 -0.419 -18.464 -0.295 -19.509 -0.079 -20.392 -0.038 -20.410 -0.037 -20.616 -0.028 -20.466 -0.073 -20.496 -0.020 8.361 0.316 4.150 0.271 43.778 42.432
80.000 -17.694 -0.465 -17.903 -0.420 -18.450 -0.295 -19.500 -0.080 -20.387 -0.038 -20.405 -0.037 -20.612 -0.028 -20.460 -0.074 -20.491 -0.020 8.357 0.318 4.143 0.273 43.776 42.433
80.400 -17.678 -0.466 -17.888 -0.420 -18.437 -0.296 -19.491 -0.080 -20.382 -0.038 -20.400 -0.037 -20.609 -0.029 -20.453 -0.075 -20.485 -0.020 8.350 0.321 4.140 0.277 43.774 42.434
80.800 -17.663 -0.466 -17.873 -0.421 -18.424 -0.296 -19.482 -0.081 -20.377 -0.038 -20.395 -0.038 -20.605 -0.030 -20.446 -0.076 -20.480 -0.021 8.339 0.325 4.139 0.284 43.771 42.435
81.200 -17.648 -0.467 -17.859 -0.422 -18.411 -0.297 -19.473 -0.082 -20.371 -0.038 -20.389 -0.038 -20.601 -0.031 -20.440 -0.077 -20.474 -0.022 8.325 0.330 4.142 0.292 43.769 42.437
81.600 -17.633 -0.467 -17.844 -0.422 -18.398 -0.298 -19.464 -0.083 -20.366 -0.039 -20.384 -0.038 -20.597 -0.032 -20.433 -0.078 -20.469 -0.023 8.309 0.335 4.146 0.300 43.766 42.438
82.000 -17.618 -0.468 -17.829 -0.423 -18.385 -0.298 -19.455 -0.084 -20.360 -0.039 -20.378 -0.039 -20.593 -0.033 -20.426 -0.079 -20.463 -0.025 8.290 0.340 4.153 0.310 43.764 42.439
82.400 -17.603 -0.468 -17.815 -0.423 -18.372 -0.299 -19.446 -0.085 -20.354 -0.040 -20.372 -0.040 -20.588 -0.034 -20.420 -0.080 -20.458 -0.026 8.270 0.346 4.160 0.319 43.761 42.441
82.800 -17.588 -0.469 -17.800 -0.424 -18.359 -0.299 -19.438 -0.086 -20.348 -0.041 -20.366 -0.040 -20.584 -0.035 -20.413 -0.080 -20.452 -0.028 8.250 0.350 4.167 0.329 43.758 42.443
83.200 -17.573 -0.469 -17.785 -0.424 -18.346 -0.300 -19.429 -0.088 -20.341 -0.042 -20.360 -0.041 -20.579 -0.036 -20.406 -0.081 -20.446 -0.030 8.229 0.355 4.175 0.338 43.755 42.444
83.600 -17.558 -0.470 -17.771 -0.425 -18.333 -0.301 -19.420 -0.089 -20.335 -0.043 -20.354 -0.042 -20.574 -0.038 -20.399 -0.082 -20.441 -0.032 8.208 0.359 4.182 0.347 43.752 42.446
84.000 -17.543 -0.470 -17.756 -0.425 -18.320 -0.301 -19.412 -0.090 -20.329 -0.044 -20.347 -0.043 -20.569 -0.039 -20.393 -0.083 -20.435 -0.033 8.187 0.362 4.188 0.354 43.749 42.448
84.400 -17.528 -0.471 -17.742 -0.426 -18.307 -0.302 -19.403 -0.092 -20.322 -0.045 -20.341 -0.044 -20.564 -0.041 -20.386 -0.084 -20.429 -0.035 8.167 0.366 4.194 0.362 43.746 42.449
84.800 -17.513 -0.471 -17.728 -0.426 -18.295 -0.303 -19.395 -0.093 -20.315 -0.046 -20.334 -0.046 -20.559 -0.042 -20.379 -0.085 -20.423 -0.037 8.148 0.368 4.199 0.368 43.743 42.450
85.200 -17.498 -0.471 -17.713 -0.427 -18.282 -0.303 -19.387 -0.095 -20.308 -0.047 -20.327 -0.047 -20.554 -0.043 -20.372 -0.085 -20.417 -0.039 8.130 0.370 4.203 0.374 43.740 42.451
85.600 -17.483 -0.472 -17.699 -0.427 -18.270 -0.304 -19.378 -0.097 -20.301 -0.048 -20.320 -0.048 -20.548 -0.045 -20.365 -0.086 -20.411 -0.040 8.112 0.372 4.205 0.379 43.737 42.452
86.000 -17.469 -0.472 -17.685 -0.428 -18.257 -0.305 -19.370 -0.098 -20.294 -0.050 -20.313 -0.049 -20.542 -0.046 -20.358 -0.087 -20.405 -0.042 8.095 0.373 4.207 0.383 43.734 42.453
86.400 -17.454 -0.473 -17.671 -0.428 -18.245 -0.305 -19.362 -0.100 -20.287 -0.051 -20.306 -0.051 -20.536 -0.048 -20.351 -0.087 -20.399 -0.044 8.080 0.374 4.207 0.387 43.730 42.453
86.800 -17.439 -0.473 -17.656 -0.428 -18.232 -0.306 -19.353 -0.102 -20.280 -0.052 -20.298 -0.052 -20.531 -0.049 -20.344 -0.088 -20.392 -0.045 8.065 0.375 4.207 0.390 43.727 42.453
87.200 -17.424 -0.474 -17.642 -0.429 -18.220 -0.307 -19.345 -0.103 -20.272 -0.054 -20.291 -0.053 -20.524 -0.050 -20.337 -0.088 -20.386 -0.047 8.051 0.375 4.205 0.392 43.724 42.453
87.600 -17.410 -0.474 -17.628 -0.429 -18.208 -0.307 -19.337 -0.105 -20.265 -0.055 -20.284 -0.055 -20.518 -0.052 -20.330 -0.089 -20.380 -0.049 8.038 0.375 4.202 0.394 43.720 42.452
88.000 -17.395 -0.474 -17.614 -0.430 -18.195 -0.308 -19.329 -0.107 -20.257 -0.056 -20.276 -0.056 -20.512 -0.053 -20.322 -0.090 -20.374 -0.050 8.026 0.375 4.199 0.395 43.717 42.452
88.400 -17.381 -0.475 -17.600 -0.430 -18.183 -0.309 -19.321 -0.109 -20.249 -0.058 -20.268 -0.057 -20.505 -0.055 -20.315 -0.090 -20.367 -0.052 8.015 0.375 4.194 0.396 43.714 42.451
88.800 -17.366 -0.475 -17.586 -0.431 -18.171 -0.310 -19.312 -0.111 -20.242 -0.059 -20.261 -0.059 -20.499 -0.056 -20.308 -0.090 -20.361 -0.053 8.004 0.374 4.188 0.397 43.710 42.449
89.200 -17.352 -0.475 -17.572 -0.431 -18.159 -0.311 -19.304 -0.113 -20.234 -0.060 -20.253 -0.060 -20.492 -0.057 -20.301 -0.091 -20.354 -0.054 7.995 0.374 4.182 0.397 43.707 42.448
89.600 -17.337 -0.476 -17.558 -0.432 -18.147 -0.311 -19.296 -0.114 -20.226 -0.062 -20.245 -0.061 -20.485 -0.058 -20.293 -0.091 -20.348 -0.056 7.986 0.373 4.175 0.397 43.703 42.446
90.000 -17.323 -0.476 -17.545 -0.432 -18.135 -0.312 -19.288 -0.116 -20.218 -0.063 -20.237 -0.063 -20.478 -0.060 -20.286 -0.091 -20.341 -0.057 7.977 0.372 4.167 0.396 43.700 42.444
90.400 -17.309 -0.476 -17.531 -0.432 -18.123 -0.313 -19.280 -0.118 -20.210 -0.064 -20.229 -0.064 -20.471 -0.061 -20.278 -0.092 -20.334 -0.058 7.969 0.371 4.159 0.395 43.696 42.442
90.800 -17.294 -0.477 -17.517 -0.433 -18.111 -0.314 -19.272 -0.120 -20.201 -0.065 -20.220 -0.065 -20.464 -0.062 -20.271 -0.092 -20.328 -0.059 7.962 0.370 4.150 0.394 43.693 42.439
91.200 -17.280 -0.477 -17.503 -0.433 -18.100 -0.314 -19.264 -0.122 -20.193 -0.066 -20.212 -0.066 -20.457 -0.063 -20.263 -0.092 -20.321 -0.060 7.956 0.369 4.140 0.393 43.690 42.437
91.600 -17.266 -0.477 -17.490 -0.434 -18.088 -0.315 -19.256 -0.124 -20.185 -0.068 -20.204 -0.067 -20.450 -0.064 -20.255 -0.092 -20.314 -0.061 7.949 0.368 4.130 0.391 43.686 42.434
92.000 -17.252 -0.478 -17.476 -0.434 -18.076 -0.316 -19.249 -0.126 -20.177 -0.069 -20.196 -0.068 -20.442 -0.066 -20.248 -0.092 -20.308 -0.062 7.944 0.366 4.119 0.389 43.683 42.431
92.400 -17.237 -0.478 -17.462 -0.434 -18.064 -0.317 -19.241 -0.127 -20.168 -0.070 -20.187 -0.069 -20.435 -0.067 -20.240 -0.093 -20.301 -0.063 7.939 0.365 4.108 0.388 43.679 42.428
92.800 -17.223 -0.478 -17.449 -0.435 -18.053 -0.318 -19.233 -0.129 -20.160 -0.071 -20.179 -0.071 -20.427 -0.068 -20.232 -0.093 -20.294 -0.064 7.934 0.364 4.096 0.385 43.676 42.425
93.200 -17.209 -0.479 -17.435 -0.435 -18.041 -0.318 -19.225 -0.131 -20.151 -0.072 -20.170 -0.071 -20.419 -0.069 -20.224 -0.093 -20.287 -0.065 7.929 0.362 4.084 0.383 43.672 42.421
93.600 -17.195 -0.479 -17.422 -0.436 -18.030 -0.319 -19.217 -0.133 -20.143 -0.073 -20.162 -0.072 -20.412 -0.070 -20.216 -0.093 -20.280 -0.066 7.926 0.361 4.072 0.381 43.668 42.418
94.000 -17.181 -0.479 -17.408 -0.436 -18.018 -0.320 -19.209 -0.135 -20.134 -0.074 -20.153 -0.073 -20.404 -0.071 -20.208 -0.093 -20.273 -0.066 7.922 0.360 4.059 0.379 43.665 42.414
94.400 -17.167 -0.479 -17.395 -0.436 -18.007 -0.321 -19.202 -0.136 -20.125 -0.074 -20.145 -0.074 -20.396 -0.072 -20.200 -0.093 -20.266 -0.067 7.919 0.358 4.045 0.376 43.661 42.410
94.800 -17.153 -0.479 -17.382 -0.437 -17.995 -0.322 -19.194 -0.138 -20.117 -0.075 -20.136 -0.075 -20.388 -0.072 -20.192 -0.092 -20.259 -0.068 7.916 0.357 4.032 0.374 43.658 42.407
95.200 -17.139 -0.480 -17.368 -0.437 -17.984 -0.323 -19.186 -0.140 -20.108 -0.076 -20.127 -0.076 -20.380 -0.073 -20.184 -0.092 -20.252 -0.068 7.913 0.356 4.018 0.371 43.654 42.403
95.600 -17.125 -0.480 -17.355 -0.437 -17.973 -0.323 -19.178 -0.142 -20.099 -0.077 -20.119 -0.077 -20.372 -0.074 -20.176 -0.092 -20.244 -0.069 7.911 0.354 4.004 0.369 43.651 42.399
96.000 -17.111 -0.480 -17.342 -0.438 -17.961 -0.324 -19.171 -0.143 -20.091 -0.078 -20.110 -0.077 -20.363 -0.075 -20.167 -0.092 -20.237 -0.069 7.909 0.353 3.989 0.366 43.647 42.395
96.400 -17.098 -0.480 -17.329 -0.438 -17.950 -0.325 -19.163 -0.145 -20.082 -0.078 -20.101 -0.078 -20.355 -0.076 -20.159 -0.092 -20.230 -0.070 7.907 0.352 3.975 0.363 43.644 42.391
96.800 -17.084 -0.480 -17.315 -0.438 -17.939 -0.326 -19.155 -0.147 -20.073 -0.079 -20.092 -0.079 -20.347 -0.077 -20.150 -0.092 -20.223 -0.070 7.906 0.351 3.960 0.361 43.640 42.387
97.200 -17.070 -0.481 -17.302 -0.439 -17.928 -0.327 -19.147 -0.148 -20.065 -0.079 -20.084 -0.079 -20.338 -0.078 -20.142 -0.091 -20.215 -0.070 7.905 0.349 3.945 0.358 43.636 42.383
97.600 -17.056 -0.481 -17.289 -0.439 -17.917 -0.327 -19.140 -0.150 -20.056 -0.080 -20.075 -0.080 -20.330 -0.078 -20.133 -0.091 -20.208 -0.071 7.904 0.348 3.929 0.355 43.633 42.379
98.000 -17.043 -0.481 -17.276 -0.439 -17.906 -0.328 -19.132 -0.151 -20.047 -0.081 -20.066 -0.080 -20.321 -0.079 -20.125 -0.091 -20.201 -0.071 7.903 0.347 3.914 0.353 43.629 42.375
98.400 -17.029 -0.481 -17.263 -0.439 -17.895 -0.329 -19.125 -0.153 -20.038 -0.081 -20.057 -0.081 -20.313 -0.080 -20.116 -0.090 -20.193 -0.071 7.902 0.346 3.898 0.350 43.626 42.371
98.800 -17.015 -0.481 -17.250 -0.440 -17.884 -0.330 -19.117 -0.155 -20.030 -0.081 -20.049 -0.081 -20.304 -0.081 -20.107 -0.090 -20.186 -0.072 7.902 0.345 3.882 0.348 43.622 42.367
99.200 -17.002 -0.481 -17.237 -0.440 -17.873 -0.330 -19.109 -0.156 -20.021 -0.082 -20.040 -0.082 -20.295 -0.082 -20.098 -0.090 -20.178 -0.072 7.902 0.345 3.866 0.345 43.618 42.363
99.600 -16.988 -0.481 -17.224 -0.440 -17.862 -0.331 -19.102 -0.158 -20.012 -0.082 -20.031 -0.082 -20.287 -0.082 -20.089 -0.089 -20.171 -0.072 7.902 0.344 3.850 0.343 43.615 42.359
100.000 -16.975 -0.481 -17.211 -0.440 -17.851 -0.332 -19.094 -0.159 -20.003 -0.083 -20.022 -0.082 -20.278 -0.083 -20.080 -0.089 -20.163 -0.072 7.902 0.343 3.834 0.341 43.611 42.356
100.400 -16.961 -0.481 -17.198 -0.440 -17.840 -0.333 -19.087 -0.161 -19.995 -0.083 -20.014 -0.083 -20.269 -0.084 -20.071 -0.089 -20.156 -0.072 7.903 0.343 3.817 0.338 43.607 42.352
100.800 -16.948 -0.481 -17.186 -0.441 -17.830 -0.333 -19.079 -0.162 -19.986 -0.083 -20.005 -0.083 -20.260 -0.085 -20.062 -0.088 -20.148 -0.072 7.903 0.342 3.801 0.336 43.604 42.348
101.200 -16.934 -0.481 -17.173 -0.441 -17.819 -0.334 -19.071 -0.163 -19.977 -0.083 -19.996 -0.083 -20.251 -0.086 -20.052 -0.088 -20.140 -0.073 7.904 0.342 3.784 0.334 43.600 42.345
101.600 -16.921 -0.481 -17.160 -0.441 -17.808 -0.335 -19.064 -0.165 -19.969 -0.084 -19.988 -0.083 -20.243 -0.087 -20.043 -0.087 -20.133 -0.073 7.905 0.342 3.767 0.333 43.597 42.341
102.000 -16.908 -0.481 -17.147 -0.441 -17.797 -0.336 -19.056 -0.166 -19.960 -0.084 -19.979 -0.083 -20.234 -0.088 -20.034 -0.087 -20.125 -0.073 7.906 0.342 3.751 0.331 43.593 42.338
102.400 -16.894 -0.481 -17.135 -0.441 -17.787 -0.336 -19.049 -0.168 -19.952 -0.084 -19.970 -0.084 -20.225 -0.089 -20.024 -0.087 -20.117 -0.073 7.907 0.342 3.734 0.329 43.589 42.335
102.800 -16.881 -0.481 -17.122 -0.441 -17.776 -0.337 -19.041 -0.169 -19.943 -0.084 -19.962 -0.084 -20.216 -0.090 -20.014 -0.086 -20.110 -0.074 7.909 0.342 3.717 0.328 43.586 42.332
103.200 -16.868 -0.481 -17.109 -0.441 -17.766 -0.338 -19.034 -0.170 -19.935 -0.084 -19.953 -0.084 -20.207 -0.091 -20.005 -0.086 -20.102 -0.074 7.910 0.342 3.700 0.327 43.582 42.329
103.600 -16.855 -0.481 -17.097 -0.441 -17.755 -0.338 -19.026 -0.171 -19.926 -0.084 -19.945 -0.084 -20.198 -0.092 -19.995 -0.085 -20.094 -0.074 7.912 0.343 3.682 0.326 43.578 42.326
104.000 -16.841 -0.481 -17.084 -0.441 -17.744 -0.339 -19.019 -0.173 -19.918 -0.084 -19.936 -0.084 -20.189 -0.093 -19.985 -0.085 -20.086 -0.075 7.914 0.344 3.665 0.325 43.575 42.324
104.400 -16.828 -0.481 -17.072 -0.442 -17.734 -0.340 -19.012 -0.174 -19.909 -0.084 -19.928 -0.084 -20.180 -0.094 -19.975 -0.085 -20.078 -0.075 7.916 0.345 3.648 0.324 43.571 42.321
104.800 -16.815 -0.481 -17.059 -0.442 -17.723 -0.340 -19.004 -0.175 -19.901 -0.084 -19.920 -0.084 -20.171 -0.095 -19.965 -0.084 -20.070 -0.076 7.918 0.346 3.630 0.324 43.567 42.319
105.200 -16.802 -0.480 -17.047 -0.442 -17.713 -0.341 -18.997 -0.176 -19.893 -0.084 -19.911 -0.084 -20.163 -0.096 -19.955 -0.084 -20.062 -0.076 7.921 0.347 3.613 0.323 43.564 42.317
105.600 -16.789 -0.480 -17.034 -0.442 -17.703 -0.341 -18.989 -0.177 -19.884 -0.084 -19.903 -0.083 -20.154 -0.097 -19.945 -0.083 -20.055 -0.077 7.924 0.349 3.595 0.323 43.560 42.315
106.000 -16.776 -0.480 -17.022 -0.442 -17.692 -0.342 -18.982 -0.178 -19.876 -0.084 -19.895 -0.083 -20.145 -0.098 -19.935 -0.083 -20.047 -0.078 7.927 0.350 3.577 0.323 43.556 42.314
106.400 -16.763 -0.480 -17.010 -0.442 -17.682 -0.342 -18.975 -0.179 -19.868 -0.084 -19.887 -0.083 -20.136 -0.100 -19.924 -0.083 -20.039 -0.078 7.930 0.352 3.558 0.324 43.552 42.312
106.800 -16.750 -0.480 -16.997 -0.441 -17.672 -0.343 -18.967 -0.181 -19.860 -0.083 -19.878 -0.083 -20.127 -0.101 -19.914 -0.082 -20.031 -0.079 7.934 0.354 3.540 0.324 43.549 42.311
107.200 -16.737 -0.479 -16.985 -0.441 -17.661 -0.344 -18.960 -0.182 -19.852 -0.083 -19.870 -0.083 -20.118 -0.102 -19.904 -0.082 -20.023 -0.080 7.938 0.357 3.521 0.325 43.545 42.310
107.600 -16.724 -0.479 -16.973 -0.441 -17.651 -0.344 -18.952 -0.183 -19.844 -0.083 -19.862 -0.082 -20.109 -0.104 -19.893 -0.081 -20.015 -0.081 7.943 0.360 3.502 0.326 43.541 42.309
108.000 -16.711 -0.479 -16.960 -0.441 -17.641 -0.345 -18.945 -0.184 -19.836 -0.082 -19.854 -0.082 -20.100 -0.105 -19.883 -0.081 -20.007 -0.083 7.948 0.362 3.483 0.327 43.538 42.309
108.400 -16.698 -0.479 -16.948 -0.441 -17.631 -0.345 -18.938 -0.185 -19.828 -0.082 -19.846 -0.081 -20.091 -0.106 -19.872 -0.080 -19.998 -0.084 7.954 0.366 3.463 0.328 43.534 42.308
108.800 -16.685 -0.478 -16.936 -0.441 -17.620 -0.345 -18.930 -0.185 -19.820 -0.081 -19.838 -0.081 -20.082 -0.107 -19.861 -0.079 -19.990 -0.085 7.960 0.369 3.443 0.329 43.530 42.307
109.200 -16.672 -0.478 -16.924 -0.441 -17.610 -0.346 -18.923 -0.186 -19.812 -0.081 -19.830 -0.080 -20.073 -0.109 -19.851 -0.079 -19.982 -0.087 7.967 0.372 3.422 0.330 43.527 42.307
109.600 -16.659 -0.478 -16.912 -0.441 -17.600 -0.346 -18.916 -0.187 -19.804 -0.080 -19.822 -0.080 -20.064 -0.110 -19.840 -0.078 -19.974 -0.088 7.975 0.376 3.401 0.332 43.523 42.307
110.000 -16.647 -0.477 -16.899 -0.440 -17.590 -0.347 -18.909 -0.188 -19.796 -0.080 -19.814 -0.079 -20.055 -0.112 -19.829 -0.077 -19.966 -0.090 7.983 0.380 3.380 0.333 43.519 42.306
110.400 -16.634 -0.477 -16.887 -0.440 -17.580 -0.347 -18.901 -0.189 -19.788 -0.079 -19.806 -0.079 -20.046 -0.113 -19.818 -0.077 -19.958 -0.091 7.992 0.384 3.358 0.334 43.515 42.306
110.800 -16.621 -0.476 -16.875 -0.440 -17.570 -0.347 -18.894 -0.190 -19.780 -0.078 -19.798 -0.078 -20.037 -0.114 -19.807 -0.076 -19.950 -0.093 8.001 0.389 3.335 0.336 43.512 42.306
111.200 -16.608 -0.476 -16.863 -0.440 -17.560 -0.348 -18.887 -0.191 -19.772 -0.078 -19.790 -0.077 -20.028 -0.116 -19.797 -0.075 -19.941 -0.095 8.012 0.393 3.312 0.337 43.508 42.306
111.600 -16.596 -0.476 -16.851 -0.439 -17.550 -0.348 -18.880 -0.191 -19.765 -0.077 -19.783 -0.076 -20.019 -0.117 -19.786 -0.074 -19.933 -0.096 8.023 0.398 3.289 0.339 43.504 42.305
112.000 -16.583 -0.475 -16.839 -0.439 -17.540 -0.348 -18.872 -0.192 -19.757 -0.076 -19.775 -0.075 -20.010 -0.118 -19.775 -0.073 -19.925 -0.098 8.035 0.403 3.265 0.340 43.501 42.305
112.400 -16.570 -0.475 -16.827 -0.439 -17.530 -0.349 -18.865 -0.193 -19.749 -0.075 -19.767 -0.074 -20.001 -0.120 -19.764 -0.072 -19.917 -0.100 8.048 0.408 3.240 0.342 43.497 42.305
112.800 -16.558 -0.474 -16.815 -0.438 -17.520 -0.349 -18.858 -0.193 -19.741 -0.074 -19.759 -0.073 -19.993 -0.121 -19.753 -0.071 -19.908 -0.102 8.063 0.414 3.215 0.343 43.493 42.304
113.200 -16.545 -0.473 -16.803 -0.438 -17.510 -0.349 -18.851 -0.194 -19.734 -0.073 -19.751 -0.072 -19.984 -0.122 -19.742 -0.070 -19.900 -0.104 8.078 0.419 3.189 0.344 43.489 42.304
113.600 -16.533 -0.473 -16.791 -0.438 -17.500 -0.349 -18.843 -0.195 -19.726 -0.072 -19.744 -0.071 -19.975 -0.124 -19.731 -0.069 -19.892 -0.106 8.094 0.425 3.163 0.345 43.486 42.303
114.000 -16.520 -0.472 -16.779 -0.437 -17.490 -0.350 -18.836 -0.195 -19.718 -0.070 -19.736 -0.070 -19.966 -0.125 -19.720 -0.068 -19.884 -0.108 8.111 0.431 3.136 0.346 43.482 42.303
114.400 -16.508 -0.472 -16.768 -0.437 -17.480 -0.350 -18.829 -0.196 -19.710 -0.069 -19.728 -0.069 -19.957 -0.127 -19.708 -0.066 -19.875 -0.110 8.130 0.437 3.109 0.347 43.478 42.302
114.800 -16.495 -0.471 -16.756 -0.436 -17.470 -0.350 -18.822 -0.197 -19.703 -0.068 -19.721 -0.067 -19.948 -0.128 -19.697 -0.065 -19.867 -0.112 8.150 0.444 3.081 0.347 43.475 42.301
115.200 -16.483 -0.470 -16.744 -0.436 -17.461 -0.350 -18.815 -0.197 -19.695 -0.067 -19.713 -0.066 -19.939 -0.129 -19.686 -0.064 -19.859 -0.114 8.173 0.450 3.050 0.347 43.471 42.300
115.600 -16.470 -0.470 -16.732 -0.435 -17.451 -0.350 -18.807 -0.198 -19.687 -0.065 -19.705 -0.065 -19.930 -0.131 -19.675 -0.062 -19.850 -0.116 8.196 0.457 3.021 0.348 43.467 42.299
116.000 -16.458 -0.469 -16.720 -0.435 -17.441 -0.350 -18.800 -0.198 -19.680 -0.064 -19.697 -0.063 -19.921 -0.132 -19.664 -0.061 -19.842 -0.118 8.220 0.464 2.990 0.348 43.464 42.297
116.400 -16.445 -0.468 -16.709 -0.434 -17.431 -0.350 -18.793 -0.199 -19.672 -0.062 -19.690 -0.062 -19.912 -0.133 -19.653 -0.059 -19.833 -0.120 8.247 0.471 2.959 0.347 43.460 42.296
116.800 -16.433 -0.468 -16.697 -0.434 -17.421 -0.350 -18.786 -0.199 -19.665 -0.060 -19.682 -0.060 -19.903 -0.134 -19.642 -0.058 -19.825 -0.122 8.275 0.479 2.927 0.347 43.457 42.294
117.200 -16.421 -0.467 -16.685 -0.433 -17.412 -0.350 -18.779 -0.200 -19.657 -0.059 -19.674 -0.058 -19.894 -0.136 -19.631 -0.056 -19.817 -0.124 8.306 0.486 2.894 0.346 43.453 42.292
117.600 -16.408 -0.466 -16.673 -0.433 -17.402 -0.350 -18.771 -0.200 -19.649 -0.057 -19.667 -0.056 -19.885 -0.137 -19.619 -0.054 -19.808 -0.126 8.339 0.494 2.860 0.345 43.450 42.290
118.000 -16.396 -0.465 -16.662 -0.432 -17.392 -0.350 -18.764 -0.201 -19.642 -0.055 -19.659 -0.055 -19.876 -0.138 -19.608 -0.053 -19.800 -0.128 8.374 0.502 2.825 0.343 43.447 42.287
118.400 -16.384 -0.464 -16.650 -0.431 -17.382 -0.350 -18.757 -0.201 -19.634 -0.053 -19.651 -0.053 -19.867 -0.140 -19.597 -0.051 -19.791 -0.130 8.412 0.510 2.790 0.341 43.443 42.285
118.800 -16.371 -0.464 -16.638 -0.431 -17.373 -0.350 -18.750 -0.202 -19.626 -0.052 -19.644 -0.051 -19.858 -0.141 -19.586 -0.049 -19.783 -0.132 8.453 0.519 2.753 0.339 43.440 42.282
119.200 -16.359 -0.463 -16.627 -0.430 -17.363 -0.350 -18.743 -0.202 -19.619 -0.050 -19.636 -0.049 -19.849 -0.142 -19.575 -0.047 -19.775 -0.134 8.497 0.527 2.714 0.336 43.437 42.279
119.600 -16.347 -0.462 -16.615 -0.429 -17.353 -0.350 -18.735 -0.202 -19.611 -0.048 -19.628 -0.047 -19.841 -0.143 -19.564 -0.045 -19.766 -0.136 8.545 0.536 2.675 0.333 43.434 42.275
120.000 -16.334 -0.461 -16.603 -0.428 -17.344 -0.350 -18.728 -0.203 -19.603 -0.046 -19.621 -0.045 -19.832 -0.144 -19.553 -0.043 -19.758 -0.138 8.597 0.545 2.634 0.329 43.431 42.272
120.400 -16.322 -0.460 -16.592 -0.428 -17.334 -0.349 -18.721 -0.203 -19.596 -0.043 -19.613 -0.043 -19.823 -0.146 -19.542 -0.041 -19.749 -0.140 8.654 0.554 2.592 0.324 43.429 42.268
120.800 -16.310 -0.459 -16.580 -0.427 -17.324 -0.349 -18.714 -0.204 -19.588 -0.041 -19.605 -0.041 -19.814 -0.147 -19.531 -0.038 -19.741 -0.142 8.716 0.563 2.548 0.319 43.426 42.265
121.200 -16.298 -0.458 -16.569 -0.426 -17.315 -0.349 -18.707 -0.204 -19.580 -0.039 -19.597 -0.038 -19.805 -0.148 -19.520 -0.036 -19.732 -0.144 8.783 0.572 2.502 0.313 43.424 42.261
121.600 -16.286 -0.457 -16.557 -0.425 -17.305 -0.349 -18.700 -0.204 -19.573 -0.037 -19.590 -0.036 -19.796 -0.149 -19.509 -0.034 -19.724 -0.146 8.858 0.581 2.454 0.306 43.422 42.257
122.000 -16.274 -0.456 -16.546 -0.424 -17.296 -0.348 -18.692 -0.204 -19.565 -0.035 -19.582 -0.034 -19.787 -0.150 -19.498 -0.031 -19.716 -0.148 8.940 0.590 2.404 0.299 43.420 42.254
122.400 -16.261 -0.455 -16.534 -0.423 -17.286 -0.348 -18.685 -0.205 -19.557 -0.032 -19.574 -0.031 -19.778 -0.151 -19.487 -0.029 -19.707 -0.150 9.031 0.599 2.352 0.290 43.419 42.251
122.800 -16.249 -0.453 -16.523 -0.422 -17.276 -0.348 -18.678 -0.205 -19.549 -0.030 -19.566 -0.029 -19.769 -0.152 -19.476 -0.027 -19.699 -0.152 9.131 0.607 2.297 0.280 43.417 42.248
123.200 -16.237 -0.452 -16.511 -0.421 -17.267 -0.347 -18.671 -0.205 -19.542 -0.028 -19.559 -0.027 -19.761 -0.153 -19.465 -0.024 -19.690 -0.154 9.242 0.614 2.240 0.269 43.416 42.246
123.600 -16.225 -0.451 -16.500 -0.420 -17.257 -0.347 -18.664 -0.206 -19.534 -0.026 -19.551 -0.024 -19.752 -0.154 -19.454 -0.022 -19.682 -0.156 9.365 0.620 2.180 0.257 43.416 42.245
124.000 -16.213 -0.450 -16.488 -0.419 -17.248 -0.347 -18.656 -0.206 -19.526 -0.024 -19.543 -0.022 -19.743 -0.155 -19.444 -0.019 -19.673 -0.158 9.500 0.624 2.119 0.242 43.416 42.246
124.400 -16.201 -0.449 -16.477 -0.418 -17.238 -0.346 -18.649 -0.206 -19.518 -0.021 -19.535 -0.020 -19.734 -0.157 -19.433 -0.016 -19.665 -0.159 9.647 0.625 2.055 0.227 43.416 42.248
124.800 -16.189 -0.447 -16.466 -0.417 -17.229 -0.346 -18.642 -0.206 -19.510 -0.020 -19.527 -0.018 -19.725 -0.158 -19.422 -0.014 -19.656 -0.161 9.802 0.623 1.992 0.210 43.417 42.252
125.200 -16.177 -0.446 -16.454 -0.416 -17.219 -0.345 -18.635 -0.207 -19.502 -0.018 -19.519 -0.016 -19.716 -0.158 -19.412 -0.012 -19.648 -0.163 9.957 0.616 1.931 0.193 43.417 42.258
125.600 -16.165 -0.445 -16.443 -0.415 -17.210 -0.345 -18.627 -0.207 -19.495 -0.017 -19.511 -0.015 -19.707 -0.159 -19.401 -0.010 -19.639 -0.165 10.096 0.607 1.878 0.176 43.417 42.264
126.000 -16.153 -0.444 -16.431 -0.414 -17.200 -0.344 -18.620 -0.207 -19.487 -0.016 -19.503 -0.014 -19.699 -0.160 -19.391 -0.008 -19.631 -0.166 10.202 0.599 1.837 0.164 43.416 42.269
126.400 -16.141 -0.442 -16.420 -0.413 -17.191 -0.343 -18.613 -0.207 -19.479 -0.016 -19.495 -0.014 -19.690 -0.161 -19.380 -0.008 -19.623 -0.168 10.233 0.600 1.819 0.161 43.412 42.271
126.800 -16.129 -0.441 -16.409 -0.411 -17.181 -0.343 -18.606 -0.207 -19.471 -0.016 -19.487 -0.015 -19.681 -0.162 -19.370 -0.009 -19.614 -0.170 10.176 0.612 1.828 0.168 43.407 42.268
127.200 -16.117 -0.439 -16.397 -0.410 -17.172 -0.342 -18.598 -0.207 -19.462 -0.017 -19.479 -0.016 -19.672 -0.163 -19.360 -0.011 -19.606 -0.171 10.054 0.629 1.857 0.183 43.400 42.261
127.600 -16.105 -0.438 -16.386 -0.409 -17.162 -0.341 -18.591 -0.208 -19.454 -0.019 -19.471 -0.017 -19.663 -0.164 -19.349 -0.013 -19.597 -0.173 9.896 0.644 1.899 0.201 43.392 42.252
128.000 -16.093 -0.437 -16.375 -0.408 -17.153 -0.341 -18.584 -0.208 -19.446 -0.021 -19.463 -0.019 -19.655 -0.165 -19.339 -0.015 -19.589 -0.175 9.729 0.654 1.947 0.220 43.384 42.244
128.400 -16.081 -0.435 -16.364 -0.406 -17.143 -0.340 -18.577 -0.208 -19.438 -0.023 -19.455 -0.022 -19.646 -0.166 -19.329 -0.018 -19.580 -0.176 9.566 0.658 1.994 0.236 43.375 42.237
128.800 -16.070 -0.434 -16.352 -0.405 -17.134 -0.339 -18.569 -0.208 -19.430 -0.025 -19.446 -0.024 -19.637 -0.166 -19.319 -0.021 -19.572 -0.178 9.414 0.658 2.041 0.252 43.367 42.233
129.200 -16.058 -0.432 -16.341 -0.404 -17.124 -0.338 -18.562 -0.208 -19.422 -0.027 -19.438 -0.026 -19.628 -0.167 -19.309 -0.023 -19.563 -0.179 9.276 0.655 2.084 0.265 43.360 42.229
129.600 -16.046 -0.430 -16.330 -0.402 -17.115 -0.338 -18.555 -0.208 -19.413 -0.030 -19.430 -0.029 -19.620 -0.168 -19.299 -0.026 -19.555 -0.180 9.150 0.650 2.124 0.276 43.353 42.227
130.000 -16.034 -0.429 -16.318 -0.401 -17.105 -0.337 -18.547 -0.208 -19.405 -0.032 -19.421 -0.032 -19.611 -0.169 -19.289 -0.029 -19.547 -0.182 9.037 0.644 2.160 0.286 43.346 42.227
130.400 -16.022 -0.427 -16.307 -0.399 -17.096 -0.336 -18.540 -0.208 -19.397 -0.035 -19.413 -0.034 -19.602 -0.169 -19.279 -0.032 -19.538 -0.183 8.935 0.636 2.193 0.295 43.339 42.226
130.800 -16.010 -0.425 -16.296 -0.398 -17.086 -0.335 -18.533 -0.208 -19.388 -0.038 -19.405 -0.037 -19.593 -0.170 -19.269 -0.035 -19.530 -0.184 8.842 0.628 2.224 0.302 43.333 42.226
131.200 -15.999 -0.424 -16.285 -0.396 -17.077 -0.334 -18.525 -0.209 -19.380 -0.040 -19.396 -0.040 -19.585 -0.171 -19.260 -0.037 -19.521 -0.186 8.758 0.619 2.251 0.309 43.327 42.227
131.600 -15.987 -0.422 -16.274 -0.395 -17.068 -0.333 -18.518 -0.209 -19.372 -0.043 -19.388 -0.042 -19.576 -0.171 -19.250 -0.040 -19.513 -0.187 8.682 0.610 2.276 0.314 43.322 42.227
132.000 -15.975 -0.420 -16.262 -0.393 -17.058 -0.332 -18.511 -0.209 -19.363 -0.045 -19.379 -0.045 -19.567 -0.172 -19.240 -0.043 -19.505 -0.188 8.612 0.601 2.299 0.318 43.316 42.228
132.400 -15.963 -0.419 -16.251 -0.391 -17.049 -0.331 -18.503 -0.209 -19.355 -0.048 -19.371 -0.047 -19.559 -0.173 -19.231 -0.046 -19.496 -0.189 8.548 0.592 2.319 0.322 43.311 42.228
132.800 -15.952 -0.417 -16.240 -0.390 -17.039 -0.330 -18.496 -0.209 -19.346 -0.051 -19.362 -0.050 -19.550 -0.173 -19.221 -0.048 -19.488 -0.191 8.489 0.583 2.337 0.325 43.306 42.228
133.200 -15.940 -0.415 -16.229 -0.388 -17.030 -0.329 -18.488 -0.209 -19.338 -0.053 -19.354 -0.053 -19.541 -0.174 -19.212 -0.051 -19.479 -0.192 8.436 0.574 2.354 0.328 43.301 42.228
133.600 -15.928 -0.413 -16.218 -0.386 -17.020 -0.328 -18.481 -0.209 -19.329 -0.056 -19.345 -0.055 -19.533 -0.174 -19.202 -0.053 -19.471 -0.193 8.386 0.565 2.369 0.329 43.296 42.228
134.000 -15.916 -0.411 -16.207 -0.385 -17.011 -0.327 -18.473 -0.209 -19.320 -0.058 -19.336 -0.058 -19.524 -0.175 -19.193 -0.056 -19.463 -0.194 8.340 0.556 2.382 0.331 43.291 42.227
134.400 -15.905 -0.409 -16.196 -0.383 -17.002 -0.325 -18.466 -0.209 -19.312 -0.060 -19.328 -0.060 -19.515 -0.175 -19.183 -0.058 -19.454 -0.195 8.297 0.548 2.394 0.332 43.287 42.227
134.800 -15.893 -0.407 -16.184 -0.381 -16.992 -0.324 -18.459 -0.209 -19.303 -0.063 -19.319 -0.062 -19.507 -0.176 -19.174 -0.061 -19.446 -0.196 8.257 0.539 2.405 0.333 43.282 42.226
135.200 -15.881 -0.405 -16.173 -0.379 -16.983 -0.323 -18.451 -0.208 -19.294 -0.065 -19.310 -0.065 -19.498 -0.176 -19.165 -0.063 -19.438 -0.196 8.220 0.531 2.414 0.333 43.278 42.225
135.600 -15.870 -0.403 -16.162 -0.377 -16.973 -0.322 -18.444 -0.208 -19.286 -0.067 -19.302 -0.067 -19.489 -0.177 -19.156 -0.066 -19.429 -0.197 8.186 0.523 2.422 0.333 43.274 42.224
136.000 -15.858 -0.401 -16.151 -0.375 -16.964 -0.320 -18.436 -0.208 -19.277 -0.070 -19.293 -0.069 -19.481 -0.177 -19.146 -0.068 -19.421 -0.198 8.154 0.516 2.430 0.333 43.269 42.222
136.400 -15.847 -0.399 -16.140 -0.374 -16.955 -0.319 -18.429 -0.208 -19.268 -0.072 -19.284 -0.072 -19.472 -0.177 -19.137 -0.070 -19.413 -0.199 8.124 0.508 2.436 0.332 43.265 42.221
136.800 -15.835 -0.397 -16.129 -0.372 -16.945 -0.318 -18.421 -0.208 -19.259 -0.074 -19.275 -0.074 -19.464 -0.178 -19.128 -0.072 -19.404 -0.199 8.095 0.501 2.442 0.332 43.261 42.219
137.200 -15.823 -0.395 -16.118 -0.370 -16.936 -0.316 -18.413 -0.208 -19.251 -0.076 -19.266 -0.076 -19.455 -0.178 -19.119 -0.074 -19.396 -0.200 8.069 0.494 2.447 0.331 43.257 42.217
137.600 -15.812 -0.393 -16.107 -0.368 -16.927 -0.315 -18.406 -0.208 -19.242 -0.078 -19.257 -0.078 -19.446 -0.178 -19.110 -0.077 -19.388 -0.201 8.043 0.487 2.451 0.330 43.253 42.216
138.000 -15.800 -0.391 -16.096 -0.366 -16.917 -0.313 -18.398 -0.208 -19.233 -0.080 -19.248 -0.080 -19.438 -0.179 -19.101 -0.079 -19.380 -0.201 8.020 0.480 2.454 0.329 43.249 42.213
138.400 -15.789 -0.389 -16.085 -0.364 -16.908 -0.312 -18.391 -0.207 -19.224 -0.082 -19.240 -0.082 -19.429 -0.179 -19.092 -0.081 -19.371 -0.202 7.997 0.474 2.457 0.328 43.245 42.211
138.800 -15.777 -0.386 -16.074 -0.361 -16.898 -0.310 -18.383 -0.207 -19.215 -0.084 -19.231 -0.084 -19.421 -0.179 -19.083 -0.083 -19.363 -0.202 7.976 0.468 2.459 0.326 43.242 42.209
139.200 -15.766 -0.384 -16.063 -0.359 -16.889 -0.309 -18.375 -0.207 -19.206 -0.086 -19.222 -0.086 -19.412 -0.179 -19.074 -0.084 -19.355 -0.203 7.956 0.462 2.461 0.325 43.238 42.206
139.600 -15.754 -0.382 -16.052 -0.357 -16.880 -0.307 -18.368 -0.207 -19.197 -0.088 -19.213 -0.088 -19.404 -0.179 -19.066 -0.086 -19.347 -0.203 7.937 0.456 2.462 0.324 43.234 42.204
140.000 -15.743 -0.380 -16.041 -0.355 -16.870 -0.306 -18.360 -0.206 -19.188 -0.090 -19.203 -0.089 -19.395 -0.180 -19.057 -0.088 -19.339 -0.204 7.919 0.450 2.462 0.322 43.230 42.201
140.400 -15.731 -0.377 -16.030 -0.353 -16.861 -0.304 -18.353 -0.206 -19.179 -0.091 -19.194 -0.091 -19.387 -0.180 -19.048 -0.090 -19.330 -0.204 7.902 0.444 2.463 0.321 43.227 42.199
140.800 -15.720 -0.375 -16.019 -0.351 -16.851 -0.303 -18.345 -0.206 -19.170 -0.093 -19.185 -0.093 -19.378 -0.180 -19.039 -0.091 -19.322 -0.204 7.885 0.439 2.463 0.319 43.223 42.196
141.200 -15.708 -0.373 -16.008 -0.348 -16.842 -0.301 -18.337 -0.205 -19.161 -0.095 -19.176 -0.094 -19.370 -0.180 -19.031 -0.093 -19.314 -0.204 7.870 0.434 2.462 0.317 43.219 42.193
141.600 -15.697 -0.370 -15.997 -0.346 -16.833 -0.299 -18.329 -0.205 -19.152 -0.096 -19.167 -0.096 -19.361 -0.180 -19.022 -0.095 -19.306 -0.205 7.855 0.429 2.461 0.316 43.216 42.190
142.000 -15.685 -0.368 -15.986 -0.344 -16.823 -0.297 -18.322 -0.205 -19.143 -0.098 -19.158 -0.097 -19.353 -0.180 -19.014 -0.096 -19.298 -0.205 7.840 0.424 2.460 0.314 43.212 42.187
142.400 -15.674 -0.365 -15.975 -0.341 -16.814 -0.296 -18.314 -0.204 -19.133 -0.099 -19.149 -0.099 -19.344 -0.180 -19.005 -0.098 -19.290 -0.205 7.827 0.419 2.458 0.312 43.208 42.184
142.800 -15.663 -0.363 -15.964 -0.339 -16.805 -0.294 -18.306 -0.204 -19.124 -0.100 -19.139 -0.100 -19.336 -0.180 -18.997 -0.099 -19.282 -0.205 7.814 0.414 2.457 0.310 43.205 42.181
143.200 -15.651 -0.360 -15.953 -0.337 -16.795 -0.292 -18.298 -0.203 -19.115 -0.102 -19.130 -0.101 -19.327 -0.179 -18.988 -0.100 -19.273 -0.205 7.801 0.410 2.455 0.309 43.201 42.178
143.600 -15.640 -0.358 -15.942 -0.334 -16.786 -0.290 -18.291 -0.203 -19.106 -0.103 -19.121 -0.103 -19.319 -0.179 -18.980 -0.101 -19.265 -0.205 7.789 0.406 2.452 0.307 43.198 42.174
144.000 -15.629 -0.355 -15.932 -0.332 -16.776 -0.288 -18.283 -0.202 -19.096 -0.104 -19.112 -0.104 -19.310 -0.179 -18.971 -0.103 -19.257 -0.205 7.778 0.401 2.450 0.305 43.194 42.171
144.400 -15.617 -0.353 -15.921 -0.329 -16.767 -0.286 -18.275 -0.202 -19.087 -0.105 -19.102 -0.105 -19.302 -0.179 -18.963 -0.104 -19.249 -0.205 7.766 0.397 2.447 0.303 43.191 42.168
144.800 -15.606 -0.350 -15.910 -0.327 -16.758 -0.284 -18.267 -0.201 -19.078 -0.106 -19.093 -0.106 -19.294 -0.179 -18.955 -0.105 -19.241 -0.204 7.756 0.393 2.444 0.301 43.187 42.164
145.200 -15.595 -0.348 -15.899 -0.324 -16.748 -0.282 -18.259 -0.201 -19.068 -0.107 -19.084 -0.107 -19.285 -0.178 -18.946 -0.106 -19.233 -0.204 7.745 0.389 2.441 0.300 43.184 42.161
145.600 -15.583 -0.345 -15.888 -0.322 -16.739 -0.280 -18.252 -0.200 -19.059 -0.108 -19.074 -0.108 -19.277 -0.178 -18.938 -0.106 -19.225 -0.204 7.735 0.386 2.437 0.298 43.181 42.158
146.000 -15.572 -0.342 -15.877 -0.319 -16.730 -0.278 -18.244 -0.199 -19.050 -0.109 -19.065 -0.108 -19.268 -0.178 -18.930 -0.107 -19.217 -0.204 7.726 0.382 2.433 0.296 43.177 42.154
146.400 -15.561 -0.340 -15.866 -0.316 -16.720 -0.276 -18.236 -0.199 -19.040 -0.109 -19.055 -0.109 -19.260 -0.177 -18.922 -0.108 -19.209 -0.203 7.717 0.378 2.430 0.294 43.174 42.151
146.800 -15.549 -0.337 -15.856 -0.314 -16.711 -0.274 -18.228 -0.198 -19.031 -0.110 -19.046 -0.110 -19.252 -0.177 -18.913 -0.109 -19.201 -0.203 7.708 0.375 2.426 0.293 43.170 42.147
147.200 -15.538 -0.334 -15.845 -0.311 -16.701 -0.272 -18.220 -0.197 -19.021 -0.111 -19.036 -0.110 -19.243 -0.177 -18.905 -0.109 -19.193 -0.202 7.699 0.372 2.422 0.291 43.167 42.144
147.600 -15.527 -0.331 -15.834 -0.308 -16.692 -0.270 -18.212 -0.197 -19.012 -0.111 -19.027 -0.111 -19.235 -0.176 -18.897 -0.110 -19.185 -0.202 7.691 0.368 2.417 0.289 43.163 42.140
148.000 -15.516 -0.329 -15.823 -0.306 -16.683 -0.268 -18.204 -0.196 -19.002 -0.112 -19.017 -0.111 -19.226 -0.176 -18.889 -0.110 -19.177 -0.201 7.683 0.365 2.413 0.287 43.160 42.136
148.400 -15.505 -0.326 -15.812 -0.303 -16.673 -0.266 -18.196 -0.195 -18.993 -0.112 -19.008 -0.112 -19.218 -0.175 -18.881 -0.111 -19.170 -0.201 7.675 0.362 2.408 0.286 43.157 42.133
148.800 -15.494 -0.323 -15.802 -0.300 -16.664 -0.264 -18.188 -0.194 -18.983 -0.112 -18.998 -0.112 -19.210 -0.174 -18.873 -0.111 -19.162 -0.200 7.668 0.359 2.404 0.284 43.153 42.129
149.200 -15.482 -0.320 -15.791 -0.297 -16.655 -0.261 -18.180 -0.193 -18.974 -0.113 -18.988 -0.112 -19.201 -0.174 -18.865 -0.111 -19.154 -0.200 7.661 0.357 2.399 0.282 43.150 42.125
149.600 -15.471 -0.318 -15.780 -0.295 -16.645 -0.259 -18.172 -0.193 -18.964 -0.113 -18.979 -0.113 -19.193 -0.173 -18.857 -0.112 -19.146 -0.199 7.654 0.354 2.394 0.280 43.147 42.122
150.000 -15.460 -0.315 -15.770 -0.292 -16.636 -0.257 -18.164 -0.192 -18.954 -0.113 -18.969 -0.113 -19.185 -0.172 -18.849 -0.112 -19.138 -0.198 7.647 0.351 2.389 0.279 43.143 42.118
150.400 -15.449 -0.312 -15.759 -0.289 -16.626 -0.255 -18.156 -0.191 -18.945 -0.113 -18.959 -0.113 -19.176 -0.172 -18.841 -0.112 -19.130 -0.197 7.641 0.349 2.384 0.277 43.140 42.114
150.800 -15.438 -0.309 -15.748 -0.286 -16.617 -0.252 -18.148 -0.190 -18.935 -0.113 -18.950 -0.113 -19.168 -0.171 -18.833 -0.112 -19.122 -0.197 7.634 0.346 2.378 0.276 43.136 42.110
151.200 -15.427 -0.306 -15.737 -0.283 -16.608 -0.250 -18.139 -0.189 -18.925 -0.113 -18.940 -0.113 -19.160 -0.170 -18.825 -0.112 -19.115 -0.196 7.628 0.344 2.373 0.274 43.133 42.106
151.600 -15.416 -0.303 -15.727 -0.280 -16.598 -0.248 -18.131 -0.188 -18.916 -0.113 -18.930 -0.112 -19.151 -0.169 -18.818 -0.111 -19.107 -0.195 7.622 0.342 2.367 0.272 43.130 42.103
152.000 -15.405 -0.300 -15.716 -0.278 -16.589 -0.245 -18.123 -0.187 -18.906 -0.112 -18.920 -0.112 -19.143 -0.169 -18.810 -0.111 -19.099 -0.194 7.617 0.339 2.362 0.271 43.126 42.099
152.400 -15.394 -0.297 -15.706 -0.275 -16.579 -0.243 -18.115 -0.186 -18.896 -0.112 -18.911 -0.112 -19.135 -0.168 -18.802 -0.111 -19.091 -0.193 7.611 0.337 2.356 0.269 43.123 42.095
152.800 -15.383 -0.295 -15.695 -0.272 -16.570 -0.240 -18.107 -0.185 -18.886 -0.111 -18.901 -0.111 -19.126 -0.167 -18.794 -0.110 -19.084 -0.192 7.606 0.335 2.350 0.268 43.120 42.091
153.200 -15.372 -0.292 -15.684 -0.269 -16.561 -0.238 -18.098 -0.184 -18.876 -0.111 -18.891 -0.111 -19.118 -0.166 -18.786 -0.110 -19.076 -0.191 7.601 0.334 2.344 0.266 43.116 42.087
153.600 -15.361 -0.289 -15.674 -0.266 -16.551 -0.236 -18.090 -0.182 -18.867 -0.110 -18.881 -0.110 -19.110 -0.165 -18.779 -0.109 -19.068 -0.190 7.597 0.332 2.338 0.265 43.113 42.083
154.000 -15.350 -0.286 -15.663 -0.263 -16.542 -0.233 -18.082 -0.181 -18.857 -0.110 -18.871 -0.110 -19.101 -0.164 -18.771 -0.109 -19.060 -0.189 7.592 0.330 2.332 0.263 43.110 42.079
154.400 -15.339 -0.283 -15.653 -0.260 -16.532 -0.231 -18.074 -0.180 -18.847 -0.109 -18.861 -0.109 -19.093 -0.163 -18.763 -0.108 -19.053 -0.188 7.588 0.328 2.325 0.262 43.106 42.075
154.800 -15.328 -0.280 -15.642 -0.257 -16.523 -0.228 -18.065 -0.179 -18.837 -0.108 -18.851 -0.108 -19.085 -0.162 -18.756 -0.107 -19.045 -0.187 7.584 0.327 2.319 0.260 43.103 42.071
155.200 -15.318 -0.277 -15.631 -0.254 -16.514 -0.226 -18.057 -0.178 -18.827 -0.107 -18.841 -0.107 -19.077 -0.161 -18.748 -0.106 -19.037 -0.185 7.580 0.325 2.312 0.259 43.100 42.067
155.600 -15.307 -0.274 -15.621 -0.251 -16.504 -0.223 -18.049 -0.176 -18.817 -0.106 -18.831 -0.106 -19.068 -0.160 -18.740 -0.105 -19.030 -0.184 7.576 0.324 2.305 0.257 43.096 42.063
156.000 -15.296 -0.271 -15.610 -0.248 -16.495 -0.221 -18.040 -0.175 -18.807 -0.105 -18.821 -0.105 -19.060 -0.158 -18.733 -0.104 -19.022 -0.183 7.573 0.323 2.299 0.256 43.093 42.059
156.400 -15.285 -0.268 -15.600 -0.245 -16.485 -0.218 -18.032 -0.174 -18.797 -0.104 -18.811 -0.104 -19.052 -0.157 -18.725 -0.103 -19.015 -0.182 7.570 0.322 2.292 0.255 43.089 42.055
156.800 -15.275 -0.265 -15.590 -0.242 -16.476 -0.216 -18.023 -0.172 -18.787 -0.103 -18.801 -0.103 -19.043 -0.156 -18.718 -0.102 -19.007 -0.180 7.567 0.321 2.284 0.253 43.086 42.051
157.200 -15.264 -0.263 -15.579 -0.239 -16.467 -0.213 -18.015 -0.171 -18.777 -0.102 -18.791 -0.102 -19.035 -0.155 -18.710 -0.101 -18.999 -0.179 7.564 0.320 2.277 0.252 43.083 42.047
157.600 -15.253 -0.260 -15.569 -0.236 -16.457 -0.211 -18.006 -0.170 -18.767 -0.100 -18.781 -0.100 -19.027 -0.154 -18.703 -0.099 -18.992 -0.178 7.562 0.319 2.270 0.251 43.079 42.042
158.000 -15.243 -0.257 -15.558 -0.233 -16.448 -0.208 -17.998 -0.168 -18.757 -0.099 -18.771 -0.099 -19.018 -0.152 -18.695 -0.098 -18.984 -0.176 7.560 0.319 2.262 0.250 43.076 42.038
158.400 -15.232 -0.254 -15.548 -0.230 -16.438 -0.206 -17.989 -0.167 -18.746 -0.097 -18.761 -0.097 -19.010 -0.151 -18.688 -0.096 -18.977 -0.175 7.559 0.318 2.254 0.248 43.073 42.034
158.800 -15.221 -0.251 -15.538 -0.228 -16.429 -0.203 -17.981 -0.166 -18.736 -0.096 -18.751 -0.096 -19.002 -0.150 -18.680 -0.095 -18.969 -0.174 7.557 0.318 2.246 0.247 43.069 42.030
159.200 -15.211 -0.249 -15.527 -0.225 -16.420 -0.201 -17.972 -0.164 -18.726 -0.094 -18.740 -0.094 -18.993 -0.148 -18.673 -0.093 -18.962 -0.172 7.556 0.318 2.238 0.246 43.066 42.025
159.600 -15.200 -0.246 -15.517 -0.222 -16.410 -0.199 -17.963 -0.163 -18.716 -0.092 -18.730 -0.092 -18.985 -0.147 -18.666 -0.091 -18.954 -0.171 7.556 0.318 2.229 0.245 43.062 42.021
160.000 -15.190 -0.243 -15.507 -0.219 -16.401 -0.196 -17.955 -0.161 -18.706 -0.091 -18.720 -0.090 -18.977 -0.146 -18.658 -0.090 -18.947 -0.170 7.556 0.318 2.221 0.244 43.059 42.016
160.400 -15.179 -0.240 -15.496 -0.216 -16.391 -0.194 -17.946 -0.160 -18.695 -0.089 -18.710 -0.088 -18.968 -0.144 -18.651 -0.088 -18.939 -0.168 7.556 0.318 2.212 0.243 43.056 42.012
160.800 -15.169 -0.238 -15.486 -0.213 -16.382 -0.191 -17.937 -0.159 -18.685 -0.087 -18.699 -0.086 -18.960 -0.143 -18.644 -0.086 -18.932 -0.167 7.557 0.319 2.202 0.242 43.052 42.007
161.200 -15.158 -0.235 -15.476 -0.211 -16.373 -0.189 -17.928 -0.157 -18.675 -0.085 -18.689 -0.084 -18.952 -0.142 -18.636 -0.084 -18.924 -0.166 7.559 0.320 2.193 0.241 43.049 42.002
161.600 -15.148 -0.233 -15.466 -0.208 -16.363 -0.187 -17.919 -0.156 -18.665 -0.082 -18.679 -0.082 -18.943 -0.140 -18.629 -0.082 -18.917 -0.164 7.561 0.321 2.183 0.240 43.045 41.998
162.000 -15.138 -0.230 -15.456 -0.205 -16.354 -0.184 -17.911 -0.154 -18.654 -0.080 -18.669 -0.080 -18.935 -0.139 -18.622 -0.079 -18.910 -0.163 7.564 0.322 2.173 0.239 43.042 41.993
162.400 -15.127 -0.228 -15.446 -0.203 -16.344 -0.182 -17.902 -0.153 -18.644 -0.078 -18.658 -0.078 -18.927 -0.138 -18.615 -0.077 -18.902 -0.162 7.568 0.324 2.162 0.238 43.038 41.988
162.800 -15.117 -0.225 -15.436 -0.200 -16.335 -0.180 -17.893 -0.152 -18.634 -0.075 -18.648 -0.075 -18.918 -0.136 -18.607 -0.075 -18.895 -0.161 7.572 0.325 2.151 0.237 43.035 41.982
163.200 -15.107 -0.223 -15.425 -0.198 -16.325 -0.178 -17.884 -0.150 -18.623 -0.073 -18.637 -0.073 -18.910 -0.135 -18.600 -0.072 -18.887 -0.159 7.578 0.328 2.139 0.236 43.031 41.977
163.600 -15.097 -0.221 -15.415 -0.195 -16.316 -0.176 -17.875 -0.149 -18.613 -0.070 -18.627 -0.070 -18.902 -0.134 -18.593 -0.070 -18.880 -0.158 7.585 0.330 2.127 0.235 43.028 41.972
164.000 -15.087 -0.219 -15.405 -0.193 -16.307 -0.174 -17.866 -0.148 -18.603 -0.068 -18.617 -0.068 -18.893 -0.132 -18.586 -0.067 -18.873 -0.157 7.593 0.333 2.114 0.234 43.025 41.966
164.400 -15.077 -0.217 -15.395 -0.191 -16.297 -0.172 -17.857 -0.146 -18.592 -0.065 -18.606 -0.065 -18.885 -0.131 -18.579 -0.064 -18.865 -0.156 7.602 0.336 2.100 0.233 43.021 41.960
164.800 -15.066 -0.215 -15.386 -0.189 -16.288 -0.170 -17.847 -0.145 -18.582 -0.062 -18.596 -0.062 -18.876 -0.130 -18.572 -0.062 -18.858 -0.155 7.614 0.340 2.086 0.232 43.018 41.953
165.200 -15.056 -0.213 -15.376 -0.186 -16.278 -0.168 -17.838 -0.144 -18.571 -0.059 -18.585 -0.059 -18.868 -0.129 -18.565 -0.059 -18.851 -0.154 7.627 0.345 2.070 0.232 43.014 41.947
165.600 -15.046 -0.211 -15.366 -0.184 -16.269 -0.166 -17.829 -0.143 -18.561 -0.057 -18.575 -0.056 -18.859 -0.127 -18.558 -0.056 -18.843 -0.153 7.645 0.350 2.052 0.230 43.011 41.939
166.000 -15.037 -0.209 -15.356 -0.183 -16.259 -0.164 -17.820 -0.142 -18.551 -0.054 -18.565 -0.053 -18.851 -0.126 -18.550 -0.053 -18.836 -0.152 7.664 0.355 2.034 0.229 43.007 41.932
166.400 -15.027 -0.208 -15.346 -0.181 -16.250 -0.163 -17.810 -0.141 -18.540 -0.050 -18.554 -0.050 -18.842 -0.125 -18.543 -0.050 -18.829 -0.151 7.687 0.362 2.014 0.228 43.004 41.923
166.800 -15.017 -0.206 -15.336 -0.179 -16.241 -0.161 -17.801 -0.140 -18.530 -0.047 -18.544 -0.047 -18.834 -0.124 -18.536 -0.047 -18.822 -0.151 7.714 0.369 1.993 0.227 43.001 41.914
167.200 -15.007 -0.205 -15.327 -0.178 -16.231 -0.160 -17.791 -0.139 -18.519 -0.044 -18.533 -0.044 -18.825 -0.123 -18.529 -0.043 -18.814 -0.150 7.746 0.377 1.969 0.225 42.998 41.904
167.600 -14.997 -0.204 -15.317 -0.176 -16.222 -0.159 -17.782 -0.138 -18.509 -0.041 -18.523 -0.040 -18.817 -0.122 -18.523 -0.040 -18.807 -0.150 7.785 0.386 1.943 0.223 42.995 41.893
168.000 -14.988 -0.203 -15.307 -0.175 -16.212 -0.157 -17.772 -0.137 -18.498 -0.038 -18.512 -0.037 -18.808 -0.122 -18.516 -0.037 -18.800 -0.149 7.832 0.396 1.913 0.221 42.992 41.881
168.400 -14.978 -0.202 -15.298 -0.174 -16.203 -0.156 -17.763 -0.137 -18.488 -0.034 -18.502 -0.034 -18.800 -0.121 -18.509 -0.033 -18.793 -0.149 7.889 0.406 1.879 0.218 42.989 41.866
168.800 -14.968 -0.201 -15.288 -0.173 -16.194 -0.155 -17.753 -0.136 -18.477 -0.031 -18.491 -0.030 -18.791 -0.120 -18.502 -0.030 -18.786 -0.149 7.959 0.418 1.841 0.214 42.986 41.850
169.200 -14.959 -0.200 -15.279 -0.172 -16.184 -0.155 -17.743 -0.136 -18.467 -0.027 -18.481 -0.027 -18.782 -0.120 -18.495 -0.026 -18.778 -0.148 8.045 0.431 1.798 0.209 42.984 41.831
169.600 -14.949 -0.200 -15.269 -0.171 -16.175 -0.154 -17.734 -0.135 -18.456 -0.024 -18.470 -0.023 -18.774 -0.119 -18.488 -0.023 -18.771 -0.148 8.152 0.443 1.747 0.202 42.983 41.808
170.000 -14.940 -0.199 -15.260 -0.171 -16.165 -0.153 -17.724 -0.135 -18.446 -0.020 -18.460 -0.019 -18.765 -0.119 -18.481 -0.019 -18.764 -0.149 8.256 0.455 1.703 0.194 42.982 41.782
170.400 -14.931 -0.199 -15.250 -0.170 -16.156 -0.153 -17.714 -0.135 -18.435 -0.017 -18.449 -0.016 -18.756 -0.119 -18.474 -0.016 -18.757 -0.149 8.414 0.465 1.639 0.182 42.982 41.750
170.800 -14.921 -0.199 -15.241 -0.170 -16.146 -0.153 -17.704 -0.135 -18.425 -0.014 -18.439 -0.013 -18.748 -0.118 -18.468 -0.013 -18.750 -0.149 8.606 0.469 1.567 0.167 42.982 41.715
171.200 -14.912 -0.199 -15.232 -0.170 -16.137 -0.153 -17.694 -0.135 -18.415 -0.012 -18.428 -0.010 -18.739 -0.118 -18.461 -0.010 -18.742 -0.150 8.815 0.465 1.496 0.149 42.983 41.679
171.600 -14.903 -0.199 -15.223 -0.170 -16.127 -0.153 -17.684 -0.135 -18.404 -0.011 -18.418 -0.008 -18.730 -0.119 -18.454 -0.008 -18.735 -0.151 8.963 0.454 1.447 0.136 42.984 41.651
172.000 -14.894 -0.200 -15.213 -0.171 -16.118 -0.153 -17.673 -0.135 -18.394 -0.011 -18.408 -0.008 -18.721 -0.119 -18.448 -0.008 -18.728 -0.151 8.923 0.451 1.453 0.137 42.979 41.646
172.400 -14.885 -0.200 -15.204 -0.171 -16.109 -0.154 -17.663 -0.136 -18.383 -0.013 -18.397 -0.011 -18.712 -0.119 -18.441 -0.011 -18.721 -0.152 8.724 0.454 1.506 0.150 42.971 41.663
172.800 -14.876 -0.201 -15.195 -0.172 -16.099 -0.154 -17.653 -0.136 -18.373 -0.015 -18.387 -0.014 -18.704 -0.120 -18.434 -0.014 -18.714 -0.154 8.496 0.449 1.573 0.165 42.963 41.688
