"Time (MJD)" B-4317.22 B-4317.22_err B-4345.28 B-4345.28_err G-5850.88 G-5850.88_err U-3520.88 U-3520.88_err UVM2-2245.03 UVM2-2245.03_err UVW1-2681.67 UVW1-2681.67_err UVW2-2083.95 UVW2-2083.95_err V-5379.61 V-5379.61_err V-5411.45 V-5411.45_err g-4671.78 g-4671.78_err g-4735.89 g-4735.89_err i-7457.89 i-7457.89_err i-7645.77 i-7645.77_err r-6141.12 r-6141.12_err r-6198.96 r-6198.96_err "Temp./1e3 (K)" "Temp. Err." "Radius/1e15 (cm)" "Radius Err." "Log10(Bol. Lum)" "Log10(Bol. Err)"
-24.000 -21.018 -0.072 -21.329 -0.062 -21.418 -0.073 -21.206 -0.075 -21.148 -0.063 -21.151 -0.062 -21.161 -0.073 -21.160 -0.077 -21.029 -0.060 -21.015 -0.058 -20.835 -0.015 -20.825 -0.055 -20.827 -0.062 -20.572 -0.025 -20.602 -0.072 18.801 0.445 1.722 0.043 44.422 43.106
-23.600 -21.029 -0.068 -21.346 -0.058 -21.435 -0.069 -21.223 -0.071 -21.169 -0.059 -21.172 -0.058 -21.186 -0.071 -21.184 -0.075 -21.056 -0.057 -21.042 -0.055 -20.861 -0.013 -20.851 -0.052 -20.853 -0.058 -20.598 -0.022 -20.628 -0.069 18.704 0.450 1.749 0.044 44.426 43.119
-23.200 -21.040 -0.064 -21.362 -0.055 -21.451 -0.066 -21.240 -0.067 -21.189 -0.056 -21.192 -0.055 -21.210 -0.069 -21.209 -0.073 -21.083 -0.054 -21.069 -0.052 -20.886 -0.013 -20.877 -0.049 -20.879 -0.055 -20.623 -0.020 -20.654 -0.065 18.582 0.444 1.782 0.044 44.431 43.120
-22.800 -21.050 -0.060 -21.378 -0.051 -21.467 -0.062 -21.256 -0.064 -21.208 -0.053 -21.212 -0.052 -21.234 -0.067 -21.233 -0.071 -21.110 -0.051 -21.096 -0.049 -20.911 -0.015 -20.902 -0.046 -20.905 -0.052 -20.649 -0.019 -20.680 -0.062 18.446 0.429 1.819 0.045 44.436 43.109
-22.400 -21.059 -0.056 -21.393 -0.048 -21.483 -0.059 -21.272 -0.060 -21.228 -0.050 -21.232 -0.049 -21.257 -0.065 -21.258 -0.069 -21.137 -0.048 -21.123 -0.047 -20.936 -0.017 -20.927 -0.044 -20.930 -0.049 -20.674 -0.020 -20.705 -0.059 18.308 0.416 1.857 0.046 44.441 43.096
-22.000 -21.067 -0.053 -21.408 -0.045 -21.499 -0.056 -21.288 -0.057 -21.247 -0.047 -21.252 -0.046 -21.281 -0.063 -21.282 -0.068 -21.164 -0.046 -21.149 -0.044 -20.960 -0.021 -20.952 -0.042 -20.955 -0.047 -20.700 -0.022 -20.731 -0.056 18.173 0.409 1.896 0.049 44.446 43.087
-21.600 -21.075 -0.050 -21.421 -0.042 -21.514 -0.053 -21.303 -0.054 -21.266 -0.044 -21.271 -0.043 -21.304 -0.062 -21.305 -0.066 -21.190 -0.044 -21.175 -0.042 -20.985 -0.024 -20.977 -0.040 -20.980 -0.044 -20.725 -0.024 -20.757 -0.053 18.040 0.409 1.934 0.052 44.450 43.083
-21.200 -21.083 -0.047 -21.435 -0.039 -21.528 -0.050 -21.319 -0.051 -21.284 -0.042 -21.290 -0.041 -21.327 -0.061 -21.329 -0.065 -21.216 -0.041 -21.201 -0.040 -21.009 -0.028 -21.001 -0.038 -21.004 -0.042 -20.750 -0.027 -20.782 -0.051 17.909 0.413 1.971 0.056 44.455 43.082
-20.800 -21.089 -0.044 -21.447 -0.037 -21.543 -0.047 -21.334 -0.049 -21.303 -0.039 -21.309 -0.039 -21.350 -0.059 -21.353 -0.064 -21.241 -0.039 -21.227 -0.038 -21.033 -0.031 -21.025 -0.036 -21.028 -0.040 -20.775 -0.029 -20.807 -0.048 17.782 0.417 2.009 0.059 44.459 43.084
-20.400 -21.095 -0.042 -21.458 -0.035 -21.556 -0.045 -21.348 -0.046 -21.321 -0.037 -21.327 -0.036 -21.373 -0.058 -21.376 -0.063 -21.267 -0.038 -21.252 -0.037 -21.056 -0.035 -21.049 -0.035 -21.052 -0.038 -20.799 -0.032 -20.832 -0.046 17.658 0.423 2.046 0.063 44.462 43.086
-20.000 -21.100 -0.039 -21.469 -0.033 -21.570 -0.043 -21.363 -0.044 -21.338 -0.035 -21.345 -0.034 -21.396 -0.057 -21.399 -0.061 -21.292 -0.036 -21.277 -0.035 -21.080 -0.038 -21.072 -0.034 -21.075 -0.036 -20.824 -0.035 -20.857 -0.044 17.538 0.428 2.082 0.067 44.466 43.090
-19.600 -21.104 -0.038 -21.478 -0.031 -21.582 -0.041 -21.378 -0.042 -21.356 -0.033 -21.363 -0.032 -21.418 -0.056 -21.421 -0.060 -21.316 -0.035 -21.301 -0.034 -21.103 -0.041 -21.094 -0.033 -21.098 -0.034 -20.848 -0.037 -20.881 -0.042 17.419 0.432 2.118 0.070 44.469 43.093
-19.200 -21.107 -0.036 -21.486 -0.029 -21.595 -0.039 -21.392 -0.040 -21.373 -0.031 -21.381 -0.031 -21.440 -0.055 -21.444 -0.059 -21.340 -0.033 -21.325 -0.033 -21.125 -0.044 -21.117 -0.032 -21.120 -0.033 -20.871 -0.039 -20.905 -0.041 17.302 0.436 2.155 0.074 44.472 43.096
-18.800 -21.109 -0.035 -21.493 -0.028 -21.606 -0.038 -21.406 -0.039 -21.390 -0.030 -21.398 -0.029 -21.461 -0.054 -21.466 -0.058 -21.364 -0.032 -21.349 -0.032 -21.148 -0.047 -21.138 -0.031 -21.142 -0.032 -20.895 -0.042 -20.929 -0.039 17.184 0.438 2.191 0.077 44.475 43.099
-18.400 -21.111 -0.034 -21.499 -0.027 -21.617 -0.037 -21.419 -0.038 -21.406 -0.028 -21.415 -0.028 -21.482 -0.053 -21.487 -0.057 -21.387 -0.032 -21.372 -0.032 -21.170 -0.049 -21.160 -0.031 -21.164 -0.031 -20.918 -0.044 -20.953 -0.038 17.064 0.440 2.228 0.080 44.477 43.101
-18.000 -21.111 -0.033 -21.504 -0.027 -21.628 -0.036 -21.433 -0.037 -21.423 -0.027 -21.432 -0.027 -21.503 -0.051 -21.509 -0.056 -21.410 -0.031 -21.395 -0.031 -21.191 -0.051 -21.180 -0.030 -21.184 -0.030 -20.941 -0.045 -20.976 -0.036 16.941 0.440 2.265 0.082 44.479 43.102
-17.600 -21.111 -0.032 -21.507 -0.026 -21.637 -0.035 -21.446 -0.036 -21.439 -0.026 -21.448 -0.026 -21.524 -0.050 -21.530 -0.055 -21.432 -0.031 -21.417 -0.031 -21.212 -0.054 -21.201 -0.030 -21.205 -0.030 -20.964 -0.047 -20.998 -0.035 16.815 0.439 2.304 0.085 44.481 43.102
-17.200 -21.110 -0.032 -21.509 -0.026 -21.646 -0.034 -21.459 -0.036 -21.455 -0.026 -21.465 -0.026 -21.544 -0.049 -21.550 -0.054 -21.454 -0.031 -21.439 -0.031 -21.233 -0.056 -21.220 -0.030 -21.225 -0.029 -20.986 -0.049 -21.020 -0.034 16.685 0.436 2.343 0.087 44.482 43.101
-16.800 -21.108 -0.032 -21.510 -0.026 -21.655 -0.034 -21.472 -0.035 -21.471 -0.025 -21.481 -0.025 -21.564 -0.048 -21.570 -0.053 -21.475 -0.031 -21.460 -0.032 -21.253 -0.058 -21.240 -0.030 -21.244 -0.029 -21.007 -0.050 -21.042 -0.034 16.551 0.433 2.384 0.089 44.483 43.099
-16.400 -21.105 -0.031 -21.510 -0.026 -21.662 -0.034 -21.484 -0.035 -21.487 -0.025 -21.497 -0.025 -21.584 -0.047 -21.590 -0.052 -21.496 -0.032 -21.481 -0.032 -21.273 -0.059 -21.258 -0.029 -21.263 -0.029 -21.029 -0.051 -21.063 -0.033 16.415 0.428 2.426 0.091 44.483 43.096
-16.000 -21.102 -0.031 -21.509 -0.027 -21.669 -0.033 -21.496 -0.034 -21.503 -0.024 -21.513 -0.024 -21.603 -0.045 -21.609 -0.051 -21.516 -0.032 -21.501 -0.032 -21.293 -0.061 -21.277 -0.029 -21.281 -0.029 -21.050 -0.052 -21.084 -0.033 16.278 0.422 2.468 0.092 44.484 43.092
-15.600 -21.097 -0.031 -21.507 -0.027 -21.675 -0.033 -21.508 -0.034 -21.519 -0.024 -21.529 -0.024 -21.621 -0.044 -21.628 -0.049 -21.536 -0.032 -21.521 -0.033 -21.312 -0.063 -21.295 -0.029 -21.299 -0.029 -21.070 -0.053 -21.104 -0.032 16.140 0.415 2.512 0.094 44.484 43.087
-15.200 -21.092 -0.031 -21.505 -0.027 -21.680 -0.033 -21.520 -0.033 -21.534 -0.024 -21.545 -0.024 -21.640 -0.043 -21.647 -0.048 -21.555 -0.032 -21.540 -0.033 -21.331 -0.064 -21.312 -0.029 -21.316 -0.029 -21.090 -0.053 -21.124 -0.032 16.004 0.408 2.556 0.095 44.485 43.081
-14.800 -21.087 -0.031 -21.501 -0.027 -21.684 -0.033 -21.532 -0.033 -21.550 -0.024 -21.560 -0.024 -21.658 -0.042 -21.665 -0.047 -21.574 -0.033 -21.559 -0.033 -21.349 -0.065 -21.329 -0.029 -21.333 -0.029 -21.110 -0.054 -21.143 -0.032 15.868 0.401 2.600 0.096 44.485 43.074
-14.400 -21.081 -0.031 -21.497 -0.028 -21.688 -0.033 -21.543 -0.032 -21.565 -0.023 -21.576 -0.023 -21.675 -0.040 -21.682 -0.046 -21.592 -0.033 -21.577 -0.033 -21.367 -0.066 -21.345 -0.028 -21.350 -0.029 -21.129 -0.054 -21.162 -0.032 15.735 0.393 2.645 0.097 44.485 43.067
-14.000 -21.074 -0.031 -21.491 -0.028 -21.691 -0.033 -21.554 -0.032 -21.580 -0.023 -21.591 -0.023 -21.692 -0.039 -21.699 -0.045 -21.609 -0.033 -21.594 -0.034 -21.384 -0.067 -21.361 -0.028 -21.366 -0.029 -21.147 -0.055 -21.180 -0.031 15.602 0.385 2.690 0.098 44.485 43.059
-13.600 -21.066 -0.030 -21.486 -0.028 -21.693 -0.033 -21.565 -0.031 -21.594 -0.023 -21.606 -0.023 -21.708 -0.038 -21.716 -0.044 -21.626 -0.033 -21.611 -0.034 -21.401 -0.068 -21.377 -0.028 -21.382 -0.029 -21.165 -0.055 -21.198 -0.031 15.472 0.377 2.735 0.100 44.485 43.051
-13.200 -21.059 -0.030 -21.479 -0.028 -21.695 -0.033 -21.576 -0.031 -21.609 -0.023 -21.620 -0.023 -21.724 -0.037 -21.732 -0.044 -21.642 -0.033 -21.627 -0.034 -21.417 -0.069 -21.393 -0.028 -21.397 -0.030 -21.183 -0.055 -21.215 -0.031 15.343 0.369 2.781 0.100 44.485 43.042
-12.800 -21.050 -0.030 -21.472 -0.028 -21.695 -0.033 -21.587 -0.030 -21.623 -0.022 -21.635 -0.022 -21.739 -0.037 -21.747 -0.043 -21.658 -0.033 -21.643 -0.034 -21.433 -0.070 -21.408 -0.028 -21.412 -0.030 -21.200 -0.055 -21.232 -0.032 15.216 0.361 2.827 0.101 44.485 43.032
-12.400 -21.042 -0.030 -21.465 -0.028 -21.695 -0.033 -21.597 -0.030 -21.637 -0.022 -21.649 -0.022 -21.754 -0.036 -21.762 -0.042 -21.673 -0.033 -21.658 -0.034 -21.449 -0.071 -21.422 -0.028 -21.427 -0.030 -21.217 -0.056 -21.248 -0.032 15.091 0.352 2.874 0.102 44.485 43.022
-12.000 -21.032 -0.030 -21.456 -0.029 -21.694 -0.033 -21.607 -0.029 -21.651 -0.022 -21.663 -0.022 -21.769 -0.036 -21.777 -0.042 -21.687 -0.033 -21.672 -0.034 -21.464 -0.071 -21.437 -0.029 -21.441 -0.030 -21.233 -0.056 -21.264 -0.032 14.967 0.344 2.921 0.103 44.484 43.012
-11.600 -21.023 -0.030 -21.448 -0.029 -21.692 -0.033 -21.617 -0.029 -21.664 -0.022 -21.676 -0.022 -21.782 -0.035 -21.790 -0.042 -21.701 -0.033 -21.686 -0.034 -21.478 -0.072 -21.451 -0.029 -21.455 -0.031 -21.249 -0.056 -21.279 -0.032 14.846 0.335 2.968 0.103 44.484 43.001
-11.200 -21.014 -0.030 -21.439 -0.029 -21.690 -0.034 -21.627 -0.028 -21.677 -0.022 -21.690 -0.022 -21.795 -0.035 -21.804 -0.042 -21.714 -0.033 -21.699 -0.034 -21.492 -0.072 -21.464 -0.029 -21.468 -0.031 -21.264 -0.056 -21.293 -0.033 14.727 0.326 3.015 0.104 44.484 42.991
-10.800 -21.004 -0.031 -21.429 -0.030 -21.687 -0.034 -21.637 -0.028 -21.690 -0.022 -21.702 -0.022 -21.808 -0.035 -21.816 -0.042 -21.726 -0.033 -21.712 -0.034 -21.506 -0.073 -21.478 -0.030 -21.482 -0.032 -21.279 -0.056 -21.308 -0.033 14.610 0.318 3.063 0.104 44.484 42.980
-10.400 -20.993 -0.031 -21.419 -0.030 -21.683 -0.035 -21.646 -0.028 -21.703 -0.022 -21.715 -0.022 -21.820 -0.035 -21.828 -0.042 -21.738 -0.033 -21.724 -0.033 -21.519 -0.073 -21.491 -0.030 -21.494 -0.032 -21.293 -0.056 -21.321 -0.034 14.495 0.309 3.110 0.104 44.483 42.968
-10.000 -20.983 -0.031 -21.409 -0.031 -21.678 -0.036 -21.655 -0.028 -21.715 -0.022 -21.727 -0.022 -21.832 -0.036 -21.840 -0.042 -21.749 -0.032 -21.735 -0.033 -21.532 -0.073 -21.503 -0.031 -21.507 -0.032 -21.307 -0.056 -21.334 -0.034 14.383 0.300 3.158 0.103 44.483 42.957
-9.600 -20.972 -0.032 -21.398 -0.031 -21.673 -0.037 -21.664 -0.027 -21.726 -0.022 -21.739 -0.022 -21.843 -0.036 -21.851 -0.042 -21.760 -0.032 -21.746 -0.033 -21.544 -0.074 -21.515 -0.031 -21.519 -0.033 -21.320 -0.056 -21.347 -0.034 14.274 0.292 3.205 0.103 44.483 42.945
-9.200 -20.961 -0.032 -21.387 -0.032 -21.667 -0.037 -21.672 -0.027 -21.737 -0.022 -21.750 -0.022 -21.854 -0.036 -21.861 -0.043 -21.770 -0.032 -21.756 -0.033 -21.555 -0.074 -21.527 -0.032 -21.531 -0.033 -21.333 -0.056 -21.359 -0.035 14.168 0.283 3.251 0.103 44.482 42.933
-8.800 -20.950 -0.033 -21.375 -0.032 -21.660 -0.038 -21.680 -0.027 -21.748 -0.022 -21.760 -0.022 -21.863 -0.037 -21.871 -0.043 -21.779 -0.031 -21.765 -0.032 -21.567 -0.074 -21.539 -0.032 -21.542 -0.033 -21.346 -0.057 -21.371 -0.035 14.063 0.275 3.298 0.102 44.482 42.921
-8.400 -20.938 -0.033 -21.363 -0.033 -21.652 -0.039 -21.687 -0.027 -21.758 -0.022 -21.771 -0.022 -21.873 -0.038 -21.881 -0.044 -21.788 -0.031 -21.774 -0.032 -21.577 -0.074 -21.550 -0.032 -21.553 -0.034 -21.357 -0.057 -21.382 -0.036 13.962 0.267 3.344 0.102 44.481 42.908
-8.000 -20.926 -0.033 -21.351 -0.033 -21.644 -0.040 -21.694 -0.027 -21.767 -0.022 -21.780 -0.022 -21.882 -0.038 -21.890 -0.045 -21.796 -0.030 -21.782 -0.031 -21.587 -0.074 -21.560 -0.033 -21.564 -0.034 -21.369 -0.057 -21.393 -0.036 13.862 0.258 3.389 0.101 44.480 42.895
-7.600 -20.913 -0.034 -21.338 -0.034 -21.635 -0.041 -21.700 -0.027 -21.776 -0.023 -21.789 -0.022 -21.890 -0.039 -21.898 -0.046 -21.804 -0.029 -21.790 -0.031 -21.597 -0.074 -21.570 -0.033 -21.574 -0.034 -21.380 -0.058 -21.403 -0.037 13.765 0.250 3.435 0.100 44.480 42.882
-7.200 -20.900 -0.034 -21.324 -0.034 -21.626 -0.042 -21.705 -0.027 -21.785 -0.023 -21.798 -0.022 -21.898 -0.040 -21.905 -0.047 -21.811 -0.029 -21.797 -0.030 -21.606 -0.074 -21.580 -0.034 -21.584 -0.034 -21.390 -0.058 -21.413 -0.037 13.671 0.242 3.479 0.099 44.479 42.869
-6.800 -20.887 -0.034 -21.310 -0.034 -21.616 -0.042 -21.709 -0.027 -21.793 -0.023 -21.806 -0.023 -21.905 -0.041 -21.913 -0.048 -21.817 -0.028 -21.803 -0.029 -21.615 -0.074 -21.590 -0.034 -21.593 -0.034 -21.400 -0.058 -21.422 -0.038 13.578 0.234 3.523 0.098 44.478 42.856
-6.400 -20.873 -0.034 -21.296 -0.034 -21.605 -0.043 -21.713 -0.027 -21.800 -0.023 -21.813 -0.023 -21.912 -0.043 -21.919 -0.049 -21.823 -0.027 -21.809 -0.029 -21.623 -0.074 -21.598 -0.035 -21.602 -0.035 -21.409 -0.059 -21.431 -0.038 13.488 0.226 3.567 0.097 44.477 42.842
-6.000 -20.859 -0.034 -21.281 -0.034 -21.593 -0.044 -21.717 -0.027 -21.808 -0.023 -21.820 -0.023 -21.918 -0.044 -21.925 -0.050 -21.828 -0.027 -21.814 -0.028 -21.631 -0.074 -21.607 -0.035 -21.610 -0.035 -21.418 -0.060 -21.439 -0.039 13.399 0.219 3.610 0.096 44.476 42.828
-5.600 -20.844 -0.035 -21.265 -0.034 -21.581 -0.045 -21.719 -0.027 -21.814 -0.024 -21.827 -0.023 -21.924 -0.045 -21.930 -0.051 -21.833 -0.026 -21.819 -0.028 -21.638 -0.074 -21.615 -0.035 -21.618 -0.035 -21.427 -0.060 -21.447 -0.039 13.312 0.211 3.653 0.095 44.475 42.813
-5.200 -20.829 -0.035 -21.249 -0.034 -21.568 -0.046 -21.721 -0.027 -21.820 -0.024 -21.833 -0.023 -21.929 -0.046 -21.935 -0.052 -21.837 -0.025 -21.823 -0.027 -21.645 -0.073 -21.622 -0.036 -21.625 -0.035 -21.435 -0.061 -21.455 -0.040 13.226 0.204 3.695 0.094 44.474 42.799
-4.800 -20.813 -0.035 -21.233 -0.034 -21.554 -0.046 -21.722 -0.027 -21.826 -0.024 -21.839 -0.023 -21.933 -0.048 -21.940 -0.053 -21.841 -0.025 -21.827 -0.026 -21.651 -0.073 -21.629 -0.036 -21.632 -0.035 -21.442 -0.061 -21.462 -0.041 13.141 0.197 3.736 0.093 44.472 42.784
-4.400 -20.797 -0.035 -21.216 -0.033 -21.540 -0.047 -21.723 -0.027 -21.832 -0.024 -21.844 -0.024 -21.937 -0.049 -21.943 -0.054 -21.844 -0.024 -21.830 -0.026 -21.657 -0.072 -21.636 -0.036 -21.639 -0.035 -21.449 -0.062 -21.468 -0.041 13.059 0.190 3.776 0.092 44.471 42.769
-4.000 -20.780 -0.034 -21.198 -0.033 -21.525 -0.048 -21.723 -0.027 -21.837 -0.024 -21.849 -0.024 -21.941 -0.050 -21.947 -0.055 -21.846 -0.024 -21.833 -0.026 -21.662 -0.072 -21.642 -0.037 -21.644 -0.035 -21.456 -0.063 -21.474 -0.042 12.977 0.183 3.816 0.090 44.469 42.754
-3.600 -20.763 -0.034 -21.180 -0.033 -21.510 -0.048 -21.722 -0.027 -21.841 -0.024 -21.854 -0.024 -21.944 -0.051 -21.949 -0.056 -21.848 -0.024 -21.835 -0.025 -21.667 -0.072 -21.647 -0.037 -21.650 -0.035 -21.462 -0.063 -21.480 -0.043 12.897 0.176 3.854 0.089 44.467 42.738
-3.200 -20.745 -0.034 -21.161 -0.032 -21.494 -0.049 -21.721 -0.028 -21.845 -0.024 -21.858 -0.024 -21.946 -0.052 -21.951 -0.057 -21.850 -0.023 -21.837 -0.025 -21.671 -0.071 -21.652 -0.037 -21.655 -0.035 -21.468 -0.064 -21.486 -0.044 12.819 0.170 3.892 0.088 44.464 42.723
-2.800 -20.726 -0.034 -21.141 -0.032 -21.477 -0.049 -21.719 -0.028 -21.849 -0.024 -21.862 -0.024 -21.948 -0.053 -21.953 -0.058 -21.851 -0.023 -21.838 -0.025 -21.675 -0.070 -21.657 -0.037 -21.659 -0.035 -21.473 -0.065 -21.490 -0.045 12.741 0.165 3.928 0.087 44.462 42.709
-2.400 -20.707 -0.034 -21.121 -0.032 -21.460 -0.050 -21.716 -0.028 -21.853 -0.024 -21.865 -0.024 -21.949 -0.054 -21.954 -0.059 -21.852 -0.024 -21.838 -0.025 -21.678 -0.070 -21.660 -0.037 -21.663 -0.035 -21.478 -0.065 -21.495 -0.046 12.665 0.159 3.964 0.086 44.459 42.695
-2.000 -20.688 -0.033 -21.100 -0.032 -21.442 -0.051 -21.713 -0.028 -21.856 -0.025 -21.868 -0.024 -21.950 -0.055 -21.955 -0.060 -21.852 -0.024 -21.839 -0.025 -21.681 -0.069 -21.664 -0.036 -21.666 -0.035 -21.483 -0.066 -21.499 -0.047 12.589 0.155 3.999 0.086 44.457 42.683
-1.600 -20.667 -0.033 -21.078 -0.031 -21.424 -0.051 -21.709 -0.029 -21.859 -0.025 -21.871 -0.024 -21.950 -0.055 -21.955 -0.060 -21.851 -0.024 -21.839 -0.025 -21.683 -0.068 -21.667 -0.036 -21.669 -0.034 -21.487 -0.066 -21.503 -0.049 12.514 0.150 4.033 0.085 44.454 42.672
-1.200 -20.647 -0.033 -21.056 -0.031 -21.405 -0.052 -21.704 -0.029 -21.861 -0.025 -21.873 -0.025 -21.950 -0.056 -21.954 -0.061 -21.851 -0.024 -21.838 -0.026 -21.685 -0.068 -21.669 -0.036 -21.672 -0.034 -21.490 -0.067 -21.506 -0.050 12.440 0.147 4.066 0.085 44.451 42.662
-0.800 -20.625 -0.033 -21.033 -0.031 -21.385 -0.052 -21.699 -0.030 -21.863 -0.026 -21.874 -0.025 -21.949 -0.056 -21.953 -0.061 -21.850 -0.025 -21.837 -0.026 -21.687 -0.067 -21.671 -0.036 -21.674 -0.033 -21.494 -0.067 -21.509 -0.051 12.366 0.144 4.099 0.085 44.447 42.654
-0.400 -20.603 -0.033 -21.009 -0.031 -21.365 -0.053 -21.693 -0.030 -21.864 -0.026 -21.875 -0.025 -21.947 -0.057 -21.951 -0.062 -21.848 -0.025 -21.836 -0.026 -21.688 -0.066 -21.672 -0.035 -21.675 -0.033 -21.496 -0.068 -21.512 -0.053 12.293 0.141 4.131 0.085 44.444 42.648
-0.000 -20.580 -0.033 -20.985 -0.032 -21.344 -0.053 -21.687 -0.031 -21.865 -0.027 -21.876 -0.026 -21.945 -0.057 -21.949 -0.062 -21.846 -0.026 -21.834 -0.027 -21.688 -0.066 -21.673 -0.035 -21.676 -0.033 -21.499 -0.068 -21.514 -0.054 12.220 0.139 4.162 0.086 44.440 42.642
0.400 -20.557 -0.034 -20.960 -0.032 -21.323 -0.054 -21.679 -0.032 -21.865 -0.028 -21.876 -0.027 -21.943 -0.057 -21.946 -0.062 -21.844 -0.026 -21.832 -0.027 -21.688 -0.065 -21.674 -0.035 -21.676 -0.032 -21.501 -0.068 -21.516 -0.055 12.149 0.138 4.192 0.086 44.436 42.638
0.800 -20.533 -0.034 -20.934 -0.033 -21.302 -0.054 -21.672 -0.033 -21.864 -0.028 -21.875 -0.027 -21.940 -0.057 -21.943 -0.062 -21.842 -0.027 -21.830 -0.028 -21.688 -0.064 -21.673 -0.034 -21.676 -0.032 -21.503 -0.068 -21.517 -0.056 12.078 0.137 4.221 0.087 44.432 42.636
1.200 -20.509 -0.035 -20.908 -0.033 -21.279 -0.055 -21.663 -0.034 -21.863 -0.029 -21.873 -0.028 -21.936 -0.057 -21.939 -0.062 -21.839 -0.027 -21.827 -0.028 -21.687 -0.063 -21.673 -0.034 -21.676 -0.032 -21.504 -0.069 -21.518 -0.057 12.007 0.136 4.250 0.088 44.427 42.634
1.600 -20.484 -0.036 -20.881 -0.034 -21.257 -0.055 -21.654 -0.035 -21.861 -0.030 -21.871 -0.029 -21.932 -0.056 -21.935 -0.061 -21.836 -0.028 -21.824 -0.029 -21.686 -0.063 -21.672 -0.034 -21.675 -0.032 -21.505 -0.069 -21.519 -0.058 11.937 0.136 4.277 0.089 44.423 42.632
2.000 -20.458 -0.036 -20.853 -0.035 -21.233 -0.055 -21.645 -0.036 -21.859 -0.031 -21.869 -0.030 -21.928 -0.056 -21.930 -0.061 -21.832 -0.029 -21.820 -0.030 -21.684 -0.062 -21.670 -0.034 -21.673 -0.032 -21.506 -0.069 -21.520 -0.059 11.866 0.135 4.305 0.091 44.418 42.631
2.400 -20.432 -0.037 -20.825 -0.036 -21.210 -0.055 -21.635 -0.037 -21.856 -0.032 -21.866 -0.031 -21.923 -0.056 -21.925 -0.060 -21.828 -0.030 -21.817 -0.031 -21.682 -0.062 -21.668 -0.034 -21.672 -0.032 -21.506 -0.069 -21.520 -0.060 11.796 0.135 4.332 0.092 44.413 42.630
2.800 -20.405 -0.038 -20.796 -0.036 -21.186 -0.056 -21.624 -0.038 -21.853 -0.033 -21.862 -0.032 -21.917 -0.055 -21.920 -0.060 -21.824 -0.031 -21.812 -0.032 -21.679 -0.061 -21.666 -0.034 -21.669 -0.032 -21.506 -0.069 -21.520 -0.061 11.726 0.135 4.359 0.094 44.408 42.630
3.200 -20.378 -0.038 -20.767 -0.037 -21.161 -0.056 -21.613 -0.039 -21.849 -0.034 -21.858 -0.033 -21.911 -0.054 -21.914 -0.059 -21.819 -0.032 -21.808 -0.033 -21.676 -0.061 -21.663 -0.034 -21.667 -0.033 -21.506 -0.068 -21.520 -0.061 11.656 0.135 4.386 0.095 44.403 42.629
3.600 -20.350 -0.039 -20.738 -0.038 -21.136 -0.056 -21.602 -0.040 -21.845 -0.035 -21.854 -0.034 -21.905 -0.054 -21.907 -0.059 -21.814 -0.034 -21.803 -0.034 -21.673 -0.061 -21.660 -0.034 -21.664 -0.033 -21.506 -0.068 -21.519 -0.062 11.585 0.135 4.413 0.097 44.398 42.629
4.000 -20.322 -0.040 -20.707 -0.038 -21.111 -0.056 -21.589 -0.041 -21.840 -0.036 -21.849 -0.035 -21.898 -0.053 -21.900 -0.058 -21.808 -0.035 -21.798 -0.035 -21.669 -0.061 -21.656 -0.035 -21.660 -0.034 -21.505 -0.068 -21.518 -0.062 11.515 0.135 4.440 0.099 44.393 42.628
4.400 -20.293 -0.040 -20.677 -0.039 -21.085 -0.055 -21.577 -0.042 -21.835 -0.037 -21.844 -0.035 -21.891 -0.052 -21.892 -0.057 -21.803 -0.036 -21.792 -0.036 -21.665 -0.061 -21.652 -0.035 -21.656 -0.034 -21.504 -0.068 -21.517 -0.062 11.444 0.135 4.467 0.101 44.387 42.627
4.800 -20.264 -0.040 -20.646 -0.039 -21.059 -0.055 -21.564 -0.043 -21.830 -0.038 -21.838 -0.036 -21.883 -0.051 -21.885 -0.056 -21.797 -0.037 -21.786 -0.037 -21.661 -0.061 -21.648 -0.035 -21.652 -0.035 -21.502 -0.067 -21.515 -0.063 11.374 0.135 4.495 0.103 44.382 42.626
5.200 -20.235 -0.041 -20.615 -0.040 -21.032 -0.055 -21.550 -0.043 -21.824 -0.039 -21.832 -0.037 -21.875 -0.050 -21.876 -0.055 -21.790 -0.038 -21.780 -0.038 -21.656 -0.062 -21.643 -0.036 -21.648 -0.036 -21.501 -0.067 -21.514 -0.063 11.303 0.135 4.522 0.104 44.376 42.625
5.600 -20.205 -0.041 -20.583 -0.040 -21.005 -0.055 -21.536 -0.044 -21.817 -0.039 -21.825 -0.038 -21.866 -0.049 -21.867 -0.054 -21.783 -0.039 -21.774 -0.039 -21.651 -0.062 -21.638 -0.036 -21.643 -0.036 -21.499 -0.067 -21.512 -0.063 11.233 0.134 4.549 0.106 44.371 42.623
6.000 -20.175 -0.041 -20.552 -0.040 -20.978 -0.055 -21.521 -0.045 -21.810 -0.040 -21.818 -0.039 -21.857 -0.048 -21.858 -0.053 -21.776 -0.040 -21.767 -0.040 -21.645 -0.063 -21.633 -0.036 -21.638 -0.037 -21.497 -0.066 -21.510 -0.062 11.164 0.134 4.576 0.108 44.365 42.621
6.400 -20.144 -0.041 -20.519 -0.040 -20.951 -0.054 -21.506 -0.045 -21.803 -0.041 -21.811 -0.039 -21.847 -0.047 -21.849 -0.052 -21.769 -0.041 -21.759 -0.041 -21.640 -0.064 -21.628 -0.037 -21.633 -0.038 -21.494 -0.066 -21.507 -0.062 11.095 0.133 4.603 0.110 44.359 42.619
6.800 -20.114 -0.041 -20.487 -0.040 -20.923 -0.054 -21.491 -0.046 -21.795 -0.042 -21.802 -0.040 -21.838 -0.047 -21.839 -0.051 -21.761 -0.042 -21.752 -0.042 -21.634 -0.064 -21.622 -0.037 -21.628 -0.038 -21.492 -0.065 -21.504 -0.062 11.026 0.132 4.629 0.111 44.354 42.616
7.200 -20.082 -0.041 -20.454 -0.040 -20.895 -0.054 -21.475 -0.047 -21.787 -0.043 -21.794 -0.041 -21.827 -0.046 -21.828 -0.050 -21.753 -0.043 -21.744 -0.042 -21.627 -0.065 -21.617 -0.038 -21.623 -0.039 -21.489 -0.065 -21.502 -0.061 10.958 0.131 4.656 0.113 44.348 42.613
7.600 -20.051 -0.042 -20.421 -0.040 -20.867 -0.054 -21.459 -0.048 -21.778 -0.044 -21.785 -0.042 -21.817 -0.045 -21.818 -0.049 -21.745 -0.044 -21.736 -0.043 -21.620 -0.066 -21.611 -0.039 -21.617 -0.040 -21.486 -0.064 -21.498 -0.060 10.891 0.130 4.681 0.114 44.342 42.610
8.000 -20.019 -0.042 -20.388 -0.040 -20.838 -0.054 -21.442 -0.048 -21.768 -0.045 -21.775 -0.043 -21.806 -0.044 -21.807 -0.048 -21.736 -0.045 -21.727 -0.044 -21.613 -0.067 -21.605 -0.039 -21.611 -0.040 -21.482 -0.064 -21.495 -0.060 10.825 0.129 4.706 0.115 44.336 42.606
8.400 -19.988 -0.042 -20.354 -0.040 -20.810 -0.054 -21.425 -0.049 -21.758 -0.046 -21.765 -0.044 -21.794 -0.043 -21.795 -0.047 -21.727 -0.046 -21.719 -0.045 -21.606 -0.068 -21.599 -0.040 -21.605 -0.041 -21.479 -0.064 -21.491 -0.059 10.760 0.127 4.731 0.116 44.330 42.602
8.800 -19.956 -0.042 -20.321 -0.040 -20.781 -0.055 -21.408 -0.050 -21.748 -0.047 -21.755 -0.045 -21.782 -0.043 -21.783 -0.046 -21.718 -0.047 -21.710 -0.047 -21.599 -0.068 -21.592 -0.040 -21.599 -0.041 -21.475 -0.063 -21.488 -0.058 10.696 0.126 4.754 0.117 44.324 42.598
9.200 -19.923 -0.043 -20.287 -0.040 -20.751 -0.055 -21.390 -0.052 -21.737 -0.048 -21.744 -0.046 -21.770 -0.042 -21.771 -0.045 -21.708 -0.048 -21.700 -0.048 -21.591 -0.069 -21.586 -0.041 -21.592 -0.042 -21.471 -0.063 -21.484 -0.057 10.634 0.125 4.777 0.118 44.318 42.593
9.600 -19.891 -0.043 -20.252 -0.041 -20.722 -0.056 -21.372 -0.053 -21.725 -0.049 -21.732 -0.047 -21.758 -0.041 -21.759 -0.044 -21.699 -0.050 -21.690 -0.049 -21.583 -0.070 -21.579 -0.041 -21.586 -0.042 -21.467 -0.063 -21.479 -0.056 10.572 0.124 4.798 0.119 44.312 42.589
10.000 -19.859 -0.044 -20.218 -0.041 -20.692 -0.056 -21.354 -0.054 -21.713 -0.051 -21.720 -0.048 -21.745 -0.040 -21.746 -0.043 -21.688 -0.051 -21.680 -0.050 -21.574 -0.071 -21.572 -0.042 -21.579 -0.043 -21.463 -0.062 -21.475 -0.055 10.512 0.124 4.818 0.119 44.305 42.584
10.400 -19.826 -0.045 -20.184 -0.042 -20.663 -0.058 -21.335 -0.056 -21.701 -0.052 -21.707 -0.050 -21.731 -0.040 -21.732 -0.041 -21.678 -0.053 -21.670 -0.052 -21.566 -0.072 -21.565 -0.042 -21.572 -0.043 -21.458 -0.062 -21.470 -0.053 10.454 0.123 4.838 0.120 44.299 42.578
10.800 -19.793 -0.046 -20.149 -0.043 -20.633 -0.059 -21.316 -0.058 -21.688 -0.054 -21.694 -0.051 -21.718 -0.039 -21.719 -0.040 -21.667 -0.054 -21.659 -0.053 -21.557 -0.073 -21.558 -0.043 -21.565 -0.043 -21.454 -0.062 -21.465 -0.052 10.397 0.123 4.856 0.120 44.293 42.573
11.200 -19.761 -0.048 -20.114 -0.044 -20.602 -0.060 -21.296 -0.060 -21.674 -0.056 -21.680 -0.053 -21.703 -0.038 -21.705 -0.039 -21.656 -0.056 -21.649 -0.055 -21.548 -0.073 -21.550 -0.043 -21.558 -0.044 -21.449 -0.061 -21.460 -0.051 10.341 0.123 4.873 0.121 44.287 42.567
11.600 -19.728 -0.050 -20.079 -0.046 -20.572 -0.062 -21.276 -0.062 -21.660 -0.058 -21.666 -0.055 -21.689 -0.037 -21.690 -0.038 -21.644 -0.058 -21.637 -0.057 -21.539 -0.074 -21.543 -0.043 -21.551 -0.044 -21.444 -0.061 -21.455 -0.050 10.287 0.123 4.889 0.121 44.280 42.560
12.000 -19.695 -0.052 -20.043 -0.048 -20.541 -0.064 -21.256 -0.064 -21.646 -0.060 -21.652 -0.057 -21.674 -0.037 -21.675 -0.037 -21.633 -0.060 -21.626 -0.059 -21.529 -0.075 -21.535 -0.043 -21.543 -0.044 -21.438 -0.060 -21.450 -0.048 10.233 0.124 4.904 0.122 44.274 42.553
12.400 -19.663 -0.054 -20.008 -0.050 -20.511 -0.066 -21.235 -0.067 -21.631 -0.062 -21.637 -0.059 -21.659 -0.036 -21.660 -0.036 -21.621 -0.062 -21.614 -0.061 -21.520 -0.075 -21.527 -0.043 -21.536 -0.044 -21.433 -0.060 -21.444 -0.047 10.181 0.124 4.918 0.122 44.268 42.545
12.800 -19.630 -0.056 -19.972 -0.052 -20.480 -0.068 -21.214 -0.069 -21.615 -0.064 -21.621 -0.061 -21.643 -0.035 -21.645 -0.035 -21.608 -0.064 -21.602 -0.063 -21.510 -0.076 -21.519 -0.043 -21.528 -0.043 -21.427 -0.060 -21.438 -0.046 10.130 0.125 4.931 0.122 44.261 42.537
13.200 -19.597 -0.059 -19.937 -0.054 -20.448 -0.071 -21.193 -0.072 -21.599 -0.066 -21.605 -0.063 -21.627 -0.035 -21.629 -0.034 -21.596 -0.066 -21.590 -0.065 -21.500 -0.076 -21.510 -0.043 -21.520 -0.043 -21.421 -0.059 -21.432 -0.045 10.081 0.125 4.942 0.122 44.255 42.527
13.600 -19.564 -0.061 -19.901 -0.056 -20.417 -0.073 -21.172 -0.075 -21.583 -0.068 -21.589 -0.065 -21.611 -0.034 -21.613 -0.033 -21.583 -0.068 -21.577 -0.067 -21.490 -0.077 -21.502 -0.043 -21.511 -0.043 -21.415 -0.059 -21.426 -0.044 10.031 0.125 4.954 0.122 44.248 42.517
14.000 -19.531 -0.064 -19.865 -0.059 -20.386 -0.076 -21.150 -0.077 -21.566 -0.071 -21.572 -0.067 -21.594 -0.034 -21.596 -0.033 -21.570 -0.070 -21.564 -0.070 -21.479 -0.077 -21.493 -0.042 -21.503 -0.043 -21.409 -0.059 -21.419 -0.043 9.983 0.125 4.963 0.121 44.241 42.506
14.400 -19.498 -0.066 -19.829 -0.061 -20.354 -0.078 -21.128 -0.080 -21.549 -0.073 -21.555 -0.070 -21.577 -0.034 -21.580 -0.032 -21.557 -0.072 -21.551 -0.072 -21.469 -0.077 -21.484 -0.042 -21.495 -0.042 -21.403 -0.059 -21.413 -0.042 9.936 0.124 4.971 0.120 44.235 42.493
14.800 -19.465 -0.069 -19.794 -0.064 -20.322 -0.081 -21.106 -0.083 -21.532 -0.075 -21.537 -0.072 -21.560 -0.034 -21.562 -0.032 -21.544 -0.075 -21.538 -0.074 -21.458 -0.078 -21.475 -0.042 -21.486 -0.042 -21.396 -0.058 -21.406 -0.041 9.889 0.123 4.979 0.119 44.228 42.480
15.200 -19.432 -0.072 -19.758 -0.067 -20.290 -0.083 -21.083 -0.086 -21.514 -0.077 -21.519 -0.074 -21.542 -0.034 -21.545 -0.032 -21.530 -0.077 -21.525 -0.076 -21.447 -0.078 -21.466 -0.041 -21.477 -0.042 -21.389 -0.058 -21.399 -0.041 9.842 0.122 4.985 0.118 44.221 42.465
15.600 -19.399 -0.074 -19.722 -0.069 -20.258 -0.086 -21.060 -0.089 -21.496 -0.080 -21.501 -0.076 -21.524 -0.034 -21.527 -0.032 -21.516 -0.079 -21.511 -0.078 -21.436 -0.078 -21.457 -0.041 -21.468 -0.042 -21.382 -0.059 -21.392 -0.041 9.796 0.120 4.992 0.116 44.213 42.450
16.000 -19.366 -0.077 -19.686 -0.072 -20.226 -0.089 -21.037 -0.092 -21.477 -0.082 -21.483 -0.079 -21.506 -0.035 -21.509 -0.033 -21.503 -0.081 -21.497 -0.080 -21.425 -0.078 -21.448 -0.041 -21.459 -0.042 -21.375 -0.059 -21.384 -0.040 9.749 0.118 4.998 0.114 44.206 42.433
16.400 -19.333 -0.080 -19.650 -0.075 -20.193 -0.091 -21.014 -0.095 -21.458 -0.084 -21.464 -0.081 -21.488 -0.035 -21.491 -0.033 -21.489 -0.083 -21.483 -0.082 -21.413 -0.077 -21.438 -0.041 -21.450 -0.042 -21.368 -0.059 -21.377 -0.040 9.702 0.116 5.004 0.112 44.199 42.417
16.800 -19.299 -0.082 -19.614 -0.077 -20.161 -0.094 -20.990 -0.097 -21.439 -0.087 -21.445 -0.083 -21.469 -0.036 -21.473 -0.034 -21.474 -0.085 -21.469 -0.084 -21.402 -0.077 -21.428 -0.041 -21.440 -0.042 -21.361 -0.059 -21.369 -0.040 9.655 0.114 5.010 0.110 44.192 42.399
17.200 -19.266 -0.085 -19.578 -0.080 -20.128 -0.097 -20.966 -0.100 -21.420 -0.089 -21.426 -0.085 -21.450 -0.037 -21.454 -0.035 -21.460 -0.087 -21.455 -0.086 -21.390 -0.077 -21.419 -0.041 -21.431 -0.042 -21.354 -0.060 -21.361 -0.040 9.608 0.111 5.017 0.108 44.184 42.382
17.600 -19.233 -0.088 -19.543 -0.082 -20.095 -0.099 -20.942 -0.103 -21.400 -0.091 -21.406 -0.088 -21.431 -0.038 -21.436 -0.035 -21.446 -0.089 -21.441 -0.088 -21.378 -0.076 -21.409 -0.040 -21.421 -0.042 -21.346 -0.061 -21.353 -0.040 9.560 0.108 5.024 0.106 44.177 42.364
18.000 -19.200 -0.090 -19.507 -0.085 -20.063 -0.102 -20.918 -0.106 -21.381 -0.094 -21.386 -0.090 -21.412 -0.039 -21.417 -0.036 -21.431 -0.090 -21.427 -0.089 -21.366 -0.076 -21.399 -0.041 -21.412 -0.042 -21.339 -0.062 -21.345 -0.040 9.512 0.106 5.032 0.104 44.169 42.346
18.400 -19.167 -0.093 -19.471 -0.087 -20.030 -0.104 -20.893 -0.109 -21.360 -0.096 -21.366 -0.092 -21.393 -0.040 -21.398 -0.037 -21.416 -0.092 -21.412 -0.091 -21.354 -0.075 -21.389 -0.041 -21.402 -0.042 -21.331 -0.063 -21.337 -0.040 9.464 0.103 5.040 0.102 44.162 42.329
18.800 -19.134 -0.095 -19.435 -0.089 -19.997 -0.107 -20.869 -0.111 -21.340 -0.098 -21.346 -0.094 -21.374 -0.041 -21.379 -0.038 -21.402 -0.094 -21.398 -0.093 -21.342 -0.074 -21.379 -0.041 -21.392 -0.042 -21.323 -0.064 -21.329 -0.040 9.416 0.101 5.048 0.100 44.155 42.312
19.200 -19.101 -0.097 -19.400 -0.092 -19.963 -0.109 -20.844 -0.114 -21.320 -0.100 -21.326 -0.096 -21.355 -0.042 -21.360 -0.039 -21.387 -0.095 -21.383 -0.094 -21.330 -0.073 -21.369 -0.041 -21.383 -0.042 -21.315 -0.065 -21.321 -0.040 9.368 0.099 5.057 0.099 44.147 42.296
19.600 -19.068 -0.099 -19.364 -0.094 -19.930 -0.111 -20.819 -0.116 -21.299 -0.102 -21.305 -0.098 -21.335 -0.043 -21.341 -0.040 -21.372 -0.097 -21.368 -0.095 -21.318 -0.072 -21.359 -0.041 -21.373 -0.043 -21.307 -0.067 -21.313 -0.040 9.321 0.097 5.065 0.097 44.140 42.281
20.000 -19.034 -0.101 -19.329 -0.096 -19.897 -0.114 -20.793 -0.119 -21.278 -0.105 -21.284 -0.101 -21.316 -0.044 -21.321 -0.041 -21.357 -0.098 -21.354 -0.097 -21.306 -0.071 -21.349 -0.041 -21.363 -0.043 -21.299 -0.069 -21.304 -0.040 9.273 0.095 5.074 0.096 44.132 42.267
20.400 -19.001 -0.103 -19.293 -0.098 -19.864 -0.116 -20.768 -0.121 -21.257 -0.107 -21.263 -0.103 -21.296 -0.046 -21.302 -0.042 -21.342 -0.099 -21.339 -0.098 -21.293 -0.069 -21.339 -0.042 -21.352 -0.044 -21.291 -0.070 -21.296 -0.041 9.226 0.093 5.083 0.096 44.125 42.254
20.800 -18.968 -0.105 -19.258 -0.100 -19.830 -0.118 -20.742 -0.124 -21.236 -0.109 -21.242 -0.105 -21.277 -0.047 -21.283 -0.044 -21.327 -0.101 -21.324 -0.099 -21.281 -0.068 -21.328 -0.042 -21.342 -0.044 -21.283 -0.072 -21.287 -0.041 9.179 0.092 5.092 0.096 44.118 42.244
21.200 -18.935 -0.107 -19.222 -0.101 -19.797 -0.120 -20.717 -0.126 -21.215 -0.111 -21.221 -0.107 -21.257 -0.049 -21.264 -0.045 -21.312 -0.102 -21.309 -0.100 -21.268 -0.066 -21.317 -0.042 -21.332 -0.045 -21.275 -0.074 -21.279 -0.042 9.133 0.092 5.100 0.096 44.110 42.236
21.600 -18.903 -0.108 -19.187 -0.103 -19.763 -0.122 -20.691 -0.128 -21.193 -0.113 -21.200 -0.109 -21.238 -0.051 -21.244 -0.046 -21.297 -0.103 -21.294 -0.101 -21.255 -0.065 -21.307 -0.043 -21.321 -0.046 -21.267 -0.076 -21.270 -0.043 9.088 0.091 5.108 0.097 44.103 42.229
22.000 -18.870 -0.110 -19.152 -0.104 -19.730 -0.124 -20.665 -0.130 -21.172 -0.115 -21.178 -0.111 -21.218 -0.052 -21.225 -0.048 -21.282 -0.104 -21.279 -0.102 -21.243 -0.063 -21.296 -0.044 -21.311 -0.048 -21.259 -0.078 -21.262 -0.045 9.043 0.092 5.115 0.098 44.096 42.225
22.400 -18.837 -0.111 -19.116 -0.106 -19.696 -0.125 -20.639 -0.132 -21.150 -0.117 -21.157 -0.113 -21.198 -0.054 -21.206 -0.050 -21.267 -0.105 -21.264 -0.103 -21.230 -0.061 -21.285 -0.045 -21.300 -0.049 -21.250 -0.081 -21.253 -0.047 9.000 0.092 5.121 0.100 44.088 42.224
22.800 -18.804 -0.112 -19.081 -0.107 -19.663 -0.127 -20.612 -0.134 -21.128 -0.119 -21.135 -0.115 -21.179 -0.056 -21.187 -0.052 -21.251 -0.105 -21.249 -0.104 -21.217 -0.058 -21.274 -0.046 -21.289 -0.051 -21.242 -0.083 -21.245 -0.049 8.957 0.093 5.126 0.102 44.081 42.224
23.200 -18.771 -0.113 -19.046 -0.108 -19.629 -0.128 -20.586 -0.136 -21.107 -0.121 -21.113 -0.117 -21.159 -0.059 -21.168 -0.054 -21.236 -0.106 -21.234 -0.104 -21.204 -0.056 -21.263 -0.047 -21.278 -0.053 -21.234 -0.086 -21.236 -0.052 8.916 0.094 5.129 0.105 44.074 42.226
23.600 -18.739 -0.114 -19.011 -0.109 -19.595 -0.130 -20.559 -0.138 -21.085 -0.123 -21.092 -0.119 -21.140 -0.061 -21.149 -0.057 -21.221 -0.107 -21.219 -0.105 -21.192 -0.054 -21.251 -0.049 -21.267 -0.055 -21.225 -0.088 -21.228 -0.055 8.877 0.095 5.131 0.107 44.066 42.229
24.000 -18.706 -0.115 -18.977 -0.110 -19.562 -0.131 -20.533 -0.139 -21.063 -0.125 -21.070 -0.121 -21.120 -0.064 -21.130 -0.060 -21.206 -0.107 -21.205 -0.105 -21.179 -0.051 -21.240 -0.051 -21.256 -0.057 -21.217 -0.091 -21.219 -0.058 8.839 0.097 5.131 0.111 44.059 42.233
24.400 -18.674 -0.116 -18.942 -0.111 -19.528 -0.132 -20.506 -0.141 -21.041 -0.126 -21.048 -0.122 -21.101 -0.066 -21.111 -0.062 -21.191 -0.108 -21.190 -0.106 -21.166 -0.048 -21.229 -0.053 -21.244 -0.060 -21.209 -0.094 -21.211 -0.062 8.802 0.098 5.129 0.114 44.051 42.237
24.800 -18.641 -0.116 -18.907 -0.111 -19.495 -0.134 -20.479 -0.142 -21.019 -0.128 -21.026 -0.124 -21.082 -0.069 -21.092 -0.065 -21.176 -0.108 -21.175 -0.106 -21.153 -0.046 -21.217 -0.055 -21.233 -0.063 -21.200 -0.098 -21.202 -0.066 8.767 0.100 5.125 0.117 44.044 42.241
25.200 -18.609 -0.117 -18.873 -0.112 -19.461 -0.135 -20.452 -0.144 -20.997 -0.130 -21.004 -0.126 -21.062 -0.072 -21.073 -0.068 -21.161 -0.109 -21.160 -0.106 -21.141 -0.043 -21.205 -0.057 -21.222 -0.065 -21.192 -0.101 -21.194 -0.070 8.734 0.102 5.119 0.120 44.036 42.243
25.600 -18.577 -0.117 -18.838 -0.112 -19.428 -0.136 -20.425 -0.145 -20.974 -0.132 -20.982 -0.128 -21.043 -0.075 -21.054 -0.071 -21.146 -0.109 -21.145 -0.106 -21.128 -0.040 -21.194 -0.059 -21.210 -0.068 -21.183 -0.104 -21.186 -0.074 8.702 0.103 5.110 0.122 44.028 42.244
26.000 -18.545 -0.117 -18.804 -0.112 -19.394 -0.136 -20.398 -0.146 -20.952 -0.134 -20.960 -0.130 -21.024 -0.078 -21.036 -0.075 -21.131 -0.109 -21.131 -0.107 -21.115 -0.037 -21.182 -0.062 -21.198 -0.072 -21.175 -0.108 -21.177 -0.079 8.671 0.105 5.101 0.124 44.020 42.242
26.400 -18.513 -0.117 -18.770 -0.112 -19.361 -0.137 -20.371 -0.148 -20.930 -0.136 -20.938 -0.132 -21.005 -0.081 -21.017 -0.078 -21.117 -0.109 -21.116 -0.107 -21.103 -0.034 -21.170 -0.065 -21.187 -0.075 -21.166 -0.112 -21.169 -0.084 8.641 0.106 5.090 0.126 44.013 42.238
26.800 -18.481 -0.117 -18.735 -0.112 -19.327 -0.138 -20.344 -0.149 -20.908 -0.137 -20.916 -0.134 -20.986 -0.084 -20.998 -0.081 -21.102 -0.109 -21.102 -0.107 -21.090 -0.032 -21.159 -0.068 -21.175 -0.078 -21.158 -0.115 -21.160 -0.088 8.612 0.107 5.080 0.127 44.005 42.231
27.200 -18.449 -0.117 -18.701 -0.112 -19.294 -0.138 -20.317 -0.150 -20.886 -0.139 -20.895 -0.136 -20.967 -0.088 -20.980 -0.084 -21.087 -0.109 -21.087 -0.107 -21.077 -0.029 -21.147 -0.071 -21.163 -0.082 -21.149 -0.119 -21.152 -0.093 8.583 0.108 5.070 0.128 43.997 42.223
27.600 -18.417 -0.116 -18.668 -0.111 -19.261 -0.139 -20.290 -0.151 -20.864 -0.141 -20.873 -0.137 -20.948 -0.091 -20.961 -0.088 -21.073 -0.109 -21.073 -0.106 -21.065 -0.028 -21.135 -0.074 -21.152 -0.085 -21.141 -0.123 -21.143 -0.099 8.553 0.108 5.063 0.128 43.990 42.214
28.000 -18.386 -0.116 -18.634 -0.111 -19.227 -0.139 -20.262 -0.152 -20.841 -0.143 -20.851 -0.139 -20.929 -0.094 -20.943 -0.091 -21.058 -0.109 -21.058 -0.106 -21.053 -0.027 -21.123 -0.077 -21.140 -0.089 -21.133 -0.128 -21.135 -0.104 8.522 0.108 5.059 0.129 43.983 42.209
28.400 -18.354 -0.115 -18.600 -0.110 -19.194 -0.140 -20.235 -0.153 -20.819 -0.145 -20.829 -0.141 -20.910 -0.098 -20.925 -0.094 -21.044 -0.109 -21.044 -0.106 -21.041 -0.027 -21.112 -0.081 -21.128 -0.092 -21.124 -0.132 -21.127 -0.109 8.489 0.109 5.059 0.131 43.976 42.210
28.800 -18.323 -0.114 -18.567 -0.109 -19.161 -0.140 -20.208 -0.153 -20.797 -0.146 -20.807 -0.143 -20.891 -0.101 -20.906 -0.098 -21.029 -0.109 -21.030 -0.106 -21.028 -0.028 -21.100 -0.084 -21.116 -0.096 -21.116 -0.136 -21.118 -0.114 8.456 0.109 5.061 0.134 43.970 42.220
29.200 -18.291 -0.114 -18.533 -0.109 -19.128 -0.140 -20.180 -0.154 -20.775 -0.148 -20.785 -0.145 -20.872 -0.104 -20.888 -0.101 -21.015 -0.109 -21.016 -0.106 -21.017 -0.030 -21.088 -0.088 -21.105 -0.100 -21.107 -0.141 -21.110 -0.120 8.423 0.110 5.066 0.139 43.964 42.237
29.600 -18.260 -0.113 -18.500 -0.108 -19.096 -0.140 -20.153 -0.155 -20.753 -0.150 -20.763 -0.147 -20.854 -0.108 -20.870 -0.105 -21.001 -0.108 -21.002 -0.105 -21.005 -0.032 -21.076 -0.092 -21.093 -0.104 -21.099 -0.145 -21.102 -0.125 8.389 0.112 5.071 0.145 43.958 42.259
30.000 -18.229 -0.111 -18.467 -0.106 -19.063 -0.140 -20.125 -0.155 -20.731 -0.152 -20.741 -0.149 -20.835 -0.111 -20.852 -0.108 -20.987 -0.108 -20.988 -0.105 -20.993 -0.035 -21.065 -0.096 -21.081 -0.108 -21.090 -0.150 -21.093 -0.131 8.357 0.113 5.075 0.152 43.952 42.285
30.400 -18.198 -0.110 -18.434 -0.105 -19.030 -0.140 -20.098 -0.156 -20.709 -0.154 -20.719 -0.151 -20.817 -0.114 -20.834 -0.111 -20.973 -0.108 -20.974 -0.105 -20.981 -0.039 -21.053 -0.100 -21.070 -0.112 -21.082 -0.154 -21.085 -0.136 8.325 0.115 5.079 0.159 43.946 42.311
30.800 -18.167 -0.109 -18.401 -0.104 -18.998 -0.140 -20.071 -0.156 -20.687 -0.155 -20.698 -0.152 -20.798 -0.118 -20.816 -0.115 -20.959 -0.108 -20.960 -0.105 -20.970 -0.043 -21.042 -0.104 -21.058 -0.116 -21.073 -0.159 -21.077 -0.142 8.295 0.117 5.080 0.167 43.940 42.338
31.200 -18.137 -0.108 -18.368 -0.102 -18.965 -0.140 -20.043 -0.157 -20.665 -0.157 -20.676 -0.154 -20.780 -0.121 -20.798 -0.118 -20.945 -0.108 -20.947 -0.104 -20.958 -0.047 -21.030 -0.108 -21.047 -0.120 -21.065 -0.164 -21.068 -0.148 8.266 0.120 5.080 0.176 43.934 42.363
31.600 -18.106 -0.106 -18.336 -0.101 -18.933 -0.140 -20.016 -0.157 -20.643 -0.159 -20.654 -0.156 -20.761 -0.124 -20.780 -0.122 -20.931 -0.107 -20.933 -0.104 -20.947 -0.052 -21.018 -0.112 -21.035 -0.125 -21.056 -0.169 -21.060 -0.153 8.239 0.122 5.077 0.184 43.928 42.387
32.000 -18.076 -0.105 -18.303 -0.099 -18.901 -0.140 -19.989 -0.158 -20.621 -0.161 -20.633 -0.158 -20.743 -0.128 -20.763 -0.125 -20.918 -0.107 -20.920 -0.104 -20.936 -0.056 -21.007 -0.116 -21.023 -0.129 -21.048 -0.174 -21.052 -0.159 8.213 0.124 5.073 0.193 43.921 42.410
32.400 -18.045 -0.104 -18.271 -0.098 -18.869 -0.139 -19.962 -0.158 -20.599 -0.163 -20.611 -0.160 -20.725 -0.131 -20.745 -0.128 -20.904 -0.107 -20.906 -0.104 -20.925 -0.061 -20.996 -0.121 -21.012 -0.133 -21.039 -0.179 -21.043 -0.165 8.188 0.127 5.067 0.202 43.915 42.431
32.800 -18.015 -0.102 -18.239 -0.096 -18.837 -0.139 -19.934 -0.159 -20.578 -0.165 -20.590 -0.162 -20.707 -0.134 -20.727 -0.132 -20.891 -0.107 -20.893 -0.104 -20.914 -0.066 -20.984 -0.125 -21.001 -0.138 -21.031 -0.184 -21.035 -0.171 8.164 0.129 5.059 0.211 43.908 42.451
33.200 -17.985 -0.101 -18.207 -0.095 -18.805 -0.139 -19.907 -0.159 -20.556 -0.167 -20.569 -0.164 -20.688 -0.138 -20.710 -0.135 -20.877 -0.107 -20.880 -0.104 -20.903 -0.071 -20.973 -0.129 -20.989 -0.142 -21.023 -0.189 -21.027 -0.177 8.141 0.132 5.049 0.220 43.902 42.470
33.600 -17.955 -0.099 -18.175 -0.093 -18.773 -0.139 -19.880 -0.160 -20.534 -0.169 -20.547 -0.166 -20.670 -0.141 -20.692 -0.139 -20.864 -0.107 -20.867 -0.104 -20.892 -0.075 -20.962 -0.134 -20.978 -0.147 -21.014 -0.194 -21.018 -0.182 8.119 0.134 5.038 0.228 43.895 42.488
34.000 -17.925 -0.098 -18.144 -0.091 -18.742 -0.139 -19.853 -0.160 -20.513 -0.171 -20.526 -0.168 -20.652 -0.145 -20.675 -0.142 -20.851 -0.107 -20.854 -0.104 -20.881 -0.080 -20.951 -0.138 -20.967 -0.151 -21.006 -0.199 -21.010 -0.188 8.097 0.137 5.026 0.237 43.889 42.504
34.400 -17.896 -0.097 -18.112 -0.090 -18.711 -0.138 -19.826 -0.161 -20.492 -0.173 -20.505 -0.171 -20.635 -0.148 -20.658 -0.145 -20.838 -0.108 -20.841 -0.104 -20.870 -0.085 -20.940 -0.143 -20.955 -0.156 -20.997 -0.204 -21.002 -0.194 8.076 0.139 5.013 0.246 43.882 42.520
34.800 -17.866 -0.096 -18.081 -0.088 -18.680 -0.138 -19.799 -0.162 -20.470 -0.175 -20.484 -0.173 -20.617 -0.151 -20.640 -0.149 -20.824 -0.108 -20.828 -0.105 -20.859 -0.090 -20.928 -0.147 -20.944 -0.160 -20.989 -0.209 -20.994 -0.200 8.056 0.142 5.000 0.254 43.875 42.534
35.200 -17.837 -0.095 -18.050 -0.087 -18.649 -0.138 -19.772 -0.162 -20.449 -0.177 -20.463 -0.175 -20.599 -0.155 -20.623 -0.152 -20.811 -0.108 -20.815 -0.105 -20.849 -0.095 -20.917 -0.152 -20.933 -0.165 -20.981 -0.215 -20.986 -0.206 8.036 0.144 4.986 0.263 43.868 42.548
35.600 -17.808 -0.094 -18.019 -0.086 -18.618 -0.138 -19.745 -0.163 -20.428 -0.179 -20.442 -0.177 -20.581 -0.158 -20.606 -0.156 -20.799 -0.109 -20.802 -0.106 -20.838 -0.100 -20.907 -0.157 -20.922 -0.169 -20.972 -0.220 -20.977 -0.212 8.016 0.146 4.972 0.272 43.862 42.560
36.000 -17.779 -0.093 -17.989 -0.085 -18.587 -0.138 -19.718 -0.164 -20.407 -0.181 -20.421 -0.180 -20.564 -0.161 -20.589 -0.159 -20.786 -0.110 -20.790 -0.107 -20.828 -0.105 -20.896 -0.161 -20.911 -0.174 -20.964 -0.225 -20.969 -0.218 7.996 0.149 4.958 0.280 43.855 42.572
36.400 -17.750 -0.093 -17.958 -0.084 -18.557 -0.139 -19.692 -0.165 -20.386 -0.184 -20.400 -0.182 -20.546 -0.165 -20.572 -0.162 -20.773 -0.111 -20.777 -0.108 -20.817 -0.110 -20.885 -0.166 -20.900 -0.179 -20.955 -0.230 -20.961 -0.224 7.976 0.151 4.944 0.288 43.848 42.582
36.800 -17.721 -0.093 -17.928 -0.084 -18.526 -0.139 -19.665 -0.166 -20.365 -0.186 -20.380 -0.184 -20.529 -0.168 -20.555 -0.166 -20.760 -0.112 -20.765 -0.109 -20.807 -0.115 -20.874 -0.171 -20.890 -0.183 -20.947 -0.236 -20.953 -0.229 7.956 0.154 4.930 0.297 43.841 42.592
37.200 -17.692 -0.093 -17.898 -0.083 -18.496 -0.139 -19.639 -0.167 -20.344 -0.188 -20.359 -0.187 -20.512 -0.171 -20.539 -0.169 -20.747 -0.114 -20.752 -0.111 -20.796 -0.120 -20.864 -0.176 -20.879 -0.188 -20.939 -0.241 -20.945 -0.235 7.935 0.157 4.917 0.305 43.834 42.601
37.600 -17.664 -0.093 -17.869 -0.084 -18.466 -0.140 -19.612 -0.168 -20.323 -0.191 -20.339 -0.189 -20.494 -0.175 -20.522 -0.173 -20.735 -0.115 -20.740 -0.112 -20.786 -0.125 -20.853 -0.180 -20.868 -0.193 -20.930 -0.246 -20.936 -0.241 7.913 0.159 4.906 0.313 43.828 42.609
38.000 -17.635 -0.094 -17.839 -0.084 -18.437 -0.141 -19.586 -0.170 -20.303 -0.193 -20.318 -0.192 -20.477 -0.178 -20.505 -0.176 -20.722 -0.117 -20.727 -0.114 -20.776 -0.130 -20.842 -0.185 -20.857 -0.197 -20.922 -0.251 -20.928 -0.247 7.892 0.162 4.895 0.321 43.821 42.616
38.400 -17.607 -0.096 -17.810 -0.085 -18.407 -0.142 -19.560 -0.171 -20.282 -0.196 -20.298 -0.195 -20.460 -0.182 -20.489 -0.179 -20.710 -0.119 -20.715 -0.116 -20.766 -0.135 -20.832 -0.190 -20.847 -0.202 -20.914 -0.257 -20.920 -0.253 7.869 0.165 4.886 0.329 43.814 42.622
38.800 -17.578 -0.097 -17.781 -0.086 -18.378 -0.143 -19.533 -0.173 -20.262 -0.199 -20.278 -0.197 -20.443 -0.185 -20.472 -0.183 -20.697 -0.121 -20.703 -0.119 -20.756 -0.140 -20.822 -0.195 -20.836 -0.207 -20.905 -0.262 -20.912 -0.259 7.845 0.168 4.878 0.336 43.808 42.627
39.200 -17.550 -0.099 -17.752 -0.088 -18.349 -0.144 -19.508 -0.175 -20.241 -0.201 -20.258 -0.200 -20.426 -0.189 -20.456 -0.186 -20.685 -0.124 -20.691 -0.121 -20.746 -0.145 -20.811 -0.200 -20.826 -0.211 -20.897 -0.267 -20.904 -0.264 7.821 0.170 4.871 0.344 43.801 42.631
39.600 -17.522 -0.102 -17.723 -0.090 -18.320 -0.146 -19.482 -0.177 -20.221 -0.204 -20.238 -0.203 -20.409 -0.192 -20.439 -0.190 -20.672 -0.126 -20.678 -0.124 -20.736 -0.150 -20.801 -0.204 -20.816 -0.216 -20.889 -0.273 -20.896 -0.270 7.796 0.173 4.866 0.351 43.795 42.635
40.000 -17.494 -0.104 -17.695 -0.092 -18.291 -0.148 -19.456 -0.179 -20.201 -0.207 -20.218 -0.206 -20.393 -0.196 -20.423 -0.193 -20.660 -0.129 -20.666 -0.127 -20.726 -0.155 -20.791 -0.209 -20.805 -0.221 -20.881 -0.278 -20.888 -0.276 7.770 0.176 4.863 0.359 43.788 42.638
40.400 -17.466 -0.107 -17.667 -0.095 -18.262 -0.149 -19.430 -0.181 -20.181 -0.210 -20.198 -0.209 -20.376 -0.199 -20.407 -0.197 -20.648 -0.132 -20.654 -0.130 -20.716 -0.160 -20.781 -0.214 -20.795 -0.226 -20.872 -0.283 -20.880 -0.282 7.743 0.179 4.861 0.366 43.782 42.640
40.800 -17.438 -0.111 -17.639 -0.098 -18.234 -0.152 -19.405 -0.184 -20.161 -0.213 -20.179 -0.212 -20.359 -0.203 -20.391 -0.200 -20.636 -0.136 -20.642 -0.134 -20.706 -0.165 -20.771 -0.219 -20.785 -0.230 -20.864 -0.288 -20.872 -0.287 7.716 0.182 4.862 0.373 43.776 42.641
41.200 -17.410 -0.114 -17.611 -0.101 -18.206 -0.154 -19.379 -0.186 -20.141 -0.216 -20.159 -0.215 -20.343 -0.206 -20.375 -0.204 -20.623 -0.139 -20.630 -0.137 -20.696 -0.170 -20.761 -0.224 -20.775 -0.235 -20.856 -0.294 -20.864 -0.293 7.688 0.184 4.863 0.380 43.770 42.643
41.600 -17.382 -0.118 -17.583 -0.105 -18.177 -0.156 -19.354 -0.189 -20.121 -0.219 -20.140 -0.218 -20.326 -0.210 -20.359 -0.207 -20.611 -0.143 -20.618 -0.141 -20.686 -0.175 -20.751 -0.229 -20.765 -0.240 -20.848 -0.299 -20.856 -0.299 7.659 0.187 4.867 0.386 43.764 42.643
42.000 -17.355 -0.122 -17.556 -0.108 -18.150 -0.159 -19.329 -0.192 -20.102 -0.222 -20.120 -0.222 -20.310 -0.213 -20.343 -0.211 -20.599 -0.146 -20.606 -0.145 -20.677 -0.180 -20.741 -0.233 -20.755 -0.245 -20.839 -0.304 -20.848 -0.305 7.629 0.190 4.872 0.393 43.758 42.643
42.400 -17.327 -0.127 -17.528 -0.113 -18.122 -0.162 -19.304 -0.195 -20.082 -0.226 -20.101 -0.225 -20.294 -0.217 -20.328 -0.214 -20.587 -0.150 -20.595 -0.149 -20.667 -0.185 -20.731 -0.238 -20.745 -0.249 -20.831 -0.309 -20.840 -0.310 7.600 0.192 4.878 0.400 43.752 42.643
42.800 -17.300 -0.132 -17.501 -0.117 -18.095 -0.165 -19.279 -0.198 -20.063 -0.229 -20.082 -0.228 -20.278 -0.221 -20.312 -0.218 -20.575 -0.154 -20.583 -0.153 -20.657 -0.190 -20.721 -0.243 -20.735 -0.254 -20.823 -0.315 -20.832 -0.316 7.569 0.195 4.885 0.406 43.747 42.643
43.200 -17.272 -0.136 -17.474 -0.122 -18.067 -0.168 -19.254 -0.201 -20.044 -0.232 -20.063 -0.232 -20.262 -0.224 -20.296 -0.222 -20.563 -0.158 -20.571 -0.157 -20.648 -0.195 -20.711 -0.248 -20.725 -0.259 -20.815 -0.320 -20.824 -0.321 7.539 0.197 4.894 0.412 43.741 42.642
43.600 -17.245 -0.142 -17.447 -0.126 -18.040 -0.171 -19.230 -0.205 -20.025 -0.236 -20.044 -0.235 -20.246 -0.228 -20.281 -0.225 -20.552 -0.163 -20.559 -0.161 -20.638 -0.200 -20.702 -0.253 -20.715 -0.263 -20.807 -0.325 -20.816 -0.327 7.508 0.199 4.904 0.419 43.736 42.641
44.000 -17.218 -0.147 -17.420 -0.131 -18.013 -0.175 -19.205 -0.208 -20.006 -0.239 -20.026 -0.239 -20.230 -0.232 -20.265 -0.229 -20.540 -0.167 -20.548 -0.166 -20.629 -0.205 -20.692 -0.257 -20.705 -0.268 -20.799 -0.330 -20.808 -0.332 7.477 0.201 4.914 0.425 43.731 42.640
44.400 -17.191 -0.152 -17.393 -0.137 -17.987 -0.179 -19.181 -0.212 -19.987 -0.243 -20.007 -0.242 -20.214 -0.235 -20.250 -0.233 -20.528 -0.171 -20.536 -0.170 -20.619 -0.210 -20.682 -0.262 -20.696 -0.273 -20.791 -0.335 -20.800 -0.338 7.447 0.203 4.926 0.431 43.726 42.638
44.800 -17.164 -0.158 -17.367 -0.142 -17.960 -0.182 -19.157 -0.216 -19.968 -0.246 -19.988 -0.246 -20.198 -0.239 -20.235 -0.236 -20.516 -0.176 -20.525 -0.175 -20.610 -0.215 -20.673 -0.267 -20.686 -0.277 -20.783 -0.340 -20.792 -0.343 7.416 0.205 4.938 0.437 43.720 42.637
45.200 -17.137 -0.163 -17.340 -0.147 -17.934 -0.186 -19.132 -0.219 -19.949 -0.250 -19.970 -0.249 -20.183 -0.243 -20.220 -0.240 -20.505 -0.180 -20.513 -0.179 -20.600 -0.220 -20.664 -0.272 -20.677 -0.282 -20.774 -0.345 -20.784 -0.348 7.385 0.207 4.950 0.443 43.716 42.635
45.600 -17.110 -0.169 -17.314 -0.153 -17.908 -0.190 -19.109 -0.223 -19.931 -0.253 -19.952 -0.253 -20.167 -0.247 -20.205 -0.244 -20.493 -0.185 -20.502 -0.184 -20.591 -0.225 -20.654 -0.276 -20.667 -0.287 -20.766 -0.350 -20.776 -0.354 7.354 0.209 4.964 0.448 43.711 42.633
46.000 -17.084 -0.175 -17.288 -0.159 -17.882 -0.195 -19.085 -0.227 -19.912 -0.257 -19.933 -0.257 -20.152 -0.250 -20.190 -0.248 -20.482 -0.190 -20.491 -0.189 -20.582 -0.230 -20.645 -0.281 -20.658 -0.291 -20.758 -0.355 -20.768 -0.359 7.324 0.211 4.977 0.454 43.706 42.632
46.400 -17.057 -0.181 -17.262 -0.164 -17.856 -0.199 -19.061 -0.231 -19.894 -0.261 -19.915 -0.261 -20.136 -0.254 -20.175 -0.251 -20.470 -0.195 -20.479 -0.194 -20.572 -0.235 -20.636 -0.286 -20.648 -0.296 -20.750 -0.360 -20.760 -0.364 7.294 0.212 4.991 0.460 43.701 42.630
46.800 -17.031 -0.187 -17.236 -0.170 -17.830 -0.203 -19.038 -0.235 -19.876 -0.265 -19.897 -0.264 -20.121 -0.258 -20.160 -0.255 -20.459 -0.199 -20.468 -0.199 -20.563 -0.240 -20.626 -0.290 -20.639 -0.300 -20.742 -0.365 -20.752 -0.370 7.264 0.214 5.006 0.465 43.696 42.628
47.200 -17.005 -0.193 -17.210 -0.176 -17.805 -0.208 -19.014 -0.239 -19.858 -0.268 -19.880 -0.268 -20.106 -0.262 -20.145 -0.259 -20.448 -0.204 -20.457 -0.204 -20.554 -0.245 -20.617 -0.295 -20.630 -0.305 -20.734 -0.370 -20.744 -0.375 7.234 0.215 5.020 0.471 43.692 42.626
47.600 -16.979 -0.199 -17.185 -0.182 -17.779 -0.212 -18.991 -0.244 -19.840 -0.272 -19.862 -0.272 -20.091 -0.266 -20.131 -0.263 -20.436 -0.209 -20.446 -0.208 -20.545 -0.250 -20.608 -0.299 -20.621 -0.309 -20.726 -0.375 -20.737 -0.380 7.205 0.216 5.035 0.476 43.687 42.624
48.000 -16.953 -0.206 -17.159 -0.189 -17.754 -0.217 -18.968 -0.248 -19.822 -0.276 -19.844 -0.276 -20.076 -0.269 -20.116 -0.267 -20.425 -0.214 -20.435 -0.213 -20.536 -0.255 -20.599 -0.304 -20.612 -0.314 -20.718 -0.380 -20.729 -0.385 7.176 0.218 5.050 0.482 43.683 42.622
48.400 -16.927 -0.212 -17.134 -0.195 -17.729 -0.222 -18.945 -0.252 -19.804 -0.280 -19.827 -0.279 -20.061 -0.273 -20.102 -0.270 -20.414 -0.219 -20.424 -0.218 -20.527 -0.260 -20.590 -0.309 -20.603 -0.318 -20.710 -0.384 -20.721 -0.390 7.147 0.219 5.065 0.487 43.679 42.620
48.800 -16.901 -0.218 -17.108 -0.201 -17.704 -0.227 -18.922 -0.257 -19.787 -0.284 -19.809 -0.283 -20.046 -0.277 -20.088 -0.274 -20.403 -0.224 -20.413 -0.223 -20.517 -0.265 -20.581 -0.313 -20.594 -0.323 -20.702 -0.389 -20.713 -0.395 7.119 0.220 5.081 0.492 43.674 42.618
49.200 -16.875 -0.225 -17.083 -0.207 -17.680 -0.232 -18.900 -0.261 -19.769 -0.287 -19.792 -0.287 -20.032 -0.281 -20.073 -0.278 -20.392 -0.229 -20.402 -0.228 -20.508 -0.270 -20.572 -0.318 -20.585 -0.327 -20.695 -0.394 -20.705 -0.400 7.091 0.221 5.096 0.498 43.670 42.616
49.600 -16.850 -0.231 -17.058 -0.214 -17.655 -0.237 -18.877 -0.266 -19.752 -0.291 -19.775 -0.291 -20.017 -0.285 -20.059 -0.282 -20.381 -0.234 -20.392 -0.233 -20.500 -0.275 -20.563 -0.322 -20.576 -0.332 -20.687 -0.398 -20.698 -0.405 7.063 0.222 5.112 0.503 43.666 42.614
50.000 -16.824 -0.238 -17.033 -0.220 -17.631 -0.242 -18.855 -0.270 -19.735 -0.295 -19.758 -0.295 -20.003 -0.289 -20.045 -0.286 -20.370 -0.239 -20.381 -0.238 -20.491 -0.279 -20.554 -0.327 -20.567 -0.336 -20.679 -0.403 -20.690 -0.410 7.035 0.223 5.127 0.508 43.662 42.612
50.400 -16.799 -0.245 -17.008 -0.227 -17.607 -0.247 -18.833 -0.275 -19.718 -0.299 -19.741 -0.299 -19.988 -0.293 -20.031 -0.290 -20.360 -0.244 -20.370 -0.243 -20.482 -0.284 -20.546 -0.331 -20.558 -0.340 -20.671 -0.408 -20.682 -0.414 7.008 0.224 5.143 0.513 43.658 42.610
50.800 -16.774 -0.251 -16.984 -0.233 -17.583 -0.252 -18.811 -0.279 -19.701 -0.303 -19.724 -0.303 -19.974 -0.296 -20.017 -0.294 -20.349 -0.249 -20.360 -0.248 -20.473 -0.289 -20.537 -0.335 -20.549 -0.345 -20.663 -0.412 -20.675 -0.419 6.981 0.225 5.159 0.519 43.654 42.608
51.200 -16.748 -0.258 -16.959 -0.240 -17.559 -0.257 -18.789 -0.284 -19.684 -0.307 -19.708 -0.307 -19.960 -0.300 -20.003 -0.297 -20.338 -0.254 -20.349 -0.253 -20.464 -0.294 -20.528 -0.340 -20.540 -0.349 -20.655 -0.416 -20.667 -0.424 6.955 0.226 5.175 0.524 43.650 42.606
51.600 -16.723 -0.265 -16.935 -0.246 -17.536 -0.263 -18.767 -0.289 -19.667 -0.311 -19.691 -0.311 -19.946 -0.304 -19.990 -0.301 -20.328 -0.258 -20.339 -0.258 -20.455 -0.299 -20.520 -0.344 -20.532 -0.353 -20.647 -0.421 -20.659 -0.428 6.928 0.227 5.191 0.529 43.646 42.604
52.000 -16.699 -0.271 -16.910 -0.253 -17.512 -0.268 -18.746 -0.293 -19.650 -0.315 -19.675 -0.314 -19.931 -0.308 -19.976 -0.305 -20.317 -0.263 -20.328 -0.263 -20.447 -0.303 -20.511 -0.348 -20.523 -0.357 -20.640 -0.425 -20.651 -0.433 6.902 0.228 5.207 0.534 43.642 42.602
52.400 -16.674 -0.278 -16.886 -0.260 -17.489 -0.273 -18.725 -0.298 -19.634 -0.319 -19.659 -0.318 -19.918 -0.312 -19.963 -0.309 -20.307 -0.268 -20.318 -0.268 -20.438 -0.308 -20.503 -0.353 -20.515 -0.362 -20.632 -0.430 -20.644 -0.437 6.877 0.229 5.223 0.539 43.638 42.600
52.800 -16.649 -0.285 -16.862 -0.266 -17.466 -0.279 -18.703 -0.303 -19.617 -0.322 -19.642 -0.322 -19.904 -0.316 -19.949 -0.313 -20.296 -0.273 -20.308 -0.273 -20.429 -0.313 -20.494 -0.357 -20.506 -0.366 -20.624 -0.434 -20.636 -0.442 6.851 0.229 5.239 0.544 43.634 42.598
53.200 -16.624 -0.292 -16.838 -0.273 -17.443 -0.284 -18.682 -0.307 -19.601 -0.326 -19.626 -0.326 -19.890 -0.320 -19.936 -0.317 -20.286 -0.278 -20.298 -0.278 -20.421 -0.317 -20.486 -0.361 -20.498 -0.370 -20.616 -0.438 -20.629 -0.446 6.826 0.230 5.255 0.549 43.631 42.596
53.600 -16.600 -0.298 -16.814 -0.280 -17.420 -0.290 -18.661 -0.312 -19.585 -0.330 -19.610 -0.330 -19.876 -0.323 -19.923 -0.321 -20.276 -0.283 -20.288 -0.283 -20.412 -0.322 -20.477 -0.365 -20.489 -0.374 -20.609 -0.442 -20.621 -0.451 6.801 0.231 5.272 0.554 43.627 42.595
54.000 -16.576 -0.305 -16.790 -0.286 -17.397 -0.296 -18.641 -0.317 -19.569 -0.334 -19.595 -0.334 -19.863 -0.327 -19.909 -0.324 -20.266 -0.288 -20.278 -0.288 -20.404 -0.326 -20.469 -0.369 -20.481 -0.378 -20.601 -0.446 -20.613 -0.455 6.777 0.232 5.288 0.559 43.624 42.593
54.400 -16.551 -0.312 -16.767 -0.293 -17.374 -0.301 -18.620 -0.322 -19.553 -0.338 -19.579 -0.338 -19.849 -0.331 -19.896 -0.328 -20.255 -0.293 -20.268 -0.293 -20.395 -0.331 -20.461 -0.373 -20.473 -0.382 -20.593 -0.450 -20.606 -0.459 6.753 0.232 5.305 0.564 43.620 42.591
54.800 -16.527 -0.319 -16.743 -0.300 -17.352 -0.307 -18.599 -0.327 -19.537 -0.342 -19.563 -0.342 -19.836 -0.335 -19.883 -0.332 -20.245 -0.297 -20.258 -0.298 -20.387 -0.335 -20.452 -0.377 -20.464 -0.386 -20.585 -0.454 -20.598 -0.463 6.729 0.233 5.321 0.569 43.617 42.589
55.200 -16.503 -0.326 -16.720 -0.306 -17.329 -0.312 -18.579 -0.331 -19.522 -0.346 -19.548 -0.346 -19.823 -0.339 -19.871 -0.336 -20.235 -0.302 -20.248 -0.302 -20.378 -0.340 -20.444 -0.381 -20.456 -0.390 -20.578 -0.458 -20.591 -0.467 6.705 0.233 5.338 0.574 43.613 42.588
55.600 -16.479 -0.333 -16.696 -0.313 -17.307 -0.318 -18.559 -0.336 -19.506 -0.350 -19.533 -0.349 -19.810 -0.342 -19.858 -0.340 -20.226 -0.307 -20.238 -0.307 -20.370 -0.344 -20.436 -0.385 -20.448 -0.394 -20.570 -0.462 -20.583 -0.471 6.681 0.234 5.355 0.579 43.610 42.586
56.000 -16.456 -0.339 -16.673 -0.320 -17.285 -0.324 -18.539 -0.341 -19.491 -0.353 -19.517 -0.353 -19.797 -0.346 -19.845 -0.343 -20.216 -0.312 -20.228 -0.312 -20.362 -0.348 -20.428 -0.389 -20.440 -0.397 -20.563 -0.466 -20.575 -0.475 6.658 0.234 5.372 0.584 43.606 42.584
56.400 -16.432 -0.346 -16.650 -0.327 -17.263 -0.329 -18.519 -0.346 -19.475 -0.357 -19.502 -0.357 -19.784 -0.350 -19.832 -0.347 -20.206 -0.316 -20.219 -0.316 -20.353 -0.353 -20.420 -0.393 -20.432 -0.401 -20.555 -0.470 -20.568 -0.479 6.635 0.235 5.389 0.589 43.603 42.583
56.800 -16.408 -0.353 -16.627 -0.333 -17.242 -0.335 -18.500 -0.350 -19.460 -0.361 -19.487 -0.361 -19.771 -0.354 -19.820 -0.351 -20.196 -0.321 -20.209 -0.321 -20.345 -0.357 -20.412 -0.397 -20.424 -0.405 -20.547 -0.473 -20.560 -0.483 6.612 0.235 5.406 0.594 43.600 42.581
57.200 -16.385 -0.360 -16.604 -0.340 -17.220 -0.341 -18.480 -0.355 -19.445 -0.365 -19.472 -0.365 -19.758 -0.357 -19.808 -0.355 -20.187 -0.325 -20.200 -0.326 -20.337 -0.361 -20.404 -0.401 -20.416 -0.409 -20.540 -0.477 -20.553 -0.487 6.589 0.236 5.423 0.599 43.597 42.580
57.600 -16.361 -0.367 -16.581 -0.347 -17.198 -0.347 -18.461 -0.360 -19.430 -0.369 -19.458 -0.368 -19.745 -0.361 -19.795 -0.358 -20.177 -0.330 -20.190 -0.330 -20.329 -0.365 -20.396 -0.404 -20.408 -0.412 -20.532 -0.481 -20.545 -0.491 6.567 0.236 5.441 0.604 43.594 42.578
58.000 -16.338 -0.374 -16.559 -0.354 -17.177 -0.352 -18.441 -0.365 -19.416 -0.372 -19.443 -0.372 -19.733 -0.365 -19.783 -0.362 -20.168 -0.334 -20.181 -0.335 -20.321 -0.370 -20.388 -0.408 -20.400 -0.416 -20.525 -0.484 -20.538 -0.494 6.545 0.236 5.458 0.609 43.590 42.577
58.400 -16.315 -0.380 -16.536 -0.360 -17.156 -0.358 -18.422 -0.369 -19.401 -0.376 -19.429 -0.376 -19.720 -0.368 -19.771 -0.366 -20.158 -0.339 -20.171 -0.339 -20.313 -0.374 -20.380 -0.412 -20.392 -0.419 -20.517 -0.488 -20.530 -0.498 6.523 0.237 5.475 0.614 43.587 42.575
58.800 -16.292 -0.387 -16.514 -0.367 -17.135 -0.364 -18.403 -0.374 -19.386 -0.380 -19.414 -0.379 -19.708 -0.372 -19.759 -0.369 -20.149 -0.343 -20.162 -0.344 -20.305 -0.378 -20.372 -0.415 -20.384 -0.423 -20.510 -0.491 -20.523 -0.501 6.501 0.237 5.493 0.619 43.584 42.574
59.200 -16.269 -0.394 -16.491 -0.374 -17.114 -0.370 -18.385 -0.379 -19.372 -0.383 -19.400 -0.383 -19.696 -0.375 -19.747 -0.373 -20.139 -0.348 -20.153 -0.348 -20.297 -0.382 -20.364 -0.419 -20.376 -0.426 -20.502 -0.495 -20.516 -0.505 6.480 0.237 5.511 0.623 43.581 42.572
59.600 -16.246 -0.401 -16.469 -0.380 -17.093 -0.375 -18.366 -0.384 -19.357 -0.387 -19.386 -0.387 -19.683 -0.379 -19.735 -0.376 -20.130 -0.352 -20.144 -0.352 -20.289 -0.386 -20.357 -0.422 -20.368 -0.430 -20.495 -0.498 -20.508 -0.508 6.458 0.238 5.529 0.628 43.579 42.571
60.000 -16.223 -0.408 -16.447 -0.387 -17.072 -0.381 -18.347 -0.388 -19.343 -0.391 -19.372 -0.390 -19.671 -0.382 -19.723 -0.380 -20.121 -0.356 -20.135 -0.357 -20.281 -0.390 -20.349 -0.426 -20.361 -0.433 -20.487 -0.501 -20.501 -0.512 6.437 0.238 5.547 0.633 43.576 42.569
60.400 -16.201 -0.414 -16.425 -0.394 -17.052 -0.387 -18.329 -0.393 -19.329 -0.394 -19.358 -0.394 -19.659 -0.386 -19.712 -0.383 -20.112 -0.360 -20.126 -0.361 -20.273 -0.393 -20.341 -0.429 -20.353 -0.437 -20.480 -0.504 -20.493 -0.515 6.416 0.238 5.565 0.638 43.573 42.568
60.800 -16.178 -0.421 -16.403 -0.400 -17.031 -0.393 -18.311 -0.398 -19.315 -0.398 -19.344 -0.397 -19.647 -0.389 -19.700 -0.387 -20.103 -0.364 -20.117 -0.365 -20.265 -0.397 -20.334 -0.433 -20.345 -0.440 -20.472 -0.507 -20.486 -0.518 6.396 0.238 5.583 0.642 43.570 42.567
61.200 -16.156 -0.428 -16.381 -0.407 -17.011 -0.399 -18.293 -0.402 -19.301 -0.401 -19.330 -0.401 -19.635 -0.392 -19.688 -0.390 -20.094 -0.368 -20.108 -0.369 -20.258 -0.401 -20.326 -0.436 -20.338 -0.443 -20.465 -0.510 -20.479 -0.521 6.375 0.238 5.601 0.647 43.567 42.565
61.600 -16.133 -0.434 -16.359 -0.414 -16.991 -0.404 -18.275 -0.407 -19.288 -0.405 -19.317 -0.404 -19.624 -0.396 -19.677 -0.393 -20.085 -0.372 -20.099 -0.373 -20.250 -0.405 -20.319 -0.439 -20.330 -0.446 -20.457 -0.513 -20.471 -0.524 6.355 0.238 5.619 0.651 43.565 42.564
62.000 -16.111 -0.441 -16.338 -0.420 -16.970 -0.410 -18.257 -0.411 -19.274 -0.408 -19.303 -0.408 -19.612 -0.399 -19.666 -0.397 -20.076 -0.376 -20.090 -0.377 -20.242 -0.408 -20.311 -0.442 -20.323 -0.449 -20.450 -0.516 -20.464 -0.527 6.335 0.239 5.637 0.656 43.562 42.562
62.400 -16.089 -0.448 -16.316 -0.427 -16.950 -0.416 -18.240 -0.416 -19.260 -0.412 -19.290 -0.411 -19.601 -0.402 -19.655 -0.400 -20.067 -0.380 -20.082 -0.381 -20.235 -0.412 -20.304 -0.445 -20.315 -0.452 -20.443 -0.519 -20.456 -0.530 6.315 0.239 5.656 0.661 43.559 42.561
62.800 -16.067 -0.454 -16.295 -0.433 -16.931 -0.422 -18.222 -0.421 -19.247 -0.415 -19.277 -0.414 -19.589 -0.406 -19.643 -0.403 -20.059 -0.384 -20.073 -0.385 -20.227 -0.415 -20.296 -0.449 -20.308 -0.455 -20.435 -0.522 -20.449 -0.533 6.296 0.239 5.674 0.665 43.557 42.560
63.200 -16.045 -0.461 -16.273 -0.440 -16.911 -0.427 -18.205 -0.425 -19.234 -0.418 -19.264 -0.418 -19.578 -0.409 -19.632 -0.406 -20.050 -0.388 -20.065 -0.389 -20.219 -0.419 -20.289 -0.452 -20.300 -0.458 -20.428 -0.524 -20.442 -0.536 6.276 0.239 5.693 0.669 43.554 42.558
63.600 -16.023 -0.468 -16.252 -0.446 -16.891 -0.433 -18.188 -0.430 -19.221 -0.422 -19.251 -0.421 -19.566 -0.412 -19.621 -0.410 -20.041 -0.392 -20.056 -0.392 -20.212 -0.422 -20.281 -0.455 -20.293 -0.461 -20.420 -0.527 -20.434 -0.539 6.257 0.239 5.711 0.674 43.552 42.557
64.000 -16.001 -0.474 -16.231 -0.453 -16.872 -0.439 -18.170 -0.434 -19.207 -0.425 -19.238 -0.424 -19.555 -0.415 -19.611 -0.413 -20.033 -0.395 -20.048 -0.396 -20.204 -0.425 -20.274 -0.457 -20.286 -0.464 -20.413 -0.530 -20.427 -0.541 6.238 0.239 5.730 0.678 43.549 42.555
64.400 -15.980 -0.481 -16.210 -0.459 -16.852 -0.444 -18.154 -0.438 -19.194 -0.428 -19.225 -0.427 -19.544 -0.418 -19.600 -0.416 -20.024 -0.399 -20.039 -0.400 -20.197 -0.429 -20.267 -0.460 -20.278 -0.467 -20.406 -0.532 -20.420 -0.544 6.219 0.239 5.748 0.682 43.547 42.554
64.800 -15.958 -0.487 -16.189 -0.466 -16.833 -0.450 -18.137 -0.443 -19.182 -0.431 -19.212 -0.430 -19.533 -0.421 -19.589 -0.419 -20.016 -0.403 -20.031 -0.403 -20.190 -0.432 -20.259 -0.463 -20.271 -0.469 -20.398 -0.535 -20.412 -0.546 6.201 0.238 5.767 0.686 43.544 42.553
65.200 -15.937 -0.494 -16.168 -0.472 -16.814 -0.456 -18.120 -0.447 -19.169 -0.434 -19.200 -0.434 -19.522 -0.424 -19.578 -0.422 -20.008 -0.406 -20.023 -0.407 -20.182 -0.435 -20.252 -0.466 -20.264 -0.472 -20.391 -0.537 -20.405 -0.549 6.182 0.238 5.785 0.690 43.542 42.551
65.600 -15.915 -0.500 -16.148 -0.479 -16.795 -0.461 -18.104 -0.452 -19.156 -0.437 -19.187 -0.437 -19.512 -0.427 -19.568 -0.425 -19.999 -0.409 -20.014 -0.410 -20.175 -0.438 -20.245 -0.468 -20.257 -0.475 -20.384 -0.539 -20.398 -0.551 6.164 0.238 5.804 0.694 43.540 42.550
66.000 -15.894 -0.507 -16.127 -0.485 -16.776 -0.467 -18.087 -0.456 -19.144 -0.440 -19.175 -0.440 -19.501 -0.430 -19.558 -0.427 -19.991 -0.413 -20.006 -0.413 -20.168 -0.441 -20.238 -0.471 -20.249 -0.477 -20.377 -0.541 -20.391 -0.553 6.146 0.238 5.822 0.698 43.537 42.548
66.400 -15.873 -0.513 -16.107 -0.491 -16.757 -0.473 -18.071 -0.460 -19.131 -0.443 -19.162 -0.443 -19.490 -0.432 -19.547 -0.430 -19.983 -0.416 -19.998 -0.417 -20.160 -0.444 -20.231 -0.474 -20.242 -0.480 -20.369 -0.544 -20.383 -0.555 6.128 0.238 5.841 0.702 43.535 42.547
66.800 -15.852 -0.520 -16.086 -0.498 -16.738 -0.478 -18.055 -0.464 -19.119 -0.446 -19.150 -0.445 -19.480 -0.435 -19.537 -0.433 -19.975 -0.419 -19.990 -0.420 -20.153 -0.447 -20.224 -0.476 -20.235 -0.482 -20.362 -0.546 -20.376 -0.558 6.111 0.238 5.859 0.706 43.533 42.545
67.200 -15.831 -0.526 -16.066 -0.504 -16.720 -0.484 -18.039 -0.469 -19.107 -0.449 -19.138 -0.448 -19.469 -0.438 -19.527 -0.436 -19.967 -0.422 -19.982 -0.423 -20.146 -0.450 -20.217 -0.478 -20.228 -0.484 -20.355 -0.548 -20.369 -0.560 6.093 0.237 5.878 0.710 43.531 42.544
67.600 -15.810 -0.532 -16.046 -0.510 -16.701 -0.489 -18.023 -0.473 -19.095 -0.452 -19.126 -0.451 -19.459 -0.441 -19.517 -0.438 -19.959 -0.426 -19.974 -0.426 -20.139 -0.453 -20.210 -0.481 -20.221 -0.487 -20.347 -0.550 -20.362 -0.562 6.076 0.237 5.896 0.713 43.528 42.542
68.000 -15.789 -0.538 -16.025 -0.516 -16.683 -0.495 -18.007 -0.477 -19.083 -0.455 -19.114 -0.454 -19.449 -0.443 -19.507 -0.441 -19.951 -0.429 -19.966 -0.429 -20.132 -0.455 -20.202 -0.483 -20.214 -0.489 -20.340 -0.551 -20.354 -0.563 6.059 0.237 5.914 0.717 43.526 42.541
68.400 -15.768 -0.545 -16.005 -0.523 -16.665 -0.500 -17.992 -0.481 -19.071 -0.457 -19.103 -0.456 -19.438 -0.446 -19.497 -0.443 -19.943 -0.432 -19.959 -0.432 -20.125 -0.458 -20.195 -0.485 -20.207 -0.491 -20.333 -0.553 -20.347 -0.565 6.042 0.236 5.932 0.720 43.524 42.539
68.800 -15.748 -0.551 -15.986 -0.529 -16.647 -0.506 -17.976 -0.485 -19.059 -0.460 -19.091 -0.459 -19.428 -0.448 -19.487 -0.446 -19.935 -0.434 -19.951 -0.435 -20.118 -0.461 -20.189 -0.487 -20.200 -0.493 -20.326 -0.555 -20.340 -0.567 6.026 0.236 5.950 0.724 43.522 42.538
69.200 -15.727 -0.557 -15.966 -0.535 -16.628 -0.511 -17.961 -0.489 -19.047 -0.463 -19.080 -0.462 -19.418 -0.450 -19.477 -0.448 -19.927 -0.437 -19.943 -0.438 -20.111 -0.463 -20.182 -0.490 -20.193 -0.495 -20.318 -0.557 -20.333 -0.569 6.010 0.236 5.968 0.727 43.520 42.536
69.600 -15.707 -0.563 -15.946 -0.541 -16.611 -0.516 -17.946 -0.493 -19.036 -0.465 -19.068 -0.464 -19.408 -0.453 -19.467 -0.451 -19.920 -0.440 -19.935 -0.441 -20.104 -0.465 -20.175 -0.492 -20.186 -0.497 -20.311 -0.558 -20.325 -0.570 5.993 0.235 5.986 0.730 43.518 42.534
70.000 -15.687 -0.569 -15.926 -0.547 -16.593 -0.522 -17.931 -0.497 -19.024 -0.468 -19.057 -0.467 -19.398 -0.455 -19.458 -0.453 -19.912 -0.443 -19.928 -0.443 -20.097 -0.468 -20.168 -0.494 -20.179 -0.499 -20.304 -0.560 -20.318 -0.572 5.978 0.235 6.004 0.733 43.516 42.533
70.400 -15.666 -0.575 -15.907 -0.553 -16.575 -0.527 -17.916 -0.501 -19.013 -0.470 -19.046 -0.469 -19.389 -0.457 -19.448 -0.455 -19.904 -0.445 -19.920 -0.446 -20.090 -0.470 -20.161 -0.495 -20.172 -0.501 -20.297 -0.561 -20.311 -0.573 5.962 0.234 6.021 0.736 43.514 42.531
70.800 -15.646 -0.582 -15.887 -0.559 -16.557 -0.532 -17.901 -0.505 -19.002 -0.473 -19.034 -0.471 -19.379 -0.459 -19.439 -0.457 -19.897 -0.448 -19.913 -0.448 -20.083 -0.472 -20.154 -0.497 -20.165 -0.502 -20.290 -0.562 -20.304 -0.575 5.946 0.234 6.039 0.739 43.512 42.529
71.200 -15.626 -0.588 -15.868 -0.565 -16.540 -0.538 -17.886 -0.508 -18.991 -0.475 -19.023 -0.474 -19.369 -0.462 -19.429 -0.459 -19.889 -0.450 -19.905 -0.451 -20.076 -0.474 -20.147 -0.499 -20.159 -0.504 -20.282 -0.564 -20.297 -0.576 5.931 0.233 6.056 0.742 43.510 42.528
71.600 -15.606 -0.593 -15.849 -0.571 -16.522 -0.543 -17.872 -0.512 -18.980 -0.477 -19.012 -0.476 -19.360 -0.464 -19.420 -0.461 -19.882 -0.453 -19.898 -0.453 -20.069 -0.476 -20.140 -0.501 -20.152 -0.506 -20.275 -0.565 -20.289 -0.577 5.916 0.233 6.073 0.744 43.508 42.526
72.000 -15.587 -0.599 -15.829 -0.577 -16.505 -0.548 -17.857 -0.516 -18.969 -0.479 -19.002 -0.478 -19.350 -0.466 -19.411 -0.463 -19.874 -0.455 -19.890 -0.456 -20.062 -0.478 -20.134 -0.502 -20.145 -0.507 -20.268 -0.566 -20.282 -0.578 5.901 0.232 6.090 0.747 43.506 42.524
72.400 -15.567 -0.605 -15.810 -0.582 -16.488 -0.553 -17.843 -0.519 -18.958 -0.481 -18.991 -0.480 -19.341 -0.467 -19.402 -0.465 -19.867 -0.457 -19.883 -0.458 -20.055 -0.480 -20.127 -0.504 -20.138 -0.509 -20.261 -0.567 -20.275 -0.579 5.887 0.232 6.106 0.749 43.504 42.522
72.800 -15.547 -0.611 -15.791 -0.588 -16.471 -0.558 -17.829 -0.523 -18.947 -0.484 -18.980 -0.482 -19.332 -0.469 -19.393 -0.467 -19.859 -0.459 -19.876 -0.460 -20.049 -0.482 -20.120 -0.505 -20.132 -0.510 -20.254 -0.568 -20.268 -0.580 5.872 0.231 6.122 0.751 43.502 42.520
73.200 -15.527 -0.617 -15.772 -0.594 -16.453 -0.563 -17.815 -0.527 -18.936 -0.486 -18.970 -0.484 -19.322 -0.471 -19.384 -0.469 -19.852 -0.461 -19.869 -0.462 -20.042 -0.484 -20.114 -0.507 -20.125 -0.511 -20.246 -0.569 -20.261 -0.581 5.858 0.231 6.139 0.754 43.500 42.518
73.600 -15.508 -0.623 -15.754 -0.600 -16.437 -0.568 -17.801 -0.530 -18.926 -0.488 -18.959 -0.486 -19.313 -0.473 -19.375 -0.471 -19.845 -0.463 -19.861 -0.464 -20.035 -0.486 -20.107 -0.508 -20.118 -0.513 -20.239 -0.570 -20.253 -0.582 5.844 0.230 6.154 0.756 43.498 42.516
74.000 -15.489 -0.628 -15.735 -0.605 -16.420 -0.573 -17.787 -0.534 -18.915 -0.489 -18.949 -0.488 -19.304 -0.474 -19.366 -0.472 -19.838 -0.465 -19.854 -0.466 -20.029 -0.487 -20.100 -0.509 -20.111 -0.514 -20.232 -0.570 -20.246 -0.583 5.830 0.230 6.170 0.757 43.496 42.514
74.400 -15.469 -0.634 -15.716 -0.611 -16.403 -0.578 -17.773 -0.537 -18.905 -0.491 -18.938 -0.490 -19.295 -0.476 -19.357 -0.474 -19.831 -0.467 -19.847 -0.468 -20.022 -0.489 -20.094 -0.510 -20.105 -0.515 -20.225 -0.571 -20.239 -0.583 5.817 0.229 6.185 0.759 43.494 42.512
74.800 -15.450 -0.640 -15.698 -0.616 -16.386 -0.583 -17.759 -0.540 -18.894 -0.493 -18.928 -0.492 -19.286 -0.478 -19.349 -0.475 -19.824 -0.469 -19.840 -0.470 -20.015 -0.490 -20.087 -0.512 -20.098 -0.516 -20.218 -0.572 -20.232 -0.584 5.804 0.228 6.200 0.761 43.492 42.510
75.200 -15.431 -0.645 -15.679 -0.622 -16.370 -0.588 -17.746 -0.544 -18.884 -0.495 -18.918 -0.493 -19.278 -0.479 -19.340 -0.477 -19.816 -0.470 -19.833 -0.471 -20.009 -0.492 -20.080 -0.513 -20.091 -0.517 -20.211 -0.572 -20.225 -0.584 5.791 0.228 6.215 0.762 43.491 42.508
75.600 -15.412 -0.651 -15.661 -0.627 -16.353 -0.593 -17.732 -0.547 -18.874 -0.496 -18.908 -0.495 -19.269 -0.480 -19.331 -0.478 -19.809 -0.472 -19.826 -0.473 -20.002 -0.493 -20.074 -0.514 -20.085 -0.518 -20.203 -0.573 -20.217 -0.585 5.778 0.227 6.229 0.764 43.489 42.506
76.000 -15.393 -0.656 -15.643 -0.633 -16.337 -0.598 -17.719 -0.550 -18.864 -0.498 -18.898 -0.496 -19.260 -0.482 -19.323 -0.479 -19.802 -0.474 -19.819 -0.474 -19.996 -0.494 -20.067 -0.515 -20.078 -0.519 -20.196 -0.573 -20.210 -0.585 5.765 0.226 6.243 0.765 43.487 42.504
76.400 -15.374 -0.662 -15.624 -0.638 -16.321 -0.603 -17.706 -0.554 -18.854 -0.500 -18.888 -0.498 -19.251 -0.483 -19.315 -0.481 -19.796 -0.475 -19.812 -0.476 -19.989 -0.495 -20.060 -0.515 -20.071 -0.520 -20.189 -0.573 -20.203 -0.586 5.753 0.226 6.257 0.766 43.485 42.502
76.800 -15.355 -0.667 -15.606 -0.643 -16.304 -0.608 -17.693 -0.557 -18.844 -0.501 -18.879 -0.499 -19.243 -0.484 -19.306 -0.482 -19.789 -0.476 -19.806 -0.477 -19.983 -0.497 -20.054 -0.516 -20.065 -0.520 -20.182 -0.574 -20.196 -0.586 5.740 0.225 6.270 0.767 43.483 42.499
77.200 -15.336 -0.673 -15.588 -0.649 -16.288 -0.612 -17.680 -0.560 -18.834 -0.502 -18.869 -0.501 -19.234 -0.485 -19.298 -0.483 -19.782 -0.478 -19.799 -0.479 -19.976 -0.498 -20.047 -0.517 -20.058 -0.521 -20.175 -0.574 -20.189 -0.586 5.728 0.224 6.283 0.768 43.481 42.497
77.600 -15.318 -0.678 -15.570 -0.654 -16.272 -0.617 -17.667 -0.563 -18.825 -0.504 -18.859 -0.502 -19.226 -0.486 -19.290 -0.484 -19.775 -0.479 -19.792 -0.480 -19.970 -0.498 -20.041 -0.517 -20.052 -0.521 -20.167 -0.574 -20.181 -0.586 5.717 0.223 6.296 0.769 43.479 42.494
78.000 -15.299 -0.683 -15.552 -0.659 -16.256 -0.622 -17.654 -0.566 -18.815 -0.505 -18.850 -0.503 -19.218 -0.487 -19.282 -0.485 -19.768 -0.480 -19.785 -0.481 -19.963 -0.499 -20.034 -0.518 -20.045 -0.522 -20.160 -0.574 -20.174 -0.586 5.705 0.223 6.308 0.769 43.478 42.492
78.400 -15.281 -0.688 -15.535 -0.664 -16.240 -0.626 -17.641 -0.569 -18.805 -0.506 -18.840 -0.504 -19.209 -0.488 -19.273 -0.486 -19.761 -0.481 -19.778 -0.482 -19.957 -0.500 -20.028 -0.518 -20.039 -0.522 -20.153 -0.574 -20.167 -0.586 5.694 0.222 6.320 0.770 43.476 42.490
78.800 -15.262 -0.694 -15.517 -0.669 -16.225 -0.631 -17.629 -0.572 -18.796 -0.507 -18.831 -0.505 -19.201 -0.489 -19.265 -0.486 -19.755 -0.482 -19.772 -0.483 -19.950 -0.501 -20.021 -0.519 -20.032 -0.523 -20.146 -0.574 -20.160 -0.586 5.682 0.221 6.332 0.770 43.474 42.487
79.200 -15.244 -0.699 -15.499 -0.674 -16.209 -0.635 -17.616 -0.574 -18.786 -0.508 -18.822 -0.506 -19.193 -0.489 -19.257 -0.487 -19.748 -0.483 -19.765 -0.484 -19.944 -0.501 -20.015 -0.519 -20.025 -0.523 -20.139 -0.573 -20.153 -0.585 5.671 0.220 6.343 0.770 43.472 42.484
79.600 -15.226 -0.704 -15.482 -0.679 -16.194 -0.640 -17.604 -0.577 -18.777 -0.509 -18.812 -0.507 -19.185 -0.490 -19.250 -0.488 -19.741 -0.484 -19.759 -0.485 -19.937 -0.502 -20.008 -0.519 -20.019 -0.523 -20.131 -0.573 -20.145 -0.585 5.661 0.220 6.353 0.770 43.470 42.482
80.000 -15.207 -0.709 -15.464 -0.684 -16.178 -0.644 -17.592 -0.580 -18.768 -0.510 -18.803 -0.508 -19.177 -0.490 -19.242 -0.488 -19.735 -0.485 -19.752 -0.485 -19.931 -0.503 -20.002 -0.519 -20.012 -0.523 -20.124 -0.573 -20.138 -0.585 5.650 0.219 6.364 0.770 43.468 42.479
80.400 -15.189 -0.714 -15.447 -0.689 -16.163 -0.648 -17.579 -0.583 -18.759 -0.511 -18.794 -0.509 -19.169 -0.491 -19.234 -0.489 -19.728 -0.485 -19.745 -0.486 -19.925 -0.503 -19.995 -0.520 -20.006 -0.523 -20.117 -0.572 -20.131 -0.584 5.640 0.218 6.373 0.770 43.467 42.476
80.800 -15.171 -0.719 -15.430 -0.694 -16.147 -0.653 -17.567 -0.585 -18.750 -0.512 -18.785 -0.510 -19.161 -0.491 -19.226 -0.489 -19.722 -0.486 -19.739 -0.487 -19.918 -0.503 -19.989 -0.520 -19.999 -0.523 -20.110 -0.572 -20.124 -0.583 5.630 0.217 6.383 0.770 43.465 42.474
81.200 -15.153 -0.723 -15.412 -0.699 -16.132 -0.657 -17.555 -0.588 -18.741 -0.513 -18.776 -0.510 -19.153 -0.492 -19.218 -0.489 -19.715 -0.487 -19.732 -0.487 -19.912 -0.504 -19.982 -0.519 -19.993 -0.523 -20.103 -0.571 -20.116 -0.583 5.620 0.216 6.392 0.769 43.463 42.471
81.600 -15.136 -0.728 -15.395 -0.704 -16.117 -0.661 -17.543 -0.591 -18.732 -0.513 -18.767 -0.511 -19.145 -0.492 -19.211 -0.490 -19.709 -0.487 -19.726 -0.488 -19.906 -0.504 -19.976 -0.519 -19.986 -0.523 -20.095 -0.570 -20.109 -0.582 5.610 0.215 6.400 0.769 43.461 42.468
82.000 -15.118 -0.733 -15.378 -0.708 -16.102 -0.665 -17.531 -0.593 -18.723 -0.514 -18.759 -0.512 -19.138 -0.492 -19.203 -0.490 -19.702 -0.487 -19.719 -0.488 -19.899 -0.504 -19.969 -0.519 -19.980 -0.522 -20.088 -0.569 -20.102 -0.581 5.601 0.215 6.408 0.768 43.459 42.465
82.400 -15.100 -0.738 -15.361 -0.713 -16.087 -0.669 -17.520 -0.595 -18.714 -0.514 -18.750 -0.512 -19.130 -0.492 -19.196 -0.490 -19.696 -0.488 -19.713 -0.488 -19.893 -0.504 -19.963 -0.519 -19.973 -0.522 -20.081 -0.569 -20.095 -0.580 5.591 0.214 6.416 0.767 43.457 42.462
82.800 -15.083 -0.742 -15.344 -0.718 -16.072 -0.673 -17.508 -0.598 -18.705 -0.515 -18.741 -0.512 -19.122 -0.492 -19.188 -0.490 -19.689 -0.488 -19.707 -0.489 -19.887 -0.504 -19.956 -0.518 -19.967 -0.522 -20.074 -0.568 -20.087 -0.579 5.582 0.213 6.423 0.766 43.455 42.459
83.200 -15.065 -0.747 -15.327 -0.722 -16.057 -0.677 -17.496 -0.600 -18.697 -0.515 -18.733 -0.513 -19.115 -0.492 -19.181 -0.490 -19.683 -0.488 -19.700 -0.489 -19.880 -0.504 -19.950 -0.518 -19.960 -0.521 -20.066 -0.567 -20.080 -0.578 5.573 0.212 6.429 0.765 43.454 42.456
83.600 -15.048 -0.752 -15.311 -0.727 -16.042 -0.681 -17.485 -0.602 -18.688 -0.515 -18.724 -0.513 -19.107 -0.492 -19.174 -0.490 -19.676 -0.488 -19.694 -0.489 -19.874 -0.503 -19.943 -0.518 -19.954 -0.521 -20.059 -0.566 -20.073 -0.577 5.565 0.211 6.435 0.764 43.452 42.453
84.000 -15.030 -0.756 -15.294 -0.731 -16.028 -0.685 -17.474 -0.605 -18.679 -0.515 -18.716 -0.513 -19.100 -0.492 -19.166 -0.489 -19.670 -0.488 -19.688 -0.489 -19.868 -0.503 -19.937 -0.517 -19.947 -0.520 -20.052 -0.564 -20.066 -0.576 5.556 0.210 6.441 0.763 43.450 42.450
84.400 -15.013 -0.761 -15.277 -0.736 -16.013 -0.689 -17.462 -0.607 -18.671 -0.516 -18.707 -0.513 -19.092 -0.492 -19.159 -0.489 -19.664 -0.488 -19.681 -0.489 -19.861 -0.503 -19.930 -0.516 -19.940 -0.519 -20.044 -0.563 -20.058 -0.575 5.548 0.210 6.446 0.761 43.448 42.446
84.800 -14.996 -0.765 -15.261 -0.740 -15.999 -0.693 -17.451 -0.609 -18.662 -0.516 -18.699 -0.513 -19.085 -0.491 -19.152 -0.489 -19.657 -0.488 -19.675 -0.488 -19.855 -0.502 -19.924 -0.515 -19.934 -0.518 -20.037 -0.562 -20.051 -0.573 5.540 0.209 6.451 0.760 43.446 42.443
85.200 -14.978 -0.769 -15.244 -0.744 -15.984 -0.697 -17.440 -0.611 -18.654 -0.516 -18.691 -0.513 -19.077 -0.491 -19.145 -0.488 -19.651 -0.487 -19.669 -0.488 -19.849 -0.502 -19.917 -0.515 -19.927 -0.518 -20.030 -0.561 -20.044 -0.572 5.532 0.208 6.455 0.758 43.444 42.440
85.600 -14.961 -0.774 -15.228 -0.748 -15.970 -0.701 -17.429 -0.613 -18.646 -0.516 -18.683 -0.513 -19.070 -0.490 -19.137 -0.488 -19.645 -0.487 -19.662 -0.488 -19.843 -0.501 -19.911 -0.514 -19.921 -0.517 -20.022 -0.559 -20.036 -0.570 5.524 0.207 6.458 0.756 43.442 42.436
86.000 -14.944 -0.778 -15.212 -0.753 -15.956 -0.704 -17.418 -0.615 -18.638 -0.515 -18.674 -0.513 -19.063 -0.490 -19.130 -0.487 -19.639 -0.487 -19.656 -0.487 -19.836 -0.501 -19.904 -0.513 -19.914 -0.516 -20.015 -0.558 -20.029 -0.569 5.517 0.206 6.462 0.754 43.440 42.433
86.400 -14.927 -0.782 -15.196 -0.757 -15.941 -0.708 -17.407 -0.617 -18.629 -0.515 -18.666 -0.512 -19.056 -0.489 -19.123 -0.486 -19.632 -0.486 -19.650 -0.487 -19.830 -0.500 -19.898 -0.512 -19.908 -0.514 -20.008 -0.556 -20.022 -0.567 5.509 0.205 6.464 0.752 43.438 42.429
86.800 -14.911 -0.786 -15.179 -0.761 -15.927 -0.711 -17.396 -0.619 -18.621 -0.515 -18.658 -0.512 -19.049 -0.488 -19.116 -0.485 -19.626 -0.486 -19.644 -0.486 -19.824 -0.499 -19.891 -0.511 -19.901 -0.513 -20.000 -0.554 -20.014 -0.565 5.502 0.204 6.466 0.750 43.436 42.426
87.200 -14.894 -0.790 -15.163 -0.765 -15.913 -0.715 -17.385 -0.621 -18.613 -0.515 -18.650 -0.512 -19.041 -0.487 -19.109 -0.485 -19.620 -0.485 -19.637 -0.486 -19.817 -0.498 -19.885 -0.509 -19.894 -0.512 -19.993 -0.553 -20.007 -0.563 5.495 0.204 6.468 0.748 43.434 42.422
87.600 -14.877 -0.794 -15.147 -0.769 -15.899 -0.718 -17.375 -0.622 -18.605 -0.514 -18.642 -0.511 -19.034 -0.486 -19.102 -0.484 -19.614 -0.484 -19.631 -0.485 -19.811 -0.497 -19.878 -0.508 -19.888 -0.511 -19.986 -0.551 -20.000 -0.562 5.488 0.203 6.469 0.745 43.432 42.418
88.000 -14.860 -0.798 -15.131 -0.773 -15.885 -0.722 -17.364 -0.624 -18.597 -0.514 -18.634 -0.511 -19.027 -0.485 -19.095 -0.483 -19.607 -0.484 -19.625 -0.484 -19.805 -0.496 -19.871 -0.507 -19.881 -0.509 -19.978 -0.549 -19.992 -0.560 5.482 0.202 6.470 0.743 43.430 42.415
88.400 -14.844 -0.802 -15.115 -0.776 -15.871 -0.725 -17.353 -0.626 -18.589 -0.513 -18.627 -0.510 -19.020 -0.484 -19.089 -0.482 -19.601 -0.483 -19.619 -0.483 -19.798 -0.495 -19.865 -0.505 -19.874 -0.508 -19.971 -0.547 -19.985 -0.558 5.475 0.201 6.470 0.740 43.428 42.411
88.800 -14.827 -0.806 -15.100 -0.780 -15.858 -0.729 -17.343 -0.627 -18.581 -0.512 -18.619 -0.509 -19.013 -0.483 -19.082 -0.480 -19.595 -0.482 -19.613 -0.482 -19.792 -0.494 -19.858 -0.504 -19.868 -0.506 -19.963 -0.545 -19.977 -0.555 5.469 0.200 6.469 0.738 43.426 42.407
89.200 -14.811 -0.810 -15.084 -0.784 -15.844 -0.732 -17.333 -0.629 -18.574 -0.512 -18.611 -0.508 -19.007 -0.482 -19.075 -0.479 -19.589 -0.481 -19.606 -0.481 -19.786 -0.492 -19.852 -0.502 -19.861 -0.505 -19.956 -0.543 -19.970 -0.553 5.463 0.199 6.468 0.735 43.424 42.403
89.600 -14.794 -0.813 -15.068 -0.788 -15.830 -0.735 -17.322 -0.631 -18.566 -0.511 -18.603 -0.508 -19.000 -0.481 -19.068 -0.478 -19.583 -0.480 -19.600 -0.480 -19.779 -0.491 -19.845 -0.501 -19.854 -0.503 -19.948 -0.541 -19.963 -0.551 5.457 0.198 6.467 0.732 43.422 42.399
90.000 -14.778 -0.817 -15.053 -0.791 -15.817 -0.738 -17.312 -0.632 -18.558 -0.510 -18.596 -0.507 -18.993 -0.479 -19.061 -0.476 -19.577 -0.478 -19.594 -0.479 -19.773 -0.490 -19.838 -0.499 -19.848 -0.501 -19.941 -0.538 -19.955 -0.549 5.452 0.197 6.464 0.729 43.420 42.395
90.400 -14.762 -0.821 -15.037 -0.795 -15.803 -0.741 -17.302 -0.633 -18.550 -0.509 -18.588 -0.506 -18.986 -0.478 -19.055 -0.475 -19.570 -0.477 -19.588 -0.478 -19.766 -0.488 -19.832 -0.497 -19.841 -0.499 -19.933 -0.536 -19.948 -0.546 5.446 0.197 6.462 0.726 43.418 42.391
90.800 -14.746 -0.824 -15.022 -0.798 -15.790 -0.744 -17.292 -0.635 -18.543 -0.508 -18.581 -0.505 -18.979 -0.476 -19.048 -0.473 -19.564 -0.476 -19.582 -0.477 -19.760 -0.487 -19.825 -0.495 -19.834 -0.497 -19.926 -0.534 -19.940 -0.544 5.441 0.196 6.459 0.723 43.416 42.387
91.200 -14.729 -0.828 -15.006 -0.802 -15.776 -0.747 -17.282 -0.636 -18.535 -0.507 -18.573 -0.504 -18.972 -0.474 -19.041 -0.472 -19.558 -0.475 -19.576 -0.475 -19.754 -0.485 -19.818 -0.493 -19.827 -0.495 -19.918 -0.531 -19.933 -0.541 5.435 0.195 6.455 0.720 43.414 42.383
91.600 -14.713 -0.831 -14.991 -0.805 -15.763 -0.750 -17.272 -0.637 -18.528 -0.506 -18.566 -0.502 -18.966 -0.473 -19.035 -0.470 -19.552 -0.473 -19.569 -0.474 -19.747 -0.483 -19.811 -0.491 -19.820 -0.493 -19.911 -0.529 -19.925 -0.539 5.430 0.194 6.451 0.717 43.411 42.378
92.000 -14.697 -0.835 -14.976 -0.808 -15.750 -0.753 -17.262 -0.639 -18.520 -0.505 -18.558 -0.501 -18.959 -0.471 -19.028 -0.468 -19.546 -0.472 -19.563 -0.472 -19.741 -0.481 -19.805 -0.489 -19.814 -0.491 -19.903 -0.526 -19.918 -0.536 5.426 0.193 6.446 0.713 43.409 42.374
92.400 -14.682 -0.838 -14.960 -0.812 -15.737 -0.756 -17.252 -0.640 -18.513 -0.503 -18.551 -0.500 -18.952 -0.469 -19.022 -0.466 -19.539 -0.470 -19.557 -0.471 -19.734 -0.480 -19.798 -0.487 -19.807 -0.489 -19.895 -0.524 -19.910 -0.533 5.421 0.192 6.441 0.710 43.407 42.370
92.800 -14.666 -0.841 -14.945 -0.815 -15.724 -0.759 -17.242 -0.641 -18.505 -0.502 -18.543 -0.498 -18.946 -0.467 -19.015 -0.464 -19.533 -0.468 -19.551 -0.469 -19.728 -0.478 -19.791 -0.485 -19.800 -0.487 -19.888 -0.521 -19.902 -0.530 5.416 0.192 6.435 0.706 43.405 42.365
93.200 -14.650 -0.844 -14.930 -0.818 -15.711 -0.762 -17.232 -0.642 -18.498 -0.501 -18.536 -0.497 -18.939 -0.465 -19.009 -0.462 -19.527 -0.467 -19.545 -0.467 -19.721 -0.476 -19.784 -0.483 -19.793 -0.484 -19.880 -0.518 -19.895 -0.527 5.412 0.191 6.429 0.703 43.403 42.361
93.600 -14.634 -0.847 -14.915 -0.821 -15.698 -0.764 -17.223 -0.643 -18.491 -0.499 -18.529 -0.495 -18.932 -0.463 -19.002 -0.460 -19.521 -0.465 -19.538 -0.466 -19.715 -0.474 -19.777 -0.480 -19.786 -0.482 -19.873 -0.515 -19.887 -0.524 5.408 0.190 6.422 0.699 43.400 42.357
94.000 -14.618 -0.851 -14.900 -0.824 -15.685 -0.767 -17.213 -0.644 -18.483 -0.498 -18.522 -0.494 -18.926 -0.461 -18.996 -0.458 -19.515 -0.463 -19.532 -0.464 -19.708 -0.471 -19.770 -0.478 -19.779 -0.480 -19.865 -0.512 -19.880 -0.521 5.404 0.189 6.415 0.695 43.398 42.352
94.400 -14.603 -0.854 -14.885 -0.827 -15.672 -0.769 -17.204 -0.645 -18.476 -0.496 -18.514 -0.492 -18.919 -0.459 -18.989 -0.455 -19.508 -0.461 -19.526 -0.462 -19.702 -0.469 -19.763 -0.475 -19.772 -0.477 -19.857 -0.509 -19.872 -0.518 5.400 0.188 6.407 0.691 43.396 42.347
94.800 -14.587 -0.856 -14.871 -0.830 -15.659 -0.772 -17.194 -0.646 -18.469 -0.494 -18.507 -0.490 -18.913 -0.456 -18.983 -0.453 -19.502 -0.459 -19.520 -0.460 -19.695 -0.467 -19.756 -0.473 -19.765 -0.474 -19.849 -0.506 -19.864 -0.515 5.396 0.188 6.399 0.687 43.393 42.343
95.200 -14.572 -0.859 -14.856 -0.833 -15.647 -0.774 -17.185 -0.647 -18.461 -0.493 -18.500 -0.488 -18.906 -0.454 -18.976 -0.451 -19.496 -0.457 -19.513 -0.458 -19.688 -0.465 -19.749 -0.470 -19.758 -0.472 -19.842 -0.503 -19.857 -0.512 5.393 0.187 6.390 0.684 43.391 42.338
95.600 -14.556 -0.862 -14.841 -0.836 -15.634 -0.777 -17.175 -0.647 -18.454 -0.491 -18.493 -0.486 -18.900 -0.451 -18.970 -0.448 -19.490 -0.455 -19.507 -0.456 -19.682 -0.462 -19.742 -0.467 -19.751 -0.469 -19.834 -0.500 -19.849 -0.508 5.390 0.186 6.380 0.680 43.389 42.333
96.000 -14.541 -0.865 -14.826 -0.838 -15.621 -0.779 -17.166 -0.648 -18.447 -0.489 -18.486 -0.485 -18.893 -0.449 -18.963 -0.445 -19.484 -0.453 -19.501 -0.453 -19.675 -0.460 -19.735 -0.464 -19.743 -0.466 -19.826 -0.497 -19.841 -0.505 5.386 0.185 6.371 0.675 43.386 42.328
96.400 -14.526 -0.868 -14.812 -0.841 -15.609 -0.781 -17.157 -0.649 -18.440 -0.487 -18.479 -0.483 -18.887 -0.446 -18.957 -0.443 -19.477 -0.450 -19.495 -0.451 -19.668 -0.457 -19.728 -0.462 -19.736 -0.463 -19.818 -0.493 -19.834 -0.501 5.383 0.184 6.360 0.671 43.384 42.323
96.800 -14.511 -0.870 -14.797 -0.844 -15.596 -0.784 -17.147 -0.649 -18.433 -0.485 -18.472 -0.480 -18.880 -0.443 -18.950 -0.440 -19.471 -0.448 -19.488 -0.449 -19.661 -0.454 -19.721 -0.459 -19.729 -0.460 -19.810 -0.490 -19.826 -0.498 5.381 0.184 6.349 0.667 43.382 42.318
97.200 -14.495 -0.873 -14.783 -0.846 -15.584 -0.786 -17.138 -0.650 -18.426 -0.483 -18.465 -0.478 -18.874 -0.441 -18.944 -0.437 -19.465 -0.446 -19.482 -0.446 -19.655 -0.452 -19.714 -0.456 -19.722 -0.457 -19.803 -0.487 -19.818 -0.494 5.378 0.183 6.338 0.663 43.379 42.313
97.600 -14.480 -0.875 -14.769 -0.849 -15.572 -0.788 -17.129 -0.651 -18.419 -0.481 -18.458 -0.476 -18.867 -0.438 -18.938 -0.434 -19.458 -0.443 -19.476 -0.444 -19.648 -0.449 -19.707 -0.452 -19.714 -0.454 -19.795 -0.483 -19.810 -0.491 5.375 0.182 6.326 0.659 43.377 42.308
98.000 -14.465 -0.878 -14.754 -0.851 -15.559 -0.790 -17.120 -0.651 -18.412 -0.479 -18.451 -0.474 -18.861 -0.435 -18.931 -0.431 -19.452 -0.441 -19.469 -0.442 -19.641 -0.446 -19.699 -0.449 -19.707 -0.451 -19.787 -0.480 -19.803 -0.487 5.373 0.181 6.313 0.654 43.374 42.303
98.400 -14.450 -0.880 -14.740 -0.853 -15.547 -0.792 -17.111 -0.652 -18.405 -0.476 -18.444 -0.471 -18.854 -0.432 -18.925 -0.428 -19.446 -0.438 -19.463 -0.439 -19.634 -0.443 -19.692 -0.446 -19.700 -0.448 -19.779 -0.476 -19.795 -0.483 5.371 0.181 6.300 0.650 43.372 42.298
98.800 -14.435 -0.883 -14.726 -0.856 -15.535 -0.794 -17.102 -0.652 -18.397 -0.474 -18.437 -0.469 -18.848 -0.429 -18.918 -0.425 -19.439 -0.436 -19.456 -0.436 -19.627 -0.440 -19.685 -0.443 -19.692 -0.444 -19.771 -0.472 -19.787 -0.479 5.368 0.180 6.287 0.645 43.369 42.293
99.200 -14.420 -0.885 -14.712 -0.858 -15.523 -0.796 -17.093 -0.652 -18.390 -0.472 -18.430 -0.467 -18.841 -0.426 -18.912 -0.422 -19.433 -0.433 -19.450 -0.434 -19.620 -0.437 -19.677 -0.440 -19.685 -0.441 -19.763 -0.469 -19.779 -0.475 5.367 0.179 6.273 0.641 43.366 42.287
99.600 -14.406 -0.887 -14.697 -0.860 -15.511 -0.798 -17.084 -0.653 -18.384 -0.469 -18.423 -0.464 -18.835 -0.422 -18.906 -0.419 -19.426 -0.430 -19.443 -0.431 -19.613 -0.434 -19.670 -0.436 -19.677 -0.437 -19.755 -0.465 -19.771 -0.471 5.365 0.178 6.258 0.636 43.364 42.282
100.000 -14.391 -0.889 -14.683 -0.862 -15.499 -0.800 -17.075 -0.653 -18.377 -0.467 -18.416 -0.462 -18.828 -0.419 -18.899 -0.415 -19.420 -0.427 -19.437 -0.428 -19.606 -0.431 -19.662 -0.433 -19.670 -0.434 -19.747 -0.461 -19.763 -0.467 5.363 0.178 6.243 0.632 43.361 42.277
100.400 -14.376 -0.891 -14.669 -0.864 -15.487 -0.801 -17.067 -0.653 -18.370 -0.464 -18.409 -0.459 -18.822 -0.416 -18.893 -0.412 -19.413 -0.425 -19.430 -0.425 -19.599 -0.428 -19.655 -0.429 -19.662 -0.430 -19.739 -0.457 -19.755 -0.463 5.362 0.177 6.227 0.627 43.359 42.271
100.800 -14.361 -0.893 -14.655 -0.866 -15.475 -0.803 -17.058 -0.653 -18.363 -0.462 -18.402 -0.456 -18.815 -0.412 -18.887 -0.408 -19.407 -0.422 -19.424 -0.423 -19.592 -0.425 -19.647 -0.425 -19.655 -0.427 -19.731 -0.453 -19.747 -0.459 5.360 0.176 6.211 0.623 43.356 42.266
101.200 -14.347 -0.895 -14.642 -0.868 -15.463 -0.805 -17.049 -0.654 -18.356 -0.459 -18.395 -0.453 -18.809 -0.409 -18.880 -0.405 -19.400 -0.419 -19.417 -0.420 -19.585 -0.422 -19.640 -0.422 -19.647 -0.423 -19.722 -0.449 -19.740 -0.455 5.359 0.176 6.195 0.618 43.353 42.260
101.600 -14.332 -0.897 -14.628 -0.870 -15.451 -0.806 -17.040 -0.654 -18.349 -0.456 -18.388 -0.451 -18.803 -0.405 -18.874 -0.401 -19.394 -0.416 -19.411 -0.417 -19.578 -0.418 -19.632 -0.418 -19.639 -0.419 -19.714 -0.445 -19.732 -0.450 5.358 0.175 6.178 0.613 43.351 42.254
102.000 -14.318 -0.899 -14.614 -0.872 -15.440 -0.808 -17.032 -0.654 -18.342 -0.454 -18.381 -0.448 -18.796 -0.401 -18.867 -0.398 -19.387 -0.413 -19.404 -0.414 -19.570 -0.415 -19.624 -0.414 -19.631 -0.415 -19.706 -0.441 -19.724 -0.446 5.357 0.174 6.160 0.608 43.348 42.249
102.400 -14.303 -0.901 -14.600 -0.873 -15.428 -0.809 -17.023 -0.654 -18.335 -0.451 -18.374 -0.445 -18.790 -0.398 -18.861 -0.394 -19.380 -0.410 -19.397 -0.410 -19.563 -0.411 -19.617 -0.410 -19.623 -0.411 -19.698 -0.437 -19.716 -0.442 5.357 0.174 6.142 0.604 43.345 42.243
102.800 -14.289 -0.903 -14.587 -0.875 -15.416 -0.811 -17.015 -0.654 -18.328 -0.448 -18.368 -0.442 -18.783 -0.394 -18.854 -0.390 -19.373 -0.406 -19.390 -0.407 -19.556 -0.408 -19.609 -0.407 -19.615 -0.408 -19.690 -0.433 -19.708 -0.437 5.356 0.173 6.124 0.599 43.342 42.237
103.200 -14.275 -0.904 -14.573 -0.877 -15.405 -0.812 -17.006 -0.654 -18.321 -0.445 -18.361 -0.439 -18.777 -0.390 -18.848 -0.386 -19.367 -0.403 -19.384 -0.404 -19.548 -0.404 -19.601 -0.403 -19.608 -0.403 -19.681 -0.429 -19.699 -0.433 5.356 0.172 6.105 0.594 43.339 42.231
103.600 -14.260 -0.906 -14.559 -0.878 -15.393 -0.813 -16.998 -0.654 -18.314 -0.442 -18.354 -0.436 -18.770 -0.386 -18.841 -0.382 -19.360 -0.400 -19.377 -0.401 -19.541 -0.400 -19.593 -0.399 -19.600 -0.399 -19.673 -0.424 -19.691 -0.428 5.355 0.172 6.085 0.589 43.337 42.225
104.000 -14.246 -0.907 -14.546 -0.880 -15.382 -0.814 -16.989 -0.654 -18.307 -0.439 -18.347 -0.433 -18.764 -0.382 -18.835 -0.378 -19.353 -0.397 -19.370 -0.398 -19.533 -0.397 -19.585 -0.394 -19.591 -0.395 -19.665 -0.420 -19.683 -0.423 5.355 0.171 6.065 0.584 43.334 42.219
104.400 -14.232 -0.909 -14.533 -0.881 -15.370 -0.816 -16.981 -0.653 -18.300 -0.436 -18.340 -0.430 -18.757 -0.378 -18.828 -0.374 -19.346 -0.393 -19.363 -0.394 -19.526 -0.393 -19.577 -0.390 -19.583 -0.391 -19.657 -0.416 -19.675 -0.419 5.355 0.170 6.045 0.579 43.331 42.213
104.800 -14.218 -0.910 -14.519 -0.883 -15.359 -0.817 -16.973 -0.653 -18.293 -0.433 -18.333 -0.426 -18.751 -0.374 -18.822 -0.370 -19.339 -0.390 -19.356 -0.391 -19.518 -0.389 -19.569 -0.386 -19.575 -0.387 -19.648 -0.411 -19.667 -0.414 5.356 0.170 6.024 0.574 43.328 42.207
105.200 -14.204 -0.911 -14.506 -0.884 -15.348 -0.818 -16.964 -0.653 -18.287 -0.430 -18.326 -0.423 -18.744 -0.370 -18.815 -0.366 -19.332 -0.387 -19.349 -0.388 -19.510 -0.385 -19.561 -0.382 -19.567 -0.383 -19.640 -0.407 -19.659 -0.409 5.356 0.169 6.003 0.569 43.325 42.200
105.600 -14.190 -0.913 -14.493 -0.885 -15.336 -0.819 -16.956 -0.653 -18.280 -0.427 -18.319 -0.420 -18.737 -0.365 -18.809 -0.361 -19.325 -0.383 -19.342 -0.384 -19.503 -0.382 -19.552 -0.378 -19.559 -0.378 -19.631 -0.402 -19.651 -0.404 5.356 0.169 5.981 0.564 43.322 42.194
106.000 -14.176 -0.914 -14.479 -0.886 -15.325 -0.820 -16.948 -0.653 -18.273 -0.424 -18.313 -0.417 -18.731 -0.361 -18.802 -0.357 -19.318 -0.380 -19.335 -0.381 -19.495 -0.378 -19.544 -0.373 -19.550 -0.374 -19.623 -0.398 -19.642 -0.399 5.357 0.168 5.958 0.559 43.319 42.188
106.400 -14.162 -0.915 -14.466 -0.887 -15.314 -0.821 -16.940 -0.652 -18.266 -0.420 -18.306 -0.413 -18.724 -0.357 -18.796 -0.353 -19.311 -0.376 -19.328 -0.377 -19.487 -0.374 -19.536 -0.369 -19.542 -0.369 -19.614 -0.393 -19.634 -0.394 5.358 0.167 5.936 0.554 43.316 42.181
106.800 -14.148 -0.916 -14.453 -0.888 -15.303 -0.821 -16.931 -0.652 -18.259 -0.417 -18.299 -0.410 -18.718 -0.352 -18.789 -0.348 -19.304 -0.373 -19.321 -0.374 -19.479 -0.370 -19.527 -0.364 -19.533 -0.365 -19.606 -0.388 -19.626 -0.389 5.359 0.167 5.912 0.549 43.313 42.174
107.200 -14.134 -0.917 -14.440 -0.889 -15.292 -0.822 -16.923 -0.651 -18.252 -0.414 -18.292 -0.406 -18.711 -0.348 -18.782 -0.344 -19.297 -0.369 -19.313 -0.370 -19.471 -0.365 -19.519 -0.360 -19.525 -0.360 -19.597 -0.384 -19.618 -0.384 5.360 0.166 5.889 0.543 43.310 42.168
107.600 -14.121 -0.918 -14.427 -0.890 -15.281 -0.823 -16.915 -0.651 -18.245 -0.410 -18.285 -0.403 -18.704 -0.343 -18.776 -0.339 -19.290 -0.366 -19.306 -0.366 -19.463 -0.361 -19.511 -0.355 -19.516 -0.356 -19.589 -0.379 -19.609 -0.379 5.361 0.166 5.865 0.538 43.306 42.161
108.000 -14.107 -0.919 -14.414 -0.891 -15.270 -0.824 -16.907 -0.651 -18.238 -0.407 -18.278 -0.399 -18.697 -0.339 -18.769 -0.334 -19.282 -0.362 -19.299 -0.363 -19.455 -0.357 -19.502 -0.351 -19.508 -0.351 -19.580 -0.374 -19.601 -0.374 5.363 0.165 5.840 0.533 43.303 42.154
108.400 -14.093 -0.920 -14.401 -0.892 -15.259 -0.824 -16.899 -0.650 -18.231 -0.404 -18.271 -0.396 -18.691 -0.334 -18.762 -0.330 -19.275 -0.358 -19.291 -0.359 -19.447 -0.353 -19.493 -0.346 -19.499 -0.346 -19.572 -0.369 -19.593 -0.369 5.364 0.164 5.815 0.528 43.300 42.147
108.800 -14.080 -0.920 -14.388 -0.893 -15.248 -0.825 -16.891 -0.649 -18.224 -0.400 -18.264 -0.392 -18.684 -0.329 -18.755 -0.325 -19.267 -0.355 -19.284 -0.355 -19.439 -0.349 -19.485 -0.341 -19.490 -0.341 -19.563 -0.365 -19.584 -0.364 5.366 0.164 5.789 0.523 43.297 42.140
109.200 -14.066 -0.921 -14.375 -0.893 -15.237 -0.825 -16.883 -0.649 -18.217 -0.397 -18.257 -0.389 -18.677 -0.325 -18.749 -0.320 -19.260 -0.351 -19.276 -0.352 -19.431 -0.344 -19.476 -0.336 -19.481 -0.337 -19.554 -0.360 -19.576 -0.358 5.368 0.163 5.764 0.517 43.294 42.133
109.600 -14.053 -0.922 -14.362 -0.894 -15.226 -0.826 -16.875 -0.648 -18.210 -0.393 -18.250 -0.385 -18.670 -0.320 -18.742 -0.315 -19.252 -0.347 -19.269 -0.348 -19.422 -0.340 -19.467 -0.331 -19.472 -0.332 -19.546 -0.355 -19.568 -0.353 5.370 0.163 5.737 0.512 43.290 42.126
110.000 -14.039 -0.922 -14.350 -0.894 -15.216 -0.826 -16.867 -0.648 -18.203 -0.390 -18.243 -0.382 -18.663 -0.315 -18.735 -0.310 -19.245 -0.343 -19.261 -0.344 -19.414 -0.336 -19.458 -0.327 -19.463 -0.327 -19.537 -0.350 -19.559 -0.348 5.373 0.162 5.710 0.507 43.287 42.119
110.400 -14.026 -0.923 -14.337 -0.895 -15.205 -0.826 -16.859 -0.647 -18.196 -0.386 -18.236 -0.378 -18.656 -0.310 -18.728 -0.305 -19.237 -0.340 -19.253 -0.340 -19.405 -0.331 -19.449 -0.322 -19.454 -0.322 -19.528 -0.345 -19.551 -0.342 5.375 0.162 5.683 0.501 43.284 42.111
110.800 -14.012 -0.923 -14.324 -0.895 -15.194 -0.827 -16.851 -0.646 -18.189 -0.383 -18.229 -0.374 -18.650 -0.305 -18.721 -0.300 -19.229 -0.336 -19.246 -0.337 -19.397 -0.327 -19.440 -0.317 -19.445 -0.317 -19.519 -0.340 -19.542 -0.337 5.378 0.161 5.655 0.496 43.280 42.104
111.200 -13.999 -0.923 -14.312 -0.896 -15.184 -0.827 -16.844 -0.646 -18.182 -0.379 -18.222 -0.371 -18.643 -0.300 -18.714 -0.295 -19.222 -0.332 -19.238 -0.333 -19.388 -0.322 -19.431 -0.312 -19.436 -0.312 -19.511 -0.335 -19.534 -0.331 5.380 0.161 5.627 0.490 43.277 42.096
111.600 -13.986 -0.924 -14.299 -0.896 -15.173 -0.827 -16.836 -0.645 -18.175 -0.376 -18.215 -0.367 -18.636 -0.295 -18.707 -0.290 -19.214 -0.328 -19.230 -0.329 -19.379 -0.318 -19.422 -0.307 -19.427 -0.307 -19.502 -0.330 -19.525 -0.326 5.383 0.160 5.599 0.485 43.273 42.088
112.000 -13.973 -0.924 -14.287 -0.896 -15.163 -0.827 -16.828 -0.644 -18.168 -0.372 -18.208 -0.363 -18.628 -0.290 -18.700 -0.285 -19.206 -0.324 -19.222 -0.325 -19.371 -0.313 -19.412 -0.302 -19.417 -0.302 -19.493 -0.325 -19.517 -0.320 5.386 0.159 5.570 0.479 43.270 42.081
112.400 -13.959 -0.924 -14.274 -0.896 -15.152 -0.827 -16.820 -0.643 -18.160 -0.369 -18.201 -0.359 -18.621 -0.285 -18.693 -0.280 -19.198 -0.320 -19.214 -0.321 -19.362 -0.309 -19.403 -0.296 -19.408 -0.297 -19.484 -0.320 -19.508 -0.315 5.390 0.159 5.540 0.474 43.266 42.073
112.800 -13.946 -0.924 -14.262 -0.896 -15.142 -0.827 -16.813 -0.642 -18.153 -0.365 -18.193 -0.356 -18.614 -0.280 -18.686 -0.275 -19.190 -0.316 -19.206 -0.317 -19.353 -0.304 -19.394 -0.291 -19.398 -0.291 -19.475 -0.315 -19.500 -0.309 5.393 0.158 5.511 0.468 43.263 42.064
113.200 -13.933 -0.924 -14.249 -0.896 -15.131 -0.827 -16.805 -0.642 -18.146 -0.361 -18.186 -0.352 -18.607 -0.274 -18.678 -0.269 -19.182 -0.313 -19.198 -0.314 -19.344 -0.300 -19.384 -0.286 -19.389 -0.286 -19.466 -0.310 -19.491 -0.304 5.397 0.158 5.480 0.463 43.259 42.056
113.600 -13.920 -0.924 -14.237 -0.896 -15.121 -0.827 -16.797 -0.641 -18.139 -0.358 -18.179 -0.348 -18.600 -0.269 -18.671 -0.264 -19.174 -0.309 -19.189 -0.310 -19.335 -0.295 -19.375 -0.281 -19.379 -0.281 -19.457 -0.305 -19.482 -0.298 5.401 0.157 5.450 0.457 43.255 42.048
114.000 -13.907 -0.924 -14.225 -0.896 -15.111 -0.827 -16.790 -0.640 -18.132 -0.354 -18.172 -0.344 -18.593 -0.264 -18.664 -0.259 -19.165 -0.305 -19.181 -0.306 -19.326 -0.290 -19.365 -0.276 -19.369 -0.275 -19.448 -0.299 -19.474 -0.292 5.405 0.157 5.419 0.451 43.252 42.039
114.400 -13.894 -0.924 -14.212 -0.896 -15.101 -0.826 -16.782 -0.639 -18.124 -0.351 -18.164 -0.341 -18.585 -0.258 -18.657 -0.253 -19.157 -0.301 -19.173 -0.302 -19.317 -0.286 -19.355 -0.270 -19.359 -0.270 -19.439 -0.294 -19.465 -0.287 5.409 0.156 5.387 0.446 43.248 42.031
114.800 -13.881 -0.923 -14.200 -0.895 -15.090 -0.826 -16.774 -0.638 -18.117 -0.347 -18.157 -0.337 -18.578 -0.253 -18.649 -0.248 -19.149 -0.297 -19.164 -0.298 -19.307 -0.281 -19.346 -0.265 -19.350 -0.265 -19.430 -0.289 -19.456 -0.281 5.413 0.156 5.355 0.440 43.244 42.022
115.200 -13.868 -0.923 -14.188 -0.895 -15.080 -0.826 -16.767 -0.637 -18.110 -0.344 -18.150 -0.333 -18.570 -0.248 -18.642 -0.243 -19.140 -0.293 -19.156 -0.294 -19.298 -0.276 -19.336 -0.260 -19.340 -0.259 -19.421 -0.284 -19.448 -0.275 5.418 0.155 5.323 0.434 43.241 42.013
115.600 -13.856 -0.923 -14.176 -0.895 -15.070 -0.825 -16.759 -0.636 -18.102 -0.340 -18.142 -0.330 -18.563 -0.242 -18.634 -0.237 -19.132 -0.289 -19.147 -0.290 -19.289 -0.271 -19.326 -0.254 -19.330 -0.254 -19.412 -0.279 -19.439 -0.269 5.423 0.154 5.290 0.428 43.237 42.004
116.000 -13.843 -0.922 -14.164 -0.894 -15.060 -0.825 -16.752 -0.635 -18.095 -0.337 -18.135 -0.326 -18.555 -0.237 -18.627 -0.232 -19.123 -0.285 -19.138 -0.286 -19.279 -0.267 -19.316 -0.249 -19.319 -0.249 -19.403 -0.274 -19.430 -0.263 5.428 0.154 5.257 0.423 43.233 41.995
116.400 -13.830 -0.922 -14.152 -0.894 -15.050 -0.824 -16.744 -0.634 -18.087 -0.333 -18.128 -0.322 -18.548 -0.231 -18.619 -0.226 -19.114 -0.281 -19.130 -0.282 -19.270 -0.262 -19.306 -0.243 -19.309 -0.243 -19.393 -0.268 -19.422 -0.258 5.433 0.153 5.224 0.417 43.229 41.986
116.800 -13.818 -0.921 -14.140 -0.893 -15.040 -0.824 -16.737 -0.633 -18.080 -0.330 -18.120 -0.319 -18.540 -0.226 -18.611 -0.221 -19.106 -0.278 -19.121 -0.278 -19.260 -0.257 -19.295 -0.238 -19.299 -0.238 -19.384 -0.263 -19.413 -0.252 5.438 0.153 5.190 0.411 43.225 41.976
117.200 -13.805 -0.920 -14.128 -0.893 -15.030 -0.823 -16.729 -0.632 -18.072 -0.326 -18.113 -0.315 -18.533 -0.221 -18.604 -0.215 -19.097 -0.274 -19.112 -0.274 -19.250 -0.252 -19.285 -0.232 -19.289 -0.232 -19.375 -0.258 -19.404 -0.246 5.444 0.152 5.156 0.405 43.221 41.966
117.600 -13.792 -0.920 -14.116 -0.892 -15.020 -0.822 -16.722 -0.630 -18.065 -0.323 -18.105 -0.311 -18.525 -0.215 -18.596 -0.209 -19.088 -0.270 -19.103 -0.271 -19.240 -0.247 -19.275 -0.227 -19.278 -0.227 -19.366 -0.253 -19.395 -0.240 5.450 0.151 5.121 0.399 43.217 41.956
118.000 -13.780 -0.919 -14.104 -0.891 -15.010 -0.822 -16.715 -0.629 -18.057 -0.319 -18.097 -0.308 -18.517 -0.210 -18.588 -0.204 -19.079 -0.266 -19.094 -0.267 -19.230 -0.243 -19.264 -0.221 -19.268 -0.221 -19.357 -0.248 -19.386 -0.234 5.456 0.151 5.086 0.393 43.213 41.946
118.400 -13.767 -0.918 -14.092 -0.890 -15.000 -0.821 -16.707 -0.628 -18.050 -0.316 -18.090 -0.304 -18.509 -0.204 -18.580 -0.198 -19.070 -0.262 -19.085 -0.263 -19.220 -0.238 -19.254 -0.216 -19.257 -0.215 -19.347 -0.243 -19.378 -0.228 5.462 0.150 5.051 0.387 43.209 41.936
118.800 -13.755 -0.917 -14.081 -0.889 -14.991 -0.820 -16.700 -0.627 -18.042 -0.313 -18.082 -0.301 -18.501 -0.199 -18.572 -0.193 -19.061 -0.258 -19.076 -0.259 -19.210 -0.233 -19.243 -0.210 -19.246 -0.210 -19.338 -0.237 -19.369 -0.222 5.469 0.149 5.015 0.380 43.205 41.925
119.200 -13.742 -0.916 -14.069 -0.888 -14.981 -0.819 -16.692 -0.626 -18.034 -0.309 -18.074 -0.297 -18.493 -0.193 -18.564 -0.187 -19.052 -0.255 -19.066 -0.255 -19.200 -0.228 -19.232 -0.205 -19.236 -0.204 -19.329 -0.232 -19.360 -0.216 5.476 0.148 4.979 0.374 43.201 41.914
119.600 -13.730 -0.915 -14.057 -0.887 -14.971 -0.818 -16.685 -0.624 -18.027 -0.306 -18.067 -0.294 -18.485 -0.188 -18.556 -0.182 -19.042 -0.251 -19.057 -0.251 -19.190 -0.223 -19.222 -0.199 -19.225 -0.199 -19.319 -0.227 -19.351 -0.210 5.483 0.148 4.943 0.368 43.197 41.903
120.000 -13.718 -0.914 -14.046 -0.886 -14.961 -0.817 -16.678 -0.623 -18.019 -0.303 -18.059 -0.291 -18.477 -0.182 -18.548 -0.176 -19.033 -0.247 -19.048 -0.248 -19.180 -0.218 -19.211 -0.194 -19.214 -0.193 -19.310 -0.222 -19.342 -0.205 5.490 0.147 4.906 0.361 43.193 41.892
120.400 -13.705 -0.912 -14.034 -0.885 -14.952 -0.816 -16.671 -0.622 -18.011 -0.300 -18.051 -0.288 -18.469 -0.177 -18.539 -0.170 -19.024 -0.244 -19.038 -0.244 -19.169 -0.213 -19.200 -0.188 -19.203 -0.188 -19.301 -0.217 -19.333 -0.199 5.498 0.146 4.869 0.355 43.188 41.880
120.800 -13.693 -0.911 -14.022 -0.884 -14.942 -0.815 -16.663 -0.620 -18.003 -0.297 -18.043 -0.284 -18.461 -0.171 -18.531 -0.165 -19.014 -0.240 -19.029 -0.240 -19.159 -0.209 -19.189 -0.183 -19.191 -0.182 -19.291 -0.212 -19.324 -0.193 5.505 0.145 4.831 0.348 43.184 41.868
121.200 -13.681 -0.910 -14.011 -0.882 -14.933 -0.813 -16.656 -0.619 -17.995 -0.294 -18.035 -0.281 -18.452 -0.166 -18.523 -0.159 -19.005 -0.236 -19.019 -0.237 -19.148 -0.204 -19.178 -0.177 -19.180 -0.176 -19.282 -0.207 -19.315 -0.187 5.513 0.144 4.793 0.342 43.180 41.856
121.600 -13.669 -0.908 -13.999 -0.881 -14.923 -0.812 -16.649 -0.618 -17.987 -0.291 -18.027 -0.278 -18.444 -0.161 -18.514 -0.154 -18.995 -0.233 -19.009 -0.233 -19.137 -0.199 -19.166 -0.172 -19.169 -0.171 -19.272 -0.202 -19.306 -0.181 5.522 0.143 4.755 0.335 43.175 41.843
122.000 -13.657 -0.907 -13.988 -0.879 -14.914 -0.811 -16.642 -0.616 -17.979 -0.288 -18.019 -0.275 -18.435 -0.155 -18.506 -0.149 -18.985 -0.229 -18.999 -0.229 -19.127 -0.194 -19.155 -0.166 -19.158 -0.165 -19.263 -0.197 -19.298 -0.175 5.530 0.142 4.717 0.329 43.171 41.831
122.400 -13.644 -0.905 -13.977 -0.878 -14.904 -0.809 -16.635 -0.615 -17.971 -0.285 -18.011 -0.272 -18.427 -0.150 -18.497 -0.143 -18.975 -0.226 -18.990 -0.226 -19.116 -0.189 -19.144 -0.161 -19.146 -0.160 -19.253 -0.192 -19.289 -0.170 5.539 0.141 4.678 0.322 43.167 41.817
122.800 -13.632 -0.904 -13.965 -0.876 -14.895 -0.808 -16.628 -0.613 -17.963 -0.282 -18.003 -0.269 -18.418 -0.145 -18.488 -0.138 -18.965 -0.222 -18.980 -0.222 -19.105 -0.184 -19.132 -0.155 -19.135 -0.154 -19.244 -0.188 -19.280 -0.164 5.548 0.140 4.639 0.315 43.162 41.804
123.200 -13.620 -0.902 -13.954 -0.875 -14.885 -0.806 -16.621 -0.612 -17.955 -0.280 -17.995 -0.266 -18.410 -0.140 -18.480 -0.133 -18.955 -0.219 -18.970 -0.219 -19.094 -0.179 -19.121 -0.150 -19.123 -0.149 -19.234 -0.183 -19.271 -0.158 5.557 0.138 4.600 0.308 43.158 41.790
123.600 -13.608 -0.900 -13.943 -0.873 -14.876 -0.805 -16.614 -0.610 -17.947 -0.277 -17.986 -0.264 -18.401 -0.135 -18.471 -0.128 -18.945 -0.215 -18.959 -0.215 -19.083 -0.175 -19.109 -0.144 -19.111 -0.143 -19.225 -0.178 -19.262 -0.152 5.567 0.137 4.560 0.301 43.153 41.775
124.000 -13.596 -0.898 -13.931 -0.871 -14.867 -0.803 -16.607 -0.609 -17.939 -0.275 -17.978 -0.261 -18.392 -0.130 -18.462 -0.123 -18.935 -0.212 -18.949 -0.212 -19.072 -0.170 -19.097 -0.139 -19.099 -0.138 -19.215 -0.173 -19.253 -0.147 5.576 0.136 4.521 0.294 43.149 41.760
124.400 -13.585 -0.896 -13.920 -0.869 -14.858 -0.801 -16.600 -0.607 -17.931 -0.272 -17.970 -0.259 -18.383 -0.126 -18.453 -0.118 -18.925 -0.209 -18.939 -0.208 -19.060 -0.165 -19.085 -0.133 -19.087 -0.133 -19.206 -0.169 -19.244 -0.141 5.586 0.134 4.481 0.287 43.144 41.745
124.800 -13.573 -0.894 -13.909 -0.867 -14.848 -0.800 -16.593 -0.606 -17.922 -0.270 -17.962 -0.256 -18.374 -0.121 -18.444 -0.113 -18.915 -0.206 -18.929 -0.205 -19.049 -0.160 -19.073 -0.128 -19.075 -0.127 -19.196 -0.164 -19.234 -0.136 5.596 0.133 4.441 0.279 43.139 41.729
125.200 -13.561 -0.892 -13.898 -0.865 -14.839 -0.798 -16.586 -0.604 -17.914 -0.268 -17.953 -0.254 -18.365 -0.116 -18.435 -0.108 -18.904 -0.203 -18.918 -0.202 -19.037 -0.155 -19.061 -0.123 -19.063 -0.122 -19.186 -0.160 -19.225 -0.130 5.606 0.131 4.401 0.272 43.135 41.713
125.600 -13.549 -0.890 -13.887 -0.863 -14.830 -0.796 -16.579 -0.603 -17.906 -0.265 -17.945 -0.251 -18.356 -0.112 -18.425 -0.104 -18.894 -0.200 -18.908 -0.199 -19.026 -0.151 -19.049 -0.118 -19.051 -0.117 -19.177 -0.155 -19.216 -0.125 5.617 0.130 4.362 0.265 43.130 41.696
126.000 -13.537 -0.888 -13.876 -0.861 -14.821 -0.794 -16.572 -0.601 -17.897 -0.263 -17.936 -0.249 -18.347 -0.108 -18.416 -0.100 -18.884 -0.197 -18.897 -0.196 -19.014 -0.146 -19.037 -0.113 -19.039 -0.112 -19.167 -0.151 -19.207 -0.120 5.627 0.128 4.322 0.257 43.125 41.679
126.400 -13.526 -0.886 -13.865 -0.859 -14.812 -0.792 -16.565 -0.600 -17.889 -0.261 -17.928 -0.247 -18.337 -0.104 -18.407 -0.095 -18.873 -0.194 -18.887 -0.193 -19.003 -0.141 -19.025 -0.108 -19.026 -0.107 -19.157 -0.147 -19.198 -0.115 5.637 0.126 4.283 0.250 43.121 41.661
126.800 -13.514 -0.883 -13.854 -0.856 -14.803 -0.790 -16.558 -0.598 -17.880 -0.259 -17.919 -0.245 -18.328 -0.101 -18.397 -0.092 -18.862 -0.191 -18.876 -0.190 -18.991 -0.136 -19.012 -0.103 -19.014 -0.102 -19.148 -0.143 -19.189 -0.110 5.647 0.124 4.244 0.243 43.116 41.643
127.200 -13.502 -0.881 -13.843 -0.854 -14.794 -0.788 -16.551 -0.596 -17.872 -0.258 -17.911 -0.243 -18.318 -0.097 -18.387 -0.088 -18.852 -0.188 -18.865 -0.187 -18.979 -0.132 -19.000 -0.098 -19.001 -0.098 -19.138 -0.139 -19.180 -0.105 5.658 0.122 4.206 0.235 43.111 41.625
127.600 -13.491 -0.879 -13.832 -0.852 -14.785 -0.786 -16.545 -0.595 -17.863 -0.256 -17.902 -0.242 -18.309 -0.094 -18.378 -0.085 -18.841 -0.185 -18.854 -0.184 -18.967 -0.127 -18.987 -0.094 -18.989 -0.093 -19.128 -0.135 -19.171 -0.100 5.668 0.120 4.168 0.228 43.106 41.605
128.000 -13.479 -0.876 -13.821 -0.849 -14.776 -0.783 -16.538 -0.593 -17.855 -0.254 -17.893 -0.240 -18.299 -0.091 -18.368 -0.082 -18.830 -0.183 -18.843 -0.181 -18.955 -0.122 -18.974 -0.089 -18.976 -0.089 -19.119 -0.131 -19.162 -0.096 5.677 0.119 4.131 0.221 43.101 41.586
128.400 -13.468 -0.874 -13.810 -0.847 -14.767 -0.781 -16.531 -0.591 -17.846 -0.253 -17.885 -0.238 -18.289 -0.089 -18.358 -0.079 -18.819 -0.180 -18.833 -0.179 -18.943 -0.118 -18.962 -0.085 -18.963 -0.085 -19.109 -0.127 -19.153 -0.092 5.686 0.117 4.095 0.215 43.097 41.566
128.800 -13.456 -0.871 -13.799 -0.844 -14.758 -0.779 -16.524 -0.589 -17.838 -0.251 -17.876 -0.237 -18.280 -0.087 -18.348 -0.077 -18.808 -0.178 -18.821 -0.176 -18.930 -0.113 -18.949 -0.081 -18.950 -0.081 -19.099 -0.123 -19.144 -0.088 5.695 0.115 4.059 0.208 43.092 41.546
129.200 -13.445 -0.868 -13.789 -0.841 -14.750 -0.776 -16.518 -0.587 -17.829 -0.250 -17.867 -0.235 -18.270 -0.085 -18.338 -0.076 -18.797 -0.176 -18.810 -0.174 -18.918 -0.108 -18.936 -0.077 -18.937 -0.077 -19.089 -0.120 -19.135 -0.084 5.703 0.113 4.026 0.202 43.087 41.526
129.600 -13.433 -0.865 -13.778 -0.839 -14.741 -0.774 -16.511 -0.586 -17.820 -0.249 -17.858 -0.234 -18.260 -0.084 -18.328 -0.074 -18.786 -0.173 -18.799 -0.171 -18.906 -0.104 -18.923 -0.074 -18.924 -0.074 -19.080 -0.116 -19.126 -0.081 5.710 0.112 3.993 0.196 43.082 41.507
130.000 -13.422 -0.862 -13.767 -0.836 -14.732 -0.771 -16.505 -0.584 -17.812 -0.247 -17.850 -0.233 -18.250 -0.082 -18.318 -0.073 -18.775 -0.171 -18.788 -0.169 -18.893 -0.099 -18.910 -0.070 -18.911 -0.071 -19.070 -0.113 -19.116 -0.078 5.717 0.110 3.961 0.191 43.077 41.487
130.400 -13.411 -0.859 -13.756 -0.833 -14.723 -0.769 -16.498 -0.582 -17.803 -0.246 -17.841 -0.232 -18.239 -0.082 -18.307 -0.073 -18.764 -0.169 -18.777 -0.167 -18.881 -0.095 -18.896 -0.067 -18.898 -0.068 -19.060 -0.110 -19.107 -0.075 5.723 0.109 3.931 0.186 43.072 41.469
130.800 -13.399 -0.856 -13.746 -0.830 -14.715 -0.766 -16.491 -0.580 -17.794 -0.245 -17.832 -0.231 -18.229 -0.081 -18.297 -0.072 -18.753 -0.168 -18.766 -0.165 -18.868 -0.090 -18.883 -0.065 -18.884 -0.066 -19.050 -0.107 -19.098 -0.073 5.728 0.108 3.903 0.182 43.068 41.451
131.200 -13.388 -0.853 -13.735 -0.827 -14.706 -0.763 -16.485 -0.578 -17.786 -0.244 -17.823 -0.230 -18.219 -0.081 -18.287 -0.073 -18.741 -0.166 -18.754 -0.163 -18.855 -0.086 -18.869 -0.062 -18.871 -0.064 -19.040 -0.104 -19.089 -0.071 5.732 0.108 3.876 0.179 43.063 41.435
131.600 -13.377 -0.850 -13.725 -0.824 -14.697 -0.761 -16.478 -0.576 -17.777 -0.244 -17.814 -0.229 -18.209 -0.081 -18.276 -0.073 -18.730 -0.164 -18.743 -0.161 -18.843 -0.082 -18.856 -0.060 -18.857 -0.063 -19.031 -0.101 -19.080 -0.070 5.736 0.107 3.850 0.176 43.058 41.420
132.000 -13.366 -0.847 -13.714 -0.821 -14.689 -0.758 -16.472 -0.574 -17.768 -0.243 -17.805 -0.229 -18.198 -0.082 -18.266 -0.074 -18.719 -0.163 -18.731 -0.159 -18.830 -0.077 -18.842 -0.059 -18.843 -0.061 -19.021 -0.099 -19.071 -0.069 5.739 0.107 3.826 0.174 43.054 41.408
132.400 -13.355 -0.844 -13.704 -0.817 -14.680 -0.755 -16.465 -0.572 -17.760 -0.242 -17.797 -0.228 -18.188 -0.083 -18.255 -0.075 -18.707 -0.161 -18.720 -0.158 -18.817 -0.073 -18.828 -0.057 -18.829 -0.061 -19.011 -0.096 -19.061 -0.069 5.741 0.107 3.802 0.173 43.049 41.397
132.800 -13.344 -0.840 -13.693 -0.814 -14.672 -0.752 -16.459 -0.570 -17.751 -0.242 -17.788 -0.228 -18.177 -0.084 -18.244 -0.076 -18.696 -0.160 -18.709 -0.156 -18.804 -0.069 -18.814 -0.057 -18.815 -0.060 -19.001 -0.094 -19.052 -0.068 5.742 0.108 3.781 0.172 43.044 41.388
133.200 -13.333 -0.837 -13.683 -0.811 -14.663 -0.749 -16.453 -0.568 -17.742 -0.241 -17.779 -0.227 -18.166 -0.085 -18.233 -0.078 -18.684 -0.159 -18.697 -0.155 -18.791 -0.065 -18.800 -0.056 -18.801 -0.060 -18.991 -0.092 -19.043 -0.069 5.743 0.109 3.760 0.172 43.040 41.382
133.600 -13.322 -0.833 -13.673 -0.807 -14.655 -0.746 -16.446 -0.566 -17.733 -0.241 -17.770 -0.227 -18.156 -0.087 -18.222 -0.080 -18.673 -0.158 -18.685 -0.154 -18.778 -0.061 -18.786 -0.056 -18.787 -0.061 -18.981 -0.090 -19.034 -0.070 5.744 0.110 3.740 0.173 43.035 41.377
134.000 -13.311 -0.830 -13.662 -0.804 -14.647 -0.743 -16.440 -0.564 -17.725 -0.240 -17.761 -0.227 -18.145 -0.089 -18.212 -0.082 -18.661 -0.157 -18.674 -0.153 -18.765 -0.057 -18.771 -0.056 -18.772 -0.061 -18.971 -0.088 -19.024 -0.071 5.744 0.112 3.721 0.174 43.031 41.374
134.400 -13.300 -0.826 -13.652 -0.800 -14.638 -0.739 -16.434 -0.562 -17.716 -0.240 -17.752 -0.226 -18.134 -0.091 -18.201 -0.085 -18.650 -0.156 -18.662 -0.152 -18.751 -0.054 -18.757 -0.057 -18.758 -0.062 -18.961 -0.087 -19.015 -0.072 5.744 0.113 3.702 0.176 43.027 41.372
134.800 -13.289 -0.822 -13.642 -0.797 -14.630 -0.736 -16.428 -0.560 -17.707 -0.240 -17.743 -0.226 -18.124 -0.093 -18.190 -0.087 -18.638 -0.155 -18.651 -0.151 -18.738 -0.051 -18.742 -0.057 -18.743 -0.063 -18.952 -0.085 -19.006 -0.074 5.744 0.115 3.684 0.177 43.022 41.371
135.200 -13.278 -0.819 -13.631 -0.793 -14.622 -0.733 -16.421 -0.558 -17.699 -0.240 -17.735 -0.226 -18.113 -0.095 -18.179 -0.090 -18.627 -0.155 -18.639 -0.150 -18.725 -0.048 -18.727 -0.058 -18.728 -0.065 -18.942 -0.084 -18.996 -0.075 5.744 0.117 3.667 0.179 43.018 41.370
135.600 -13.267 -0.815 -13.621 -0.789 -14.614 -0.730 -16.415 -0.556 -17.690 -0.240 -17.726 -0.226 -18.102 -0.098 -18.168 -0.093 -18.615 -0.154 -18.627 -0.150 -18.712 -0.045 -18.713 -0.060 -18.714 -0.066 -18.932 -0.083 -18.987 -0.077 5.743 0.119 3.650 0.181 43.014 41.368
136.000 -13.256 -0.811 -13.611 -0.785 -14.605 -0.726 -16.409 -0.553 -17.681 -0.240 -17.717 -0.227 -18.092 -0.100 -18.157 -0.096 -18.604 -0.154 -18.616 -0.149 -18.698 -0.043 -18.698 -0.061 -18.699 -0.068 -18.922 -0.082 -18.977 -0.080 5.743 0.120 3.633 0.183 43.010 41.367
136.400 -13.245 -0.807 -13.601 -0.781 -14.597 -0.723 -16.403 -0.551 -17.673 -0.240 -17.708 -0.227 -18.081 -0.103 -18.146 -0.099 -18.592 -0.154 -18.604 -0.149 -18.685 -0.042 -18.683 -0.062 -18.684 -0.070 -18.912 -0.081 -18.968 -0.082 5.742 0.122 3.615 0.184 43.005 41.365
136.800 -13.235 -0.803 -13.591 -0.777 -14.589 -0.719 -16.397 -0.549 -17.664 -0.240 -17.699 -0.227 -18.070 -0.106 -18.135 -0.102 -18.580 -0.154 -18.592 -0.149 -18.672 -0.041 -18.668 -0.064 -18.669 -0.071 -18.902 -0.080 -18.958 -0.084 5.741 0.123 3.598 0.184 43.001 41.362
137.200 -13.224 -0.799 -13.581 -0.773 -14.581 -0.715 -16.391 -0.546 -17.656 -0.240 -17.691 -0.227 -18.060 -0.109 -18.124 -0.105 -18.569 -0.154 -18.581 -0.149 -18.658 -0.041 -18.654 -0.066 -18.654 -0.073 -18.892 -0.080 -18.949 -0.087 5.740 0.123 3.580 0.184 42.996 41.360
137.600 -13.213 -0.795 -13.571 -0.769 -14.573 -0.712 -16.385 -0.544 -17.647 -0.240 -17.682 -0.228 -18.049 -0.112 -18.114 -0.108 -18.557 -0.154 -18.569 -0.149 -18.645 -0.041 -18.639 -0.067 -18.640 -0.075 -18.882 -0.080 -18.940 -0.089 5.738 0.123 3.562 0.184 42.991 41.357
138.000 -13.203 -0.790 -13.561 -0.765 -14.565 -0.708 -16.379 -0.542 -17.639 -0.241 -17.673 -0.228 -18.039 -0.115 -18.103 -0.111 -18.545 -0.154 -18.557 -0.149 -18.631 -0.042 -18.624 -0.069 -18.625 -0.077 -18.872 -0.080 -18.930 -0.092 5.737 0.123 3.543 0.183 42.986 41.355
138.400 -13.192 -0.786 -13.551 -0.761 -14.557 -0.704 -16.373 -0.539 -17.630 -0.241 -17.665 -0.229 -18.028 -0.118 -18.092 -0.114 -18.534 -0.154 -18.546 -0.149 -18.618 -0.044 -18.610 -0.071 -18.610 -0.079 -18.862 -0.080 -18.921 -0.094 5.735 0.123 3.524 0.182 42.981 41.353
138.800 -13.182 -0.782 -13.541 -0.756 -14.549 -0.700 -16.367 -0.537 -17.622 -0.242 -17.656 -0.229 -18.018 -0.121 -18.082 -0.117 -18.522 -0.154 -18.534 -0.150 -18.605 -0.046 -18.595 -0.072 -18.596 -0.080 -18.852 -0.081 -18.911 -0.097 5.733 0.123 3.506 0.181 42.976 41.351
139.200 -13.171 -0.777 -13.531 -0.752 -14.541 -0.696 -16.361 -0.534 -17.613 -0.242 -17.648 -0.230 -18.008 -0.124 -18.071 -0.121 -18.511 -0.155 -18.522 -0.150 -18.591 -0.048 -18.581 -0.074 -18.581 -0.082 -18.842 -0.081 -18.902 -0.100 5.731 0.123 3.487 0.180 42.971 41.350
139.600 -13.161 -0.773 -13.521 -0.747 -14.533 -0.692 -16.355 -0.532 -17.605 -0.242 -17.639 -0.231 -17.998 -0.127 -18.061 -0.124 -18.499 -0.155 -18.511 -0.151 -18.578 -0.051 -18.566 -0.076 -18.567 -0.084 -18.833 -0.082 -18.892 -0.102 5.730 0.123 3.468 0.179 42.966 41.350
140.000 -13.150 -0.768 -13.512 -0.743 -14.525 -0.688 -16.349 -0.529 -17.597 -0.243 -17.631 -0.231 -17.988 -0.131 -18.051 -0.127 -18.488 -0.156 -18.499 -0.151 -18.565 -0.053 -18.552 -0.078 -18.552 -0.086 -18.823 -0.083 -18.883 -0.105 5.728 0.123 3.450 0.178 42.960 41.350
140.400 -13.140 -0.763 -13.502 -0.738 -14.517 -0.684 -16.343 -0.527 -17.589 -0.243 -17.623 -0.232 -17.978 -0.134 -18.040 -0.131 -18.476 -0.157 -18.488 -0.152 -18.552 -0.056 -18.538 -0.080 -18.538 -0.088 -18.813 -0.084 -18.873 -0.107 5.727 0.123 3.431 0.177 42.955 41.350
140.800 -13.129 -0.759 -13.492 -0.734 -14.510 -0.680 -16.338 -0.524 -17.581 -0.244 -17.614 -0.233 -17.968 -0.137 -18.030 -0.134 -18.465 -0.157 -18.476 -0.152 -18.538 -0.059 -18.524 -0.081 -18.524 -0.089 -18.803 -0.085 -18.864 -0.110 5.726 0.123 3.412 0.177 42.950 41.351
141.200 -13.119 -0.754 -13.482 -0.729 -14.502 -0.676 -16.332 -0.521 -17.572 -0.245 -17.606 -0.234 -17.958 -0.140 -18.020 -0.137 -18.453 -0.158 -18.464 -0.153 -18.525 -0.062 -18.510 -0.083 -18.510 -0.091 -18.793 -0.086 -18.854 -0.112 5.725 0.123 3.394 0.177 42.945 41.351
141.600 -13.109 -0.749 -13.473 -0.724 -14.494 -0.672 -16.326 -0.519 -17.564 -0.245 -17.598 -0.234 -17.949 -0.143 -18.010 -0.140 -18.442 -0.159 -18.453 -0.154 -18.512 -0.065 -18.496 -0.085 -18.496 -0.092 -18.783 -0.088 -18.845 -0.115 5.724 0.123 3.376 0.176 42.940 41.352
142.000 -13.099 -0.744 -13.463 -0.719 -14.487 -0.667 -16.321 -0.516 -17.556 -0.246 -17.590 -0.235 -17.939 -0.146 -18.000 -0.144 -18.431 -0.160 -18.442 -0.155 -18.500 -0.068 -18.482 -0.086 -18.482 -0.094 -18.773 -0.089 -18.835 -0.117 5.724 0.124 3.357 0.176 42.935 41.353
142.400 -13.088 -0.739 -13.454 -0.714 -14.479 -0.663 -16.315 -0.513 -17.549 -0.246 -17.582 -0.236 -17.929 -0.150 -17.990 -0.147 -18.419 -0.161 -18.430 -0.156 -18.487 -0.071 -18.468 -0.088 -18.469 -0.095 -18.764 -0.091 -18.826 -0.120 5.723 0.124 3.339 0.176 42.931 41.354
142.800 -13.078 -0.734 -13.444 -0.709 -14.471 -0.658 -16.309 -0.510 -17.541 -0.247 -17.574 -0.237 -17.920 -0.153 -17.981 -0.150 -18.408 -0.162 -18.419 -0.157 -18.474 -0.073 -18.455 -0.089 -18.455 -0.097 -18.754 -0.092 -18.816 -0.122 5.723 0.124 3.320 0.176 42.926 41.355
143.200 -13.068 -0.729 -13.435 -0.704 -14.464 -0.654 -16.304 -0.507 -17.533 -0.248 -17.566 -0.238 -17.910 -0.156 -17.971 -0.153 -18.397 -0.162 -18.408 -0.158 -18.462 -0.076 -18.442 -0.091 -18.442 -0.098 -18.744 -0.094 -18.807 -0.124 5.724 0.125 3.302 0.175 42.921 41.356
143.600 -13.058 -0.723 -13.425 -0.699 -14.456 -0.649 -16.298 -0.505 -17.525 -0.248 -17.558 -0.239 -17.901 -0.159 -17.961 -0.156 -18.386 -0.163 -18.397 -0.158 -18.449 -0.079 -18.429 -0.092 -18.429 -0.100 -18.734 -0.095 -18.797 -0.127 5.724 0.125 3.283 0.175 42.916 41.357
144.000 -13.048 -0.718 -13.416 -0.694 -14.449 -0.644 -16.293 -0.502 -17.517 -0.249 -17.550 -0.239 -17.892 -0.162 -17.952 -0.159 -18.375 -0.164 -18.385 -0.159 -18.437 -0.081 -18.416 -0.093 -18.416 -0.101 -18.724 -0.097 -18.788 -0.129 5.725 0.126 3.265 0.175 42.912 41.357
144.400 -13.038 -0.713 -13.406 -0.688 -14.441 -0.640 -16.287 -0.499 -17.510 -0.249 -17.542 -0.240 -17.883 -0.164 -17.942 -0.162 -18.364 -0.165 -18.374 -0.160 -18.425 -0.084 -18.403 -0.095 -18.404 -0.102 -18.715 -0.099 -18.778 -0.131 5.725 0.126 3.247 0.175 42.907 41.358
144.800 -13.028 -0.707 -13.397 -0.683 -14.434 -0.635 -16.282 -0.496 -17.502 -0.250 -17.535 -0.241 -17.874 -0.167 -17.933 -0.164 -18.353 -0.166 -18.363 -0.161 -18.413 -0.086 -18.391 -0.096 -18.391 -0.103 -18.705 -0.101 -18.769 -0.133 5.726 0.126 3.229 0.174 42.902 41.358
145.200 -13.018 -0.702 -13.387 -0.678 -14.426 -0.630 -16.277 -0.492 -17.495 -0.251 -17.527 -0.242 -17.865 -0.170 -17.924 -0.167 -18.342 -0.167 -18.352 -0.162 -18.401 -0.088 -18.379 -0.097 -18.379 -0.104 -18.695 -0.102 -18.759 -0.135 5.727 0.126 3.211 0.174 42.898 41.358
145.600 -13.008 -0.696 -13.378 -0.672 -14.419 -0.625 -16.271 -0.489 -17.487 -0.251 -17.519 -0.242 -17.856 -0.172 -17.914 -0.170 -18.331 -0.168 -18.342 -0.163 -18.389 -0.090 -18.367 -0.098 -18.367 -0.106 -18.685 -0.104 -18.750 -0.137 5.728 0.126 3.193 0.173 42.893 41.358
146.000 -12.998 -0.691 -13.369 -0.667 -14.412 -0.620 -16.266 -0.486 -17.480 -0.252 -17.512 -0.243 -17.847 -0.175 -17.905 -0.172 -18.320 -0.169 -18.331 -0.164 -18.378 -0.092 -18.355 -0.099 -18.355 -0.107 -18.675 -0.106 -18.740 -0.140 5.730 0.127 3.175 0.173 42.889 41.358
146.400 -12.988 -0.685 -13.360 -0.661 -14.404 -0.615 -16.261 -0.483 -17.473 -0.252 -17.505 -0.244 -17.838 -0.177 -17.896 -0.175 -18.310 -0.169 -18.320 -0.165 -18.366 -0.094 -18.343 -0.100 -18.343 -0.108 -18.666 -0.108 -18.731 -0.142 5.731 0.127 3.158 0.172 42.885 41.358
146.800 -12.979 -0.679 -13.350 -0.655 -14.397 -0.610 -16.255 -0.480 -17.465 -0.252 -17.497 -0.244 -17.829 -0.180 -17.887 -0.177 -18.299 -0.170 -18.309 -0.166 -18.355 -0.096 -18.332 -0.101 -18.332 -0.109 -18.656 -0.110 -18.721 -0.143 5.732 0.127 3.141 0.171 42.880 41.357
147.200 -12.969 -0.674 -13.341 -0.649 -14.390 -0.605 -16.250 -0.476 -17.458 -0.253 -17.490 -0.245 -17.820 -0.182 -17.878 -0.179 -18.289 -0.171 -18.299 -0.166 -18.344 -0.097 -18.321 -0.102 -18.321 -0.110 -18.646 -0.112 -18.712 -0.145 5.734 0.126 3.124 0.170 42.876 41.356
147.600 -12.959 -0.668 -13.332 -0.644 -14.382 -0.600 -16.245 -0.473 -17.451 -0.253 -17.482 -0.245 -17.812 -0.184 -17.869 -0.181 -18.278 -0.172 -18.288 -0.167 -18.333 -0.099 -18.310 -0.103 -18.310 -0.111 -18.636 -0.114 -18.702 -0.147 5.735 0.126 3.107 0.170 42.872 41.355
148.000 -12.949 -0.662 -13.323 -0.638 -14.375 -0.594 -16.240 -0.470 -17.444 -0.253 -17.475 -0.246 -17.803 -0.186 -17.860 -0.184 -18.268 -0.172 -18.278 -0.168 -18.322 -0.100 -18.299 -0.104 -18.299 -0.111 -18.627 -0.116 -18.693 -0.149 5.737 0.126 3.090 0.169 42.868 41.354
148.400 -12.940 -0.656 -13.314 -0.632 -14.368 -0.589 -16.234 -0.466 -17.437 -0.254 -17.468 -0.246 -17.794 -0.188 -17.851 -0.186 -18.257 -0.173 -18.268 -0.168 -18.311 -0.101 -18.289 -0.105 -18.288 -0.112 -18.617 -0.118 -18.683 -0.151 5.739 0.126 3.074 0.168 42.863 41.352
148.800 -12.930 -0.650 -13.305 -0.626 -14.361 -0.584 -16.229 -0.463 -17.430 -0.254 -17.461 -0.247 -17.786 -0.190 -17.843 -0.187 -18.247 -0.173 -18.258 -0.169 -18.301 -0.103 -18.278 -0.106 -18.278 -0.113 -18.607 -0.119 -18.674 -0.152 5.740 0.125 3.058 0.167 42.859 41.351
149.200 -12.921 -0.644 -13.296 -0.620 -14.354 -0.578 -16.224 -0.459 -17.423 -0.254 -17.454 -0.247 -17.778 -0.192 -17.834 -0.189 -18.237 -0.174 -18.247 -0.170 -18.290 -0.104 -18.268 -0.107 -18.268 -0.114 -18.597 -0.121 -18.665 -0.154 5.742 0.125 3.042 0.165 42.855 41.349
149.600 -12.911 -0.638 -13.287 -0.614 -14.347 -0.573 -16.219 -0.456 -17.416 -0.254 -17.447 -0.247 -17.769 -0.194 -17.825 -0.191 -18.227 -0.174 -18.237 -0.170 -18.280 -0.104 -18.258 -0.107 -18.258 -0.114 -18.588 -0.123 -18.655 -0.155 5.744 0.125 3.026 0.164 42.851 41.347
150.000 -12.902 -0.631 -13.278 -0.607 -14.340 -0.567 -16.214 -0.452 -17.409 -0.254 -17.440 -0.247 -17.761 -0.195 -17.817 -0.193 -18.217 -0.175 -18.227 -0.170 -18.270 -0.105 -18.248 -0.108 -18.248 -0.115 -18.578 -0.125 -18.646 -0.157 5.745 0.124 3.011 0.163 42.847 41.345
150.400 -12.892 -0.625 -13.269 -0.601 -14.333 -0.562 -16.209 -0.448 -17.402 -0.254 -17.433 -0.247 -17.753 -0.197 -17.808 -0.194 -18.207 -0.175 -18.218 -0.171 -18.260 -0.106 -18.239 -0.108 -18.238 -0.116 -18.568 -0.126 -18.636 -0.158 5.747 0.124 2.995 0.162 42.843 41.342
150.800 -12.883 -0.619 -13.260 -0.595 -14.326 -0.556 -16.204 -0.444 -17.395 -0.254 -17.426 -0.247 -17.744 -0.198 -17.800 -0.195 -18.198 -0.175 -18.208 -0.171 -18.251 -0.106 -18.229 -0.109 -18.229 -0.116 -18.558 -0.128 -18.627 -0.160 5.749 0.123 2.980 0.161 42.840 41.340
151.200 -12.873 -0.612 -13.252 -0.588 -14.319 -0.550 -16.199 -0.441 -17.389 -0.253 -17.419 -0.247 -17.736 -0.199 -17.791 -0.197 -18.188 -0.176 -18.198 -0.171 -18.241 -0.107 -18.220 -0.109 -18.219 -0.117 -18.549 -0.130 -18.617 -0.161 5.750 0.123 2.966 0.159 42.836 41.338
151.600 -12.864 -0.606 -13.243 -0.582 -14.312 -0.544 -16.194 -0.437 -17.382 -0.253 -17.412 -0.247 -17.728 -0.200 -17.783 -0.198 -18.178 -0.176 -18.189 -0.171 -18.232 -0.107 -18.211 -0.110 -18.210 -0.117 -18.539 -0.131 -18.608 -0.162 5.752 0.122 2.951 0.158 42.832 41.335
152.000 -12.855 -0.599 -13.234 -0.575 -14.305 -0.538 -16.189 -0.433 -17.375 -0.253 -17.406 -0.247 -17.720 -0.201 -17.775 -0.199 -18.169 -0.176 -18.179 -0.171 -18.222 -0.107 -18.202 -0.110 -18.201 -0.118 -18.529 -0.133 -18.599 -0.163 5.753 0.121 2.937 0.157 42.828 41.332
152.400 -12.846 -0.593 -13.225 -0.569 -14.298 -0.533 -16.184 -0.429 -17.369 -0.252 -17.399 -0.246 -17.712 -0.202 -17.766 -0.200 -18.160 -0.176 -18.170 -0.171 -18.213 -0.107 -18.193 -0.111 -18.192 -0.118 -18.520 -0.134 -18.589 -0.164 5.755 0.121 2.923 0.155 42.825 41.329
152.800 -12.836 -0.586 -13.217 -0.562 -14.291 -0.527 -16.179 -0.425 -17.362 -0.252 -17.392 -0.246 -17.704 -0.203 -17.758 -0.201 -18.150 -0.176 -18.160 -0.171 -18.204 -0.107 -18.184 -0.111 -18.183 -0.118 -18.510 -0.135 -18.580 -0.165 5.756 0.120 2.910 0.154 42.821 41.327
153.200 -12.827 -0.580 -13.208 -0.556 -14.285 -0.521 -16.174 -0.421 -17.356 -0.251 -17.386 -0.245 -17.696 -0.204 -17.750 -0.201 -18.141 -0.175 -18.151 -0.171 -18.195 -0.107 -18.175 -0.111 -18.174 -0.119 -18.501 -0.137 -18.570 -0.166 5.758 0.120 2.896 0.153 42.818 41.324
153.600 -12.818 -0.573 -13.200 -0.549 -14.278 -0.514 -16.170 -0.417 -17.349 -0.250 -17.379 -0.245 -17.688 -0.204 -17.742 -0.202 -18.132 -0.175 -18.142 -0.171 -18.187 -0.107 -18.167 -0.111 -18.166 -0.119 -18.491 -0.138 -18.561 -0.167 5.759 0.119 2.883 0.151 42.814 41.321
154.000 -12.809 -0.566 -13.191 -0.542 -14.271 -0.508 -16.165 -0.413 -17.343 -0.249 -17.373 -0.244 -17.680 -0.205 -17.734 -0.202 -18.123 -0.175 -18.133 -0.170 -18.178 -0.106 -18.158 -0.111 -18.157 -0.119 -18.481 -0.139 -18.552 -0.167 5.760 0.118 2.871 0.150 42.811 41.318
154.400 -12.800 -0.559 -13.183 -0.535 -14.264 -0.502 -16.160 -0.408 -17.336 -0.249 -17.366 -0.243 -17.673 -0.205 -17.726 -0.202 -18.114 -0.174 -18.124 -0.170 -18.169 -0.106 -18.150 -0.111 -18.149 -0.119 -18.472 -0.140 -18.542 -0.168 5.762 0.117 2.858 0.149 42.807 41.315
154.800 -12.791 -0.553 -13.174 -0.528 -14.258 -0.496 -16.155 -0.404 -17.330 -0.247 -17.360 -0.242 -17.665 -0.205 -17.718 -0.203 -18.105 -0.174 -18.115 -0.170 -18.161 -0.105 -18.142 -0.111 -18.141 -0.119 -18.462 -0.141 -18.533 -0.168 5.763 0.117 2.846 0.147 42.804 41.311
155.200 -12.782 -0.546 -13.166 -0.521 -14.251 -0.490 -16.150 -0.400 -17.324 -0.246 -17.353 -0.241 -17.657 -0.205 -17.710 -0.203 -18.096 -0.173 -18.106 -0.169 -18.153 -0.104 -18.134 -0.111 -18.133 -0.119 -18.453 -0.141 -18.524 -0.169 5.764 0.116 2.834 0.146 42.800 41.308
155.600 -12.773 -0.539 -13.157 -0.514 -14.244 -0.483 -16.145 -0.395 -17.318 -0.245 -17.347 -0.240 -17.650 -0.205 -17.702 -0.203 -18.088 -0.173 -18.098 -0.168 -18.145 -0.104 -18.126 -0.111 -18.125 -0.119 -18.443 -0.142 -18.515 -0.169 5.765 0.115 2.822 0.145 42.797 41.305
156.000 -12.764 -0.532 -13.149 -0.507 -14.238 -0.477 -16.141 -0.391 -17.311 -0.244 -17.341 -0.239 -17.642 -0.205 -17.694 -0.202 -18.079 -0.172 -18.089 -0.168 -18.137 -0.103 -18.118 -0.111 -18.117 -0.119 -18.434 -0.143 -18.505 -0.169 5.766 0.115 2.810 0.143 42.794 41.301
156.400 -12.756 -0.525 -13.141 -0.500 -14.231 -0.471 -16.136 -0.386 -17.305 -0.242 -17.334 -0.238 -17.634 -0.204 -17.686 -0.202 -18.070 -0.171 -18.081 -0.167 -18.129 -0.102 -18.110 -0.111 -18.109 -0.119 -18.424 -0.143 -18.496 -0.169 5.767 0.114 2.799 0.142 42.791 41.298
156.800 -12.747 -0.518 -13.132 -0.493 -14.225 -0.464 -16.131 -0.382 -17.299 -0.241 -17.328 -0.236 -17.627 -0.204 -17.679 -0.202 -18.062 -0.170 -18.072 -0.166 -18.121 -0.101 -18.103 -0.111 -18.101 -0.119 -18.415 -0.144 -18.487 -0.170 5.768 0.113 2.788 0.141 42.787 41.295
157.200 -12.738 -0.511 -13.124 -0.486 -14.218 -0.458 -16.126 -0.377 -17.293 -0.239 -17.322 -0.235 -17.619 -0.203 -17.671 -0.201 -18.054 -0.170 -18.064 -0.165 -18.114 -0.099 -18.095 -0.110 -18.094 -0.119 -18.406 -0.144 -18.478 -0.169 5.769 0.113 2.777 0.140 42.784 41.291
157.600 -12.729 -0.504 -13.116 -0.479 -14.212 -0.451 -16.122 -0.373 -17.287 -0.237 -17.316 -0.233 -17.612 -0.202 -17.663 -0.200 -18.045 -0.169 -18.056 -0.164 -18.106 -0.098 -18.088 -0.110 -18.087 -0.118 -18.396 -0.144 -18.469 -0.169 5.770 0.112 2.766 0.138 42.781 41.288
158.000 -12.721 -0.496 -13.108 -0.471 -14.205 -0.445 -16.117 -0.368 -17.281 -0.236 -17.310 -0.231 -17.604 -0.202 -17.655 -0.200 -18.037 -0.167 -18.048 -0.163 -18.099 -0.097 -18.080 -0.109 -18.079 -0.118 -18.387 -0.144 -18.460 -0.169 5.771 0.111 2.756 0.137 42.778 41.284
158.400 -12.712 -0.489 -13.100 -0.464 -14.199 -0.438 -16.112 -0.363 -17.275 -0.234 -17.303 -0.229 -17.597 -0.200 -17.648 -0.199 -18.029 -0.166 -18.040 -0.162 -18.091 -0.095 -18.073 -0.109 -18.072 -0.118 -18.378 -0.144 -18.451 -0.169 5.771 0.110 2.746 0.136 42.775 41.280
158.800 -12.704 -0.482 -13.092 -0.457 -14.192 -0.431 -16.107 -0.359 -17.269 -0.231 -17.297 -0.228 -17.590 -0.199 -17.640 -0.198 -18.021 -0.165 -18.032 -0.161 -18.084 -0.094 -18.066 -0.108 -18.065 -0.117 -18.369 -0.144 -18.442 -0.168 5.772 0.110 2.736 0.135 42.772 41.277
159.200 -12.695 -0.475 -13.084 -0.450 -14.186 -0.425 -16.103 -0.354 -17.263 -0.229 -17.291 -0.225 -17.582 -0.198 -17.633 -0.196 -18.013 -0.164 -18.024 -0.159 -18.077 -0.092 -18.059 -0.108 -18.058 -0.116 -18.360 -0.144 -18.433 -0.168 5.773 0.109 2.726 0.133 42.769 41.273
159.600 -12.687 -0.468 -13.076 -0.442 -14.180 -0.418 -16.098 -0.349 -17.257 -0.227 -17.285 -0.223 -17.575 -0.197 -17.625 -0.195 -18.005 -0.162 -18.016 -0.158 -18.070 -0.090 -18.052 -0.107 -18.051 -0.116 -18.351 -0.144 -18.424 -0.167 5.773 0.108 2.716 0.132 42.766 41.269
160.000 -12.678 -0.460 -13.068 -0.435 -14.173 -0.411 -16.093 -0.344 -17.251 -0.225 -17.279 -0.221 -17.568 -0.195 -17.618 -0.194 -17.997 -0.161 -18.008 -0.156 -18.063 -0.089 -18.046 -0.106 -18.045 -0.115 -18.342 -0.143 -18.415 -0.166 5.774 0.108 2.707 0.131 42.764 41.265
160.400 -12.670 -0.453 -13.060 -0.427 -14.167 -0.404 -16.088 -0.339 -17.245 -0.222 -17.273 -0.218 -17.560 -0.193 -17.610 -0.192 -17.990 -0.159 -18.000 -0.155 -18.056 -0.087 -18.039 -0.105 -18.038 -0.114 -18.333 -0.143 -18.406 -0.165 5.774 0.107 2.698 0.130 42.761 41.261
160.800 -12.662 -0.446 -13.052 -0.420 -14.161 -0.398 -16.084 -0.334 -17.239 -0.219 -17.267 -0.216 -17.553 -0.192 -17.603 -0.190 -17.982 -0.158 -17.993 -0.153 -18.050 -0.085 -18.033 -0.104 -18.032 -0.114 -18.324 -0.142 -18.397 -0.164 5.774 0.106 2.689 0.129 42.758 41.257
161.200 -12.654 -0.439 -13.044 -0.412 -14.154 -0.391 -16.079 -0.329 -17.233 -0.217 -17.261 -0.213 -17.546 -0.190 -17.595 -0.189 -17.974 -0.156 -17.985 -0.152 -18.043 -0.084 -18.026 -0.103 -18.025 -0.113 -18.315 -0.141 -18.389 -0.163 5.775 0.106 2.681 0.128 42.755 41.253
161.600 -12.645 -0.431 -13.036 -0.405 -14.148 -0.384 -16.074 -0.324 -17.227 -0.214 -17.255 -0.210 -17.539 -0.188 -17.588 -0.187 -17.967 -0.154 -17.978 -0.150 -18.036 -0.082 -18.020 -0.102 -18.019 -0.112 -18.306 -0.141 -18.380 -0.162 5.775 0.105 2.672 0.127 42.753 41.250
162.000 -12.637 -0.424 -13.029 -0.397 -14.142 -0.377 -16.069 -0.319 -17.221 -0.211 -17.249 -0.208 -17.531 -0.186 -17.580 -0.184 -17.959 -0.152 -17.970 -0.148 -18.030 -0.080 -18.014 -0.101 -18.013 -0.111 -18.297 -0.140 -18.371 -0.161 5.775 0.105 2.664 0.126 42.750 41.246
162.400 -12.629 -0.417 -13.021 -0.390 -14.136 -0.370 -16.065 -0.314 -17.215 -0.208 -17.243 -0.205 -17.524 -0.183 -17.573 -0.182 -17.952 -0.150 -17.963 -0.146 -18.023 -0.078 -18.007 -0.100 -18.007 -0.110 -18.289 -0.139 -18.363 -0.159 5.775 0.104 2.656 0.125 42.747 41.242
162.800 -12.621 -0.410 -13.013 -0.382 -14.130 -0.364 -16.060 -0.309 -17.209 -0.205 -17.237 -0.201 -17.517 -0.181 -17.566 -0.180 -17.945 -0.149 -17.956 -0.144 -18.017 -0.077 -18.001 -0.099 -18.001 -0.109 -18.280 -0.138 -18.354 -0.158 5.775 0.103 2.648 0.124 42.745 41.238
163.200 -12.613 -0.403 -13.006 -0.375 -14.124 -0.357 -16.055 -0.304 -17.204 -0.201 -17.231 -0.198 -17.510 -0.178 -17.558 -0.178 -17.937 -0.146 -17.948 -0.142 -18.011 -0.075 -17.996 -0.098 -17.995 -0.107 -18.272 -0.137 -18.346 -0.156 5.775 0.103 2.640 0.123 42.742 41.234
163.600 -12.606 -0.395 -12.998 -0.367 -14.117 -0.350 -16.050 -0.299 -17.198 -0.198 -17.225 -0.195 -17.503 -0.176 -17.551 -0.175 -17.930 -0.144 -17.941 -0.140 -18.005 -0.074 -17.990 -0.097 -17.989 -0.106 -18.263 -0.135 -18.338 -0.155 5.775 0.102 2.632 0.122 42.740 41.230
164.000 -12.598 -0.388 -12.991 -0.360 -14.111 -0.343 -16.045 -0.293 -17.192 -0.195 -17.219 -0.192 -17.496 -0.173 -17.544 -0.172 -17.923 -0.142 -17.934 -0.138 -17.998 -0.072 -17.984 -0.095 -17.984 -0.105 -18.255 -0.134 -18.329 -0.153 5.775 0.101 2.625 0.121 42.737 41.227
164.400 -12.590 -0.381 -12.984 -0.353 -14.105 -0.337 -16.040 -0.288 -17.186 -0.191 -17.214 -0.188 -17.489 -0.170 -17.537 -0.170 -17.916 -0.140 -17.927 -0.136 -17.992 -0.071 -17.978 -0.094 -17.978 -0.104 -18.247 -0.133 -18.321 -0.151 5.775 0.101 2.617 0.120 42.735 41.223
164.800 -12.582 -0.374 -12.976 -0.345 -14.099 -0.330 -16.035 -0.283 -17.180 -0.187 -17.208 -0.184 -17.482 -0.167 -17.529 -0.167 -17.909 -0.138 -17.920 -0.134 -17.986 -0.070 -17.973 -0.093 -17.973 -0.102 -18.238 -0.131 -18.313 -0.149 5.775 0.100 2.610 0.119 42.732 41.220
165.200 -12.575 -0.367 -12.969 -0.338 -14.093 -0.323 -16.031 -0.278 -17.175 -0.184 -17.202 -0.181 -17.475 -0.164 -17.522 -0.164 -17.902 -0.135 -17.913 -0.131 -17.980 -0.069 -17.968 -0.091 -17.967 -0.101 -18.230 -0.130 -18.305 -0.147 5.775 0.100 2.603 0.118 42.730 41.217
165.600 -12.567 -0.361 -12.962 -0.331 -14.087 -0.316 -16.026 -0.273 -17.169 -0.180 -17.196 -0.177 -17.468 -0.161 -17.515 -0.161 -17.895 -0.133 -17.906 -0.129 -17.974 -0.068 -17.962 -0.090 -17.962 -0.100 -18.222 -0.128 -18.297 -0.145 5.775 0.099 2.596 0.117 42.728 41.214
166.000 -12.560 -0.354 -12.954 -0.323 -14.081 -0.310 -16.021 -0.268 -17.163 -0.176 -17.190 -0.173 -17.461 -0.157 -17.508 -0.157 -17.888 -0.130 -17.899 -0.127 -17.968 -0.067 -17.957 -0.089 -17.957 -0.098 -18.214 -0.126 -18.289 -0.143 5.775 0.098 2.589 0.116 42.725 41.211
166.400 -12.552 -0.347 -12.947 -0.316 -14.075 -0.303 -16.016 -0.263 -17.157 -0.172 -17.184 -0.169 -17.454 -0.154 -17.501 -0.154 -17.881 -0.128 -17.893 -0.124 -17.962 -0.067 -17.952 -0.087 -17.952 -0.097 -18.206 -0.125 -18.281 -0.141 5.775 0.098 2.582 0.116 42.723 41.209
166.800 -12.545 -0.341 -12.940 -0.309 -14.069 -0.297 -16.011 -0.258 -17.152 -0.168 -17.178 -0.165 -17.447 -0.150 -17.494 -0.151 -17.874 -0.125 -17.886 -0.122 -17.957 -0.067 -17.947 -0.086 -17.948 -0.095 -18.198 -0.123 -18.273 -0.139 5.774 0.097 2.575 0.115 42.720 41.206
167.200 -12.537 -0.334 -12.933 -0.302 -14.063 -0.291 -16.006 -0.253 -17.146 -0.164 -17.172 -0.161 -17.440 -0.147 -17.486 -0.147 -17.868 -0.123 -17.879 -0.119 -17.951 -0.066 -17.943 -0.084 -17.943 -0.094 -18.191 -0.122 -18.265 -0.137 5.774 0.097 2.569 0.114 42.718 41.204
167.600 -12.530 -0.328 -12.926 -0.296 -14.058 -0.284 -16.001 -0.248 -17.140 -0.160 -17.167 -0.157 -17.433 -0.143 -17.479 -0.144 -17.861 -0.120 -17.873 -0.117 -17.945 -0.066 -17.938 -0.083 -17.939 -0.092 -18.183 -0.120 -18.258 -0.135 5.774 0.096 2.562 0.113 42.716 41.202
168.000 -12.523 -0.322 -12.919 -0.289 -14.052 -0.278 -15.995 -0.243 -17.134 -0.156 -17.161 -0.153 -17.426 -0.139 -17.472 -0.140 -17.854 -0.118 -17.866 -0.114 -17.939 -0.066 -17.934 -0.082 -17.934 -0.091 -18.176 -0.118 -18.250 -0.133 5.773 0.096 2.556 0.113 42.714 41.200
168.400 -12.516 -0.316 -12.912 -0.282 -14.046 -0.272 -15.990 -0.239 -17.128 -0.151 -17.155 -0.149 -17.419 -0.136 -17.465 -0.137 -17.848 -0.115 -17.859 -0.112 -17.934 -0.066 -17.929 -0.080 -17.930 -0.089 -18.168 -0.117 -18.243 -0.131 5.773 0.095 2.550 0.112 42.711 41.198
168.800 -12.509 -0.311 -12.906 -0.276 -14.040 -0.267 -15.985 -0.234 -17.123 -0.147 -17.149 -0.144 -17.412 -0.132 -17.458 -0.133 -17.841 -0.112 -17.853 -0.109 -17.928 -0.066 -17.925 -0.079 -17.926 -0.088 -18.161 -0.115 -18.235 -0.129 5.772 0.095 2.544 0.111 42.709 41.196
169.200 -12.502 -0.305 -12.899 -0.270 -14.034 -0.261 -15.980 -0.230 -17.117 -0.143 -17.143 -0.140 -17.405 -0.128 -17.451 -0.130 -17.835 -0.110 -17.846 -0.106 -17.923 -0.066 -17.921 -0.078 -17.922 -0.087 -18.153 -0.114 -18.228 -0.127 5.772 0.094 2.539 0.111 42.707 41.195
169.600 -12.495 -0.300 -12.892 -0.264 -14.028 -0.255 -15.975 -0.226 -17.111 -0.139 -17.137 -0.136 -17.398 -0.124 -17.444 -0.126 -17.828 -0.107 -17.840 -0.104 -17.917 -0.066 -17.917 -0.076 -17.918 -0.085 -18.146 -0.112 -18.221 -0.125 5.771 0.093 2.533 0.110 42.705 41.193
170.000 -12.488 -0.295 -12.886 -0.259 -14.022 -0.250 -15.969 -0.221 -17.105 -0.135 -17.131 -0.132 -17.392 -0.121 -17.437 -0.122 -17.822 -0.104 -17.833 -0.101 -17.912 -0.067 -17.913 -0.075 -17.914 -0.084 -18.139 -0.111 -18.213 -0.123 5.770 0.093 2.528 0.110 42.703 41.192
170.400 -12.482 -0.290 -12.879 -0.253 -14.017 -0.245 -15.964 -0.217 -17.099 -0.131 -17.125 -0.128 -17.385 -0.117 -17.430 -0.119 -17.815 -0.102 -17.827 -0.099 -17.906 -0.067 -17.909 -0.074 -17.910 -0.083 -18.132 -0.110 -18.206 -0.121 5.770 0.092 2.523 0.109 42.701 41.190
170.800 -12.475 -0.286 -12.872 -0.248 -14.011 -0.240 -15.958 -0.214 -17.093 -0.127 -17.119 -0.124 -17.378 -0.113 -17.424 -0.115 -17.809 -0.099 -17.821 -0.096 -17.901 -0.067 -17.905 -0.073 -17.907 -0.082 -18.125 -0.109 -18.199 -0.119 5.769 0.092 2.519 0.109 42.699 41.189
171.200 -12.468 -0.282 -12.866 -0.243 -14.005 -0.236 -15.953 -0.210 -17.087 -0.123 -17.113 -0.120 -17.371 -0.110 -17.417 -0.112 -17.802 -0.097 -17.814 -0.094 -17.896 -0.068 -17.901 -0.072 -17.903 -0.080 -18.118 -0.108 -18.192 -0.118 5.768 0.092 2.514 0.108 42.698 41.188
171.600 -12.462 -0.278 -12.860 -0.239 -13.999 -0.232 -15.948 -0.207 -17.081 -0.119 -17.107 -0.116 -17.364 -0.106 -17.410 -0.109 -17.796 -0.094 -17.808 -0.092 -17.890 -0.068 -17.898 -0.071 -17.900 -0.080 -18.112 -0.107 -18.185 -0.116 5.766 0.091 2.510 0.108 42.696 41.187
172.000 -12.455 -0.274 -12.853 -0.235 -13.994 -0.228 -15.942 -0.204 -17.075 -0.116 -17.101 -0.113 -17.358 -0.103 -17.403 -0.106 -17.790 -0.092 -17.802 -0.090 -17.885 -0.069 -17.894 -0.071 -17.896 -0.079 -18.105 -0.107 -18.178 -0.115 5.765 0.091 2.506 0.108 42.694 41.186
172.400 -12.449 -0.272 -12.847 -0.231 -13.988 -0.225 -15.936 -0.201 -17.069 -0.113 -17.095 -0.110 -17.351 -0.100 -17.396 -0.103 -17.783 -0.090 -17.795 -0.088 -17.880 -0.070 -17.891 -0.070 -17.893 -0.078 -18.098 -0.107 -18.171 -0.114 5.764 0.090 2.502 0.107 42.692 41.185
172.800 -12.443 -0.269 -12.841 -0.228 -13.982 -0.221 -15.931 -0.199 -17.063 -0.110 -17.089 -0.107 -17.344 -0.097 -17.389 -0.100 -17.777 -0.089 -17.789 -0.087 -17.875 -0.071 -17.887 -0.070 -17.889 -0.078 -18.092 -0.106 -18.164 -0.114 5.762 0.090 2.499 0.107 42.691 41.184
173.200 -12.437 -0.267 -12.835 -0.225 -13.976 -0.219 -15.925 -0.197 -17.057 -0.107 -17.083 -0.104 -17.338 -0.095 -17.383 -0.098 -17.771 -0.087 -17.783 -0.085 -17.870 -0.072 -17.884 -0.070 -17.886 -0.077 -18.085 -0.107 -18.158 -0.113 5.760 0.090 2.496 0.107 42.689 41.183
173.600 -12.431 -0.265 -12.829 -0.223 -13.971 -0.216 -15.919 -0.195 -17.051 -0.105 -17.077 -0.102 -17.331 -0.093 -17.376 -0.096 -17.764 -0.086 -17.777 -0.084 -17.865 -0.073 -17.880 -0.070 -17.883 -0.077 -18.079 -0.107 -18.151 -0.113 5.758 0.089 2.493 0.107 42.687 41.183
174.000 -12.425 -0.264 -12.823 -0.222 -13.965 -0.215 -15.913 -0.194 -17.045 -0.104 -17.071 -0.100 -17.324 -0.091 -17.369 -0.094 -17.758 -0.085 -17.770 -0.083 -17.860 -0.074 -17.876 -0.070 -17.879 -0.078 -18.072 -0.108 -18.144 -0.114 5.756 0.089 2.490 0.107 42.686 41.183
174.400 -12.419 -0.263 -12.817 -0.220 -13.959 -0.213 -15.908 -0.193 -17.039 -0.103 -17.065 -0.099 -17.318 -0.090 -17.363 -0.093 -17.752 -0.085 -17.764 -0.083 -17.855 -0.075 -17.873 -0.071 -17.876 -0.078 -18.066 -0.109 -18.138 -0.114 5.753 0.088 2.488 0.107 42.684 41.183
174.800 -12.413 -0.263 -12.812 -0.220 -13.953 -0.212 -15.902 -0.192 -17.033 -0.102 -17.058 -0.099 -17.311 -0.089 -17.356 -0.093 -17.745 -0.085 -17.758 -0.083 -17.850 -0.077 -17.869 -0.072 -17.872 -0.079 -18.060 -0.110 -18.131 -0.115 5.750 0.088 2.486 0.106 42.682 41.184
175.200 -12.408 -0.263 -12.806 -0.220 -13.948 -0.212 -15.896 -0.192 -17.026 -0.102 -17.052 -0.099 -17.305 -0.089 -17.350 -0.093 -17.739 -0.085 -17.752 -0.084 -17.845 -0.079 -17.866 -0.074 -17.869 -0.081 -18.054 -0.112 -18.124 -0.117 5.747 0.088 2.483 0.106 42.681 41.184
175.600 -12.402 -0.264 -12.800 -0.220 -13.942 -0.212 -15.889 -0.193 -17.020 -0.103 -17.046 -0.099 -17.298 -0.090 -17.343 -0.093 -17.733 -0.086 -17.745 -0.085 -17.840 -0.081 -17.862 -0.076 -17.865 -0.082 -18.048 -0.114 -18.118 -0.119 5.744 0.087 2.481 0.106 42.679 41.186
176.000 -12.397 -0.265 -12.795 -0.221 -13.936 -0.213 -15.883 -0.194 -17.014 -0.104 -17.039 -0.100 -17.292 -0.091 -17.337 -0.094 -17.727 -0.088 -17.739 -0.086 -17.835 -0.084 -17.858 -0.078 -17.862 -0.084 -18.042 -0.116 -18.111 -0.121 5.741 0.087 2.479 0.106 42.677 41.187
176.400 -12.391 -0.267 -12.789 -0.223 -13.930 -0.214 -15.877 -0.195 -17.007 -0.106 -17.033 -0.102 -17.286 -0.093 -17.330 -0.096 -17.720 -0.089 -17.733 -0.088 -17.830 -0.086 -17.855 -0.080 -17.858 -0.087 -18.036 -0.119 -18.105 -0.124 5.738 0.087 2.476 0.106 42.675 41.189
176.800 -12.386 -0.269 -12.784 -0.225 -13.925 -0.216 -15.871 -0.197 -17.001 -0.108 -17.027 -0.105 -17.279 -0.095 -17.324 -0.098 -17.714 -0.092 -17.727 -0.091 -17.825 -0.089 -17.851 -0.083 -17.854 -0.090 -18.030 -0.122 -18.099 -0.127 5.734 0.087 2.474 0.106 42.673 41.191
