"Time (MJD)" B-4345.28 B-4345.28_err U-3520.88 U-3520.88_err cyan-5182.42 cyan-5182.42_err g-4671.78 g-4671.78_err g-4735.89 g-4735.89_err g-4746.48 g-4746.48_err g-4793.46 g-4793.46_err i-7457.89 i-7457.89_err i-7503.03 i-7503.03_err i-7589.41 i-7589.41_err i-7645.77 i-7645.77_err orange-6629.82 orange-6629.82_err r-6120.65 r-6120.65_err r-6141.12 r-6141.12_err r-6198.96 r-6198.96_err r-6366.38 r-6366.38_err z-8970.57 z-8970.57_err "Temp./1e3 (K)" "Temp. Err." "Radius/1e15 (cm)" "Radius Err." "Log10(Bol. Lum)" "Log10(Bol. Err)"
-35.000 -19.445 -0.171 -19.813 -0.098 -19.853 -0.073 -19.853 -0.072 -19.853 -0.072 -19.852 -0.073 -19.806 -0.101 -19.628 -0.088 -19.625 -0.087 -19.616 -0.085 -19.593 -0.085 -19.556 -0.098 -19.377 -0.091 -19.367 -0.090 -19.347 -0.092 -19.334 -0.096 -19.086 -0.180 16.476 0.800 1.057 0.060 43.769 42.693
-34.600 -19.492 -0.169 -19.870 -0.096 -19.912 -0.071 -19.913 -0.070 -19.912 -0.070 -19.911 -0.071 -19.866 -0.099 -19.689 -0.085 -19.686 -0.084 -19.678 -0.082 -19.655 -0.083 -19.617 -0.096 -19.431 -0.089 -19.419 -0.089 -19.398 -0.091 -19.385 -0.094 -19.129 -0.178 16.529 0.837 1.082 0.064 43.794 42.738
-34.200 -19.538 -0.167 -19.927 -0.095 -19.971 -0.069 -19.972 -0.068 -19.972 -0.068 -19.971 -0.069 -19.926 -0.097 -19.751 -0.084 -19.748 -0.083 -19.739 -0.081 -19.716 -0.081 -19.677 -0.094 -19.484 -0.088 -19.472 -0.088 -19.450 -0.090 -19.437 -0.093 -19.172 -0.177 16.566 0.876 1.108 0.068 43.819 42.782
-33.800 -19.584 -0.166 -19.983 -0.094 -20.030 -0.068 -20.031 -0.067 -20.031 -0.067 -20.030 -0.068 -19.986 -0.096 -19.812 -0.083 -19.809 -0.082 -19.801 -0.079 -19.778 -0.080 -19.738 -0.092 -19.537 -0.088 -19.524 -0.087 -19.502 -0.089 -19.488 -0.093 -19.215 -0.176 16.586 0.915 1.137 0.073 43.843 42.824
-33.400 -19.630 -0.166 -20.039 -0.094 -20.088 -0.068 -20.090 -0.067 -20.090 -0.067 -20.089 -0.068 -20.045 -0.096 -19.873 -0.082 -19.870 -0.081 -19.862 -0.079 -19.839 -0.079 -19.799 -0.091 -19.589 -0.088 -19.577 -0.088 -19.554 -0.090 -19.539 -0.094 -19.257 -0.176 16.587 0.955 1.167 0.078 43.866 42.866
-33.000 -19.676 -0.166 -20.095 -0.094 -20.147 -0.069 -20.149 -0.068 -20.149 -0.068 -20.148 -0.069 -20.104 -0.096 -19.935 -0.082 -19.932 -0.081 -19.923 -0.079 -19.901 -0.079 -19.859 -0.091 -19.642 -0.089 -19.629 -0.089 -19.605 -0.091 -19.590 -0.095 -19.300 -0.176 16.573 0.995 1.199 0.084 43.888 42.906
-32.600 -19.722 -0.166 -20.151 -0.095 -20.205 -0.070 -20.207 -0.069 -20.207 -0.069 -20.207 -0.069 -20.163 -0.096 -19.996 -0.083 -19.993 -0.081 -19.985 -0.079 -19.962 -0.079 -19.920 -0.091 -19.694 -0.091 -19.681 -0.091 -19.656 -0.093 -19.640 -0.097 -19.343 -0.177 16.545 1.035 1.233 0.090 43.909 42.944
-32.200 -19.767 -0.167 -20.207 -0.096 -20.263 -0.071 -20.266 -0.070 -20.266 -0.070 -20.265 -0.071 -20.222 -0.096 -20.057 -0.083 -20.054 -0.082 -20.046 -0.080 -20.023 -0.079 -19.980 -0.090 -19.746 -0.093 -19.732 -0.093 -19.707 -0.096 -19.691 -0.099 -19.385 -0.179 16.506 1.074 1.269 0.096 43.930 42.981
-31.800 -19.812 -0.168 -20.262 -0.097 -20.321 -0.072 -20.323 -0.071 -20.324 -0.071 -20.323 -0.072 -20.280 -0.097 -20.117 -0.084 -20.114 -0.083 -20.107 -0.080 -20.084 -0.079 -20.040 -0.091 -19.798 -0.095 -19.784 -0.096 -19.757 -0.098 -19.741 -0.102 -19.427 -0.181 16.459 1.112 1.306 0.103 43.951 43.017
-31.400 -19.857 -0.170 -20.317 -0.098 -20.378 -0.074 -20.381 -0.073 -20.381 -0.073 -20.381 -0.073 -20.338 -0.098 -20.178 -0.085 -20.175 -0.084 -20.167 -0.081 -20.145 -0.080 -20.100 -0.091 -19.849 -0.098 -19.835 -0.098 -19.808 -0.101 -19.791 -0.104 -19.469 -0.183 16.408 1.149 1.345 0.110 43.971 43.052
-31.000 -19.901 -0.172 -20.371 -0.100 -20.435 -0.076 -20.438 -0.075 -20.438 -0.075 -20.439 -0.075 -20.395 -0.098 -20.238 -0.086 -20.235 -0.085 -20.228 -0.082 -20.206 -0.081 -20.160 -0.091 -19.901 -0.101 -19.886 -0.101 -19.858 -0.104 -19.840 -0.107 -19.512 -0.185 16.355 1.185 1.385 0.118 43.990 43.085
-30.600 -19.945 -0.174 -20.425 -0.101 -20.492 -0.077 -20.495 -0.076 -20.495 -0.076 -20.495 -0.077 -20.452 -0.099 -20.297 -0.087 -20.295 -0.086 -20.288 -0.083 -20.266 -0.081 -20.219 -0.091 -19.951 -0.104 -19.936 -0.104 -19.907 -0.107 -19.889 -0.110 -19.553 -0.188 16.302 1.220 1.426 0.126 44.010 43.118
-30.200 -19.988 -0.176 -20.478 -0.103 -20.548 -0.079 -20.551 -0.078 -20.551 -0.078 -20.552 -0.078 -20.509 -0.100 -20.357 -0.088 -20.354 -0.087 -20.347 -0.084 -20.326 -0.082 -20.278 -0.092 -20.002 -0.107 -19.986 -0.107 -19.957 -0.110 -19.938 -0.114 -19.595 -0.192 16.250 1.254 1.468 0.134 44.030 43.149
-29.800 -20.031 -0.178 -20.531 -0.105 -20.603 -0.081 -20.607 -0.079 -20.607 -0.079 -20.608 -0.079 -20.564 -0.101 -20.415 -0.089 -20.413 -0.088 -20.406 -0.085 -20.385 -0.082 -20.336 -0.092 -20.052 -0.109 -20.036 -0.110 -20.006 -0.114 -19.987 -0.117 -19.637 -0.195 16.199 1.286 1.511 0.142 44.049 43.180
-29.400 -20.074 -0.181 -20.584 -0.106 -20.658 -0.082 -20.662 -0.081 -20.662 -0.080 -20.663 -0.081 -20.620 -0.101 -20.474 -0.090 -20.471 -0.089 -20.465 -0.086 -20.443 -0.083 -20.394 -0.092 -20.101 -0.112 -20.085 -0.113 -20.054 -0.117 -20.035 -0.120 -19.678 -0.198 16.151 1.317 1.555 0.150 44.069 43.210
-29.000 -20.116 -0.183 -20.636 -0.108 -20.712 -0.083 -20.717 -0.082 -20.717 -0.082 -20.718 -0.082 -20.674 -0.102 -20.531 -0.090 -20.529 -0.089 -20.522 -0.087 -20.502 -0.083 -20.451 -0.092 -20.150 -0.115 -20.133 -0.116 -20.102 -0.120 -20.083 -0.123 -19.719 -0.202 16.106 1.347 1.599 0.159 44.088 43.240
-28.600 -20.157 -0.186 -20.687 -0.109 -20.766 -0.084 -20.770 -0.083 -20.771 -0.082 -20.772 -0.083 -20.728 -0.102 -20.588 -0.091 -20.586 -0.090 -20.580 -0.087 -20.559 -0.083 -20.508 -0.092 -20.199 -0.118 -20.182 -0.119 -20.150 -0.122 -20.130 -0.126 -19.761 -0.206 16.063 1.375 1.644 0.168 44.108 43.268
-28.200 -20.199 -0.189 -20.738 -0.110 -20.819 -0.085 -20.824 -0.083 -20.824 -0.083 -20.825 -0.083 -20.781 -0.103 -20.644 -0.091 -20.642 -0.090 -20.636 -0.087 -20.616 -0.083 -20.564 -0.092 -20.247 -0.120 -20.229 -0.121 -20.197 -0.125 -20.177 -0.128 -19.801 -0.209 16.023 1.402 1.689 0.176 44.127 43.296
-27.800 -20.239 -0.191 -20.788 -0.111 -20.871 -0.085 -20.876 -0.084 -20.877 -0.083 -20.878 -0.083 -20.833 -0.103 -20.699 -0.092 -20.698 -0.090 -20.692 -0.087 -20.672 -0.083 -20.619 -0.092 -20.294 -0.122 -20.277 -0.124 -20.244 -0.128 -20.223 -0.131 -19.842 -0.213 15.986 1.427 1.735 0.185 44.147 43.323
-27.400 -20.279 -0.194 -20.837 -0.112 -20.923 -0.086 -20.928 -0.084 -20.928 -0.084 -20.929 -0.084 -20.884 -0.103 -20.754 -0.092 -20.752 -0.090 -20.747 -0.087 -20.727 -0.082 -20.673 -0.091 -20.341 -0.124 -20.323 -0.126 -20.290 -0.130 -20.269 -0.133 -19.883 -0.217 15.951 1.451 1.782 0.194 44.166 43.349
-27.000 -20.319 -0.196 -20.885 -0.113 -20.973 -0.086 -20.979 -0.084 -20.979 -0.084 -20.980 -0.084 -20.934 -0.103 -20.808 -0.092 -20.806 -0.090 -20.801 -0.087 -20.781 -0.082 -20.727 -0.091 -20.388 -0.126 -20.370 -0.128 -20.336 -0.132 -20.314 -0.135 -19.923 -0.220 15.919 1.473 1.829 0.203 44.185 43.375
-26.600 -20.358 -0.199 -20.933 -0.114 -21.023 -0.085 -21.029 -0.084 -21.029 -0.083 -21.030 -0.083 -20.984 -0.102 -20.861 -0.091 -20.859 -0.090 -20.854 -0.086 -20.835 -0.081 -20.779 -0.090 -20.434 -0.128 -20.415 -0.130 -20.381 -0.134 -20.359 -0.137 -19.963 -0.224 15.888 1.493 1.877 0.212 44.204 43.399
-26.200 -20.396 -0.201 -20.980 -0.115 -21.072 -0.085 -21.078 -0.083 -21.078 -0.083 -21.079 -0.083 -21.032 -0.102 -20.912 -0.091 -20.911 -0.089 -20.906 -0.086 -20.887 -0.080 -20.831 -0.089 -20.479 -0.129 -20.460 -0.131 -20.425 -0.135 -20.404 -0.139 -20.003 -0.228 15.860 1.511 1.925 0.221 44.223 43.423
-25.800 -20.434 -0.203 -21.026 -0.115 -21.120 -0.085 -21.126 -0.082 -21.126 -0.082 -21.128 -0.082 -21.079 -0.101 -20.963 -0.090 -20.962 -0.089 -20.957 -0.085 -20.938 -0.079 -20.881 -0.088 -20.523 -0.131 -20.504 -0.133 -20.469 -0.137 -20.448 -0.140 -20.042 -0.231 15.833 1.527 1.973 0.229 44.242 43.446
-25.400 -20.471 -0.206 -21.071 -0.115 -21.167 -0.084 -21.173 -0.081 -21.174 -0.081 -21.175 -0.081 -21.125 -0.101 -21.013 -0.089 -21.012 -0.088 -21.007 -0.084 -20.989 -0.077 -20.931 -0.087 -20.567 -0.132 -20.548 -0.134 -20.513 -0.138 -20.491 -0.141 -20.081 -0.234 15.808 1.541 2.022 0.238 44.260 43.468
-25.000 -20.508 -0.208 -21.115 -0.116 -21.213 -0.083 -21.219 -0.080 -21.220 -0.080 -21.221 -0.080 -21.170 -0.100 -21.062 -0.088 -21.060 -0.087 -21.056 -0.083 -21.038 -0.076 -20.979 -0.086 -20.611 -0.132 -20.591 -0.134 -20.556 -0.139 -20.534 -0.142 -20.120 -0.238 15.784 1.552 2.071 0.246 44.278 43.489
-24.600 -20.544 -0.210 -21.158 -0.116 -21.258 -0.082 -21.264 -0.079 -21.265 -0.079 -21.266 -0.079 -21.214 -0.099 -21.109 -0.087 -21.108 -0.086 -21.104 -0.081 -21.086 -0.074 -21.026 -0.085 -20.653 -0.133 -20.634 -0.135 -20.598 -0.140 -20.576 -0.143 -20.159 -0.241 15.760 1.561 2.121 0.254 44.296 43.509
-24.200 -20.579 -0.212 -21.200 -0.116 -21.302 -0.081 -21.308 -0.078 -21.309 -0.078 -21.310 -0.077 -21.257 -0.097 -21.156 -0.086 -21.155 -0.085 -21.151 -0.080 -21.133 -0.072 -21.072 -0.084 -20.695 -0.133 -20.675 -0.135 -20.640 -0.140 -20.617 -0.144 -20.198 -0.244 15.737 1.567 2.170 0.262 44.313 43.528
-23.800 -20.613 -0.213 -21.241 -0.116 -21.344 -0.079 -21.351 -0.076 -21.351 -0.076 -21.352 -0.076 -21.299 -0.096 -21.201 -0.085 -21.200 -0.083 -21.196 -0.079 -21.178 -0.070 -21.116 -0.083 -20.736 -0.133 -20.717 -0.135 -20.681 -0.140 -20.658 -0.144 -20.236 -0.247 15.715 1.571 2.220 0.269 44.331 43.546
-23.400 -20.647 -0.215 -21.282 -0.115 -21.386 -0.078 -21.392 -0.075 -21.393 -0.075 -21.394 -0.074 -21.339 -0.094 -21.246 -0.084 -21.244 -0.082 -21.241 -0.077 -21.223 -0.068 -21.160 -0.082 -20.777 -0.133 -20.757 -0.135 -20.721 -0.140 -20.699 -0.144 -20.274 -0.249 15.692 1.573 2.269 0.276 44.347 43.563
-23.000 -20.680 -0.216 -21.321 -0.115 -21.426 -0.077 -21.432 -0.073 -21.433 -0.073 -21.434 -0.073 -21.378 -0.093 -21.288 -0.083 -21.287 -0.081 -21.284 -0.075 -21.266 -0.066 -21.202 -0.081 -20.816 -0.133 -20.797 -0.135 -20.761 -0.140 -20.738 -0.144 -20.311 -0.252 15.668 1.571 2.319 0.283 44.364 43.578
-22.600 -20.713 -0.218 -21.359 -0.115 -21.465 -0.075 -21.471 -0.072 -21.472 -0.071 -21.473 -0.071 -21.416 -0.091 -21.330 -0.081 -21.329 -0.079 -21.326 -0.074 -21.308 -0.064 -21.243 -0.079 -20.855 -0.132 -20.836 -0.134 -20.800 -0.139 -20.778 -0.143 -20.349 -0.254 15.644 1.567 2.369 0.289 44.379 43.592
-22.200 -20.745 -0.219 -21.395 -0.114 -21.503 -0.073 -21.509 -0.070 -21.510 -0.070 -21.510 -0.069 -21.453 -0.089 -21.371 -0.080 -21.370 -0.078 -21.367 -0.072 -21.349 -0.062 -21.282 -0.078 -20.894 -0.131 -20.874 -0.133 -20.838 -0.139 -20.816 -0.142 -20.386 -0.257 15.620 1.561 2.419 0.295 44.395 43.606
-21.800 -20.776 -0.220 -21.431 -0.114 -21.539 -0.072 -21.546 -0.068 -21.546 -0.068 -21.547 -0.067 -21.488 -0.087 -21.410 -0.078 -21.409 -0.076 -21.406 -0.071 -21.388 -0.060 -21.321 -0.077 -20.931 -0.130 -20.912 -0.132 -20.876 -0.137 -20.854 -0.141 -20.422 -0.259 15.596 1.553 2.468 0.300 44.409 43.618
-21.400 -20.806 -0.221 -21.466 -0.113 -21.575 -0.070 -21.581 -0.067 -21.581 -0.066 -21.582 -0.065 -21.522 -0.085 -21.448 -0.077 -21.447 -0.075 -21.444 -0.069 -21.426 -0.059 -21.358 -0.076 -20.968 -0.129 -20.949 -0.131 -20.913 -0.136 -20.891 -0.140 -20.459 -0.261 15.574 1.542 2.516 0.305 44.424 43.628
-21.000 -20.836 -0.222 -21.499 -0.112 -21.608 -0.069 -21.614 -0.065 -21.615 -0.064 -21.615 -0.063 -21.554 -0.083 -21.485 -0.076 -21.484 -0.074 -21.481 -0.068 -21.463 -0.057 -21.394 -0.075 -21.004 -0.127 -20.985 -0.130 -20.950 -0.135 -20.928 -0.139 -20.495 -0.262 15.553 1.530 2.564 0.309 44.438 43.638
-20.600 -20.864 -0.222 -21.531 -0.112 -21.641 -0.067 -21.647 -0.063 -21.647 -0.062 -21.648 -0.062 -21.586 -0.081 -21.520 -0.075 -21.519 -0.073 -21.516 -0.066 -21.498 -0.056 -21.428 -0.074 -21.039 -0.126 -21.020 -0.128 -20.986 -0.133 -20.964 -0.137 -20.530 -0.264 15.534 1.516 2.610 0.313 44.451 43.647
-20.200 -20.893 -0.222 -21.562 -0.111 -21.672 -0.065 -21.678 -0.061 -21.679 -0.061 -21.679 -0.060 -21.616 -0.078 -21.554 -0.074 -21.553 -0.071 -21.551 -0.065 -21.532 -0.054 -21.462 -0.073 -21.074 -0.124 -21.055 -0.126 -21.021 -0.131 -21.000 -0.135 -20.565 -0.266 15.516 1.500 2.655 0.316 44.464 43.655
-19.800 -20.920 -0.223 -21.592 -0.110 -21.702 -0.063 -21.708 -0.059 -21.708 -0.059 -21.709 -0.058 -21.645 -0.076 -21.587 -0.072 -21.586 -0.070 -21.584 -0.064 -21.565 -0.053 -21.494 -0.072 -21.108 -0.121 -21.089 -0.124 -21.056 -0.129 -21.035 -0.133 -20.600 -0.267 15.500 1.483 2.699 0.318 44.477 43.661
-19.400 -20.947 -0.223 -21.621 -0.110 -21.731 -0.062 -21.737 -0.057 -21.737 -0.057 -21.737 -0.056 -21.672 -0.074 -21.618 -0.071 -21.618 -0.069 -21.615 -0.063 -21.597 -0.052 -21.525 -0.071 -21.141 -0.119 -21.123 -0.121 -21.089 -0.127 -21.069 -0.131 -20.635 -0.268 15.484 1.464 2.742 0.320 44.489 43.666
-19.000 -20.972 -0.223 -21.649 -0.109 -21.758 -0.060 -21.764 -0.055 -21.764 -0.055 -21.764 -0.054 -21.699 -0.071 -21.648 -0.070 -21.648 -0.068 -21.645 -0.062 -21.627 -0.051 -21.555 -0.071 -21.174 -0.116 -21.156 -0.119 -21.123 -0.124 -21.103 -0.129 -20.669 -0.269 15.468 1.443 2.784 0.321 44.500 43.671
-18.600 -20.998 -0.223 -21.675 -0.108 -21.784 -0.058 -21.790 -0.054 -21.790 -0.053 -21.790 -0.052 -21.724 -0.069 -21.677 -0.069 -21.677 -0.067 -21.674 -0.061 -21.656 -0.050 -21.583 -0.070 -21.206 -0.114 -21.188 -0.116 -21.156 -0.121 -21.136 -0.126 -20.703 -0.269 15.452 1.420 2.825 0.322 44.511 43.674
-18.200 -21.022 -0.222 -21.700 -0.107 -21.809 -0.057 -21.814 -0.052 -21.815 -0.051 -21.814 -0.050 -21.748 -0.067 -21.705 -0.068 -21.704 -0.066 -21.702 -0.060 -21.684 -0.049 -21.610 -0.069 -21.237 -0.111 -21.219 -0.113 -21.188 -0.118 -21.168 -0.123 -20.736 -0.270 15.434 1.396 2.865 0.322 44.521 43.675
-17.800 -21.046 -0.222 -21.724 -0.106 -21.833 -0.055 -21.838 -0.050 -21.838 -0.050 -21.838 -0.048 -21.770 -0.065 -21.731 -0.067 -21.731 -0.065 -21.728 -0.059 -21.710 -0.048 -21.636 -0.068 -21.267 -0.108 -21.250 -0.110 -21.219 -0.115 -21.200 -0.120 -20.769 -0.270 15.414 1.371 2.904 0.321 44.531 43.676
-17.400 -21.069 -0.221 -21.747 -0.106 -21.855 -0.054 -21.860 -0.049 -21.860 -0.048 -21.859 -0.047 -21.792 -0.063 -21.756 -0.067 -21.756 -0.064 -21.753 -0.058 -21.735 -0.047 -21.661 -0.068 -21.297 -0.104 -21.280 -0.106 -21.250 -0.112 -21.232 -0.117 -20.801 -0.271 15.390 1.343 2.943 0.320 44.539 43.675
-17.000 -21.091 -0.220 -21.769 -0.105 -21.875 -0.053 -21.880 -0.047 -21.881 -0.047 -21.880 -0.045 -21.813 -0.061 -21.780 -0.066 -21.779 -0.063 -21.777 -0.057 -21.759 -0.046 -21.685 -0.067 -21.326 -0.101 -21.310 -0.103 -21.281 -0.108 -21.263 -0.113 -20.833 -0.271 15.363 1.315 2.981 0.318 44.547 43.673
-16.600 -21.112 -0.219 -21.790 -0.104 -21.895 -0.052 -21.900 -0.046 -21.900 -0.046 -21.899 -0.044 -21.832 -0.059 -21.802 -0.065 -21.802 -0.063 -21.800 -0.056 -21.781 -0.046 -21.708 -0.066 -21.355 -0.097 -21.339 -0.099 -21.311 -0.105 -21.293 -0.110 -20.865 -0.270 15.331 1.285 3.019 0.316 44.555 43.670
-16.200 -21.133 -0.218 -21.810 -0.103 -21.913 -0.051 -21.918 -0.045 -21.918 -0.045 -21.917 -0.043 -21.851 -0.058 -21.824 -0.064 -21.823 -0.062 -21.821 -0.056 -21.802 -0.045 -21.729 -0.066 -21.383 -0.094 -21.368 -0.095 -21.340 -0.101 -21.323 -0.106 -20.896 -0.270 15.294 1.254 3.056 0.314 44.561 43.666
-15.800 -21.153 -0.217 -21.829 -0.103 -21.930 -0.050 -21.934 -0.044 -21.934 -0.044 -21.934 -0.042 -21.869 -0.057 -21.844 -0.063 -21.843 -0.061 -21.841 -0.055 -21.822 -0.044 -21.750 -0.065 -21.411 -0.090 -21.396 -0.092 -21.369 -0.097 -21.353 -0.103 -20.927 -0.269 15.255 1.222 3.093 0.311 44.567 43.661
-15.400 -21.173 -0.215 -21.847 -0.102 -21.946 -0.049 -21.950 -0.044 -21.950 -0.043 -21.949 -0.042 -21.886 -0.057 -21.863 -0.062 -21.862 -0.060 -21.860 -0.054 -21.841 -0.044 -21.769 -0.064 -21.438 -0.086 -21.423 -0.088 -21.397 -0.093 -21.382 -0.099 -20.957 -0.269 15.215 1.189 3.129 0.307 44.573 43.655
-15.000 -21.191 -0.214 -21.864 -0.101 -21.960 -0.049 -21.964 -0.043 -21.965 -0.043 -21.964 -0.041 -21.902 -0.057 -21.881 -0.062 -21.880 -0.059 -21.878 -0.054 -21.859 -0.044 -21.788 -0.064 -21.464 -0.082 -21.450 -0.084 -21.425 -0.089 -21.410 -0.095 -20.987 -0.268 15.174 1.155 3.163 0.303 44.578 43.649
-14.600 -21.209 -0.212 -21.880 -0.100 -21.974 -0.048 -21.978 -0.043 -21.978 -0.042 -21.977 -0.041 -21.918 -0.057 -21.897 -0.061 -21.897 -0.059 -21.894 -0.053 -21.875 -0.044 -21.805 -0.063 -21.490 -0.078 -21.476 -0.079 -21.452 -0.085 -21.438 -0.091 -21.016 -0.267 15.133 1.120 3.197 0.297 44.582 43.641
-14.200 -21.227 -0.210 -21.895 -0.100 -21.987 -0.047 -21.991 -0.042 -21.991 -0.042 -21.990 -0.041 -21.933 -0.057 -21.913 -0.060 -21.913 -0.058 -21.910 -0.052 -21.890 -0.043 -21.822 -0.063 -21.515 -0.074 -21.502 -0.075 -21.479 -0.081 -21.466 -0.087 -21.045 -0.266 15.092 1.084 3.229 0.292 44.586 43.632
-13.800 -21.243 -0.208 -21.909 -0.099 -21.999 -0.047 -22.003 -0.042 -22.003 -0.041 -22.002 -0.040 -21.947 -0.058 -21.928 -0.059 -21.928 -0.057 -21.925 -0.052 -21.905 -0.043 -21.837 -0.063 -21.540 -0.070 -21.528 -0.071 -21.506 -0.077 -21.493 -0.083 -21.073 -0.264 15.048 1.045 3.262 0.285 44.590 43.621
-13.400 -21.259 -0.206 -21.923 -0.098 -22.011 -0.046 -22.014 -0.041 -22.014 -0.041 -22.013 -0.040 -21.961 -0.059 -21.942 -0.058 -21.941 -0.056 -21.938 -0.051 -21.918 -0.044 -21.852 -0.062 -21.565 -0.066 -21.553 -0.067 -21.532 -0.073 -21.520 -0.079 -21.101 -0.263 15.001 1.005 3.295 0.278 44.593 43.609
-13.000 -21.275 -0.203 -21.936 -0.097 -22.022 -0.046 -22.025 -0.041 -22.025 -0.040 -22.024 -0.039 -21.973 -0.060 -21.955 -0.057 -21.955 -0.055 -21.951 -0.051 -21.931 -0.044 -21.866 -0.062 -21.589 -0.062 -21.578 -0.063 -21.558 -0.069 -21.546 -0.075 -21.128 -0.261 14.950 0.963 3.328 0.270 44.596 43.595
-12.600 -21.289 -0.201 -21.949 -0.096 -22.032 -0.045 -22.035 -0.040 -22.035 -0.040 -22.034 -0.039 -21.986 -0.061 -21.968 -0.056 -21.967 -0.054 -21.964 -0.050 -21.943 -0.044 -21.880 -0.062 -21.613 -0.059 -21.602 -0.059 -21.583 -0.064 -21.572 -0.071 -21.155 -0.259 14.892 0.919 3.363 0.261 44.598 43.580
-12.200 -21.304 -0.198 -21.961 -0.096 -22.042 -0.045 -22.044 -0.040 -22.045 -0.039 -22.044 -0.039 -21.997 -0.062 -21.980 -0.055 -21.979 -0.053 -21.975 -0.049 -21.955 -0.044 -21.893 -0.061 -21.636 -0.055 -21.626 -0.055 -21.608 -0.060 -21.598 -0.067 -21.181 -0.257 14.827 0.874 3.400 0.252 44.600 43.562
-11.800 -21.317 -0.196 -21.972 -0.095 -22.051 -0.044 -22.054 -0.039 -22.054 -0.039 -22.053 -0.038 -22.008 -0.063 -21.991 -0.053 -21.990 -0.052 -21.986 -0.048 -21.966 -0.044 -21.905 -0.061 -21.659 -0.052 -21.649 -0.051 -21.633 -0.057 -21.623 -0.064 -21.207 -0.255 14.752 0.827 3.441 0.243 44.602 43.542
-11.400 -21.330 -0.193 -21.983 -0.094 -22.061 -0.044 -22.063 -0.039 -22.063 -0.038 -22.063 -0.038 -22.019 -0.064 -22.001 -0.052 -22.000 -0.050 -21.997 -0.047 -21.976 -0.044 -21.917 -0.061 -21.682 -0.049 -21.673 -0.048 -21.658 -0.053 -21.648 -0.060 -21.232 -0.252 14.667 0.780 3.484 0.233 44.602 43.520
-11.000 -21.342 -0.190 -21.994 -0.093 -22.070 -0.043 -22.072 -0.038 -22.072 -0.038 -22.072 -0.037 -22.029 -0.065 -22.011 -0.050 -22.010 -0.049 -22.007 -0.046 -21.986 -0.044 -21.928 -0.061 -21.704 -0.046 -21.696 -0.045 -21.682 -0.049 -21.673 -0.057 -21.257 -0.250 14.572 0.733 3.532 0.224 44.603 43.497
-10.600 -21.354 -0.187 -22.004 -0.092 -22.079 -0.043 -22.081 -0.038 -22.081 -0.037 -22.081 -0.037 -22.038 -0.066 -22.020 -0.048 -22.020 -0.047 -22.016 -0.044 -21.996 -0.044 -21.939 -0.060 -21.726 -0.044 -21.718 -0.042 -21.705 -0.046 -21.697 -0.053 -21.281 -0.247 14.466 0.687 3.585 0.214 44.603 43.472
-10.200 -21.365 -0.184 -22.013 -0.092 -22.088 -0.042 -22.090 -0.037 -22.090 -0.037 -22.090 -0.036 -22.047 -0.067 -22.029 -0.046 -22.028 -0.045 -22.025 -0.043 -22.005 -0.044 -21.949 -0.060 -21.748 -0.042 -21.741 -0.039 -21.729 -0.043 -21.721 -0.050 -21.304 -0.244 14.352 0.643 3.641 0.205 44.603 43.446
-9.800 -21.376 -0.180 -22.023 -0.091 -22.097 -0.042 -22.099 -0.037 -22.099 -0.036 -22.098 -0.036 -22.055 -0.067 -22.038 -0.044 -22.037 -0.043 -22.034 -0.041 -22.015 -0.044 -21.960 -0.060 -21.769 -0.040 -21.763 -0.037 -21.752 -0.040 -21.744 -0.047 -21.327 -0.241 14.234 0.601 3.700 0.197 44.603 43.420
-9.400 -21.386 -0.177 -22.032 -0.090 -22.106 -0.042 -22.108 -0.036 -22.108 -0.036 -22.107 -0.036 -22.063 -0.068 -22.046 -0.042 -22.045 -0.041 -22.042 -0.039 -22.023 -0.043 -21.969 -0.060 -21.790 -0.038 -21.784 -0.035 -21.774 -0.037 -21.767 -0.044 -21.350 -0.238 14.116 0.563 3.760 0.189 44.602 43.394
-9.000 -21.395 -0.173 -22.041 -0.089 -22.115 -0.041 -22.117 -0.036 -22.117 -0.036 -22.116 -0.035 -22.070 -0.068 -22.053 -0.039 -22.053 -0.038 -22.050 -0.038 -22.032 -0.043 -21.979 -0.060 -21.810 -0.037 -21.805 -0.033 -21.795 -0.034 -21.789 -0.041 -21.371 -0.235 14.001 0.527 3.821 0.181 44.602 43.369
-8.600 -21.404 -0.169 -22.049 -0.088 -22.124 -0.041 -22.126 -0.036 -22.126 -0.035 -22.125 -0.035 -22.077 -0.069 -22.061 -0.036 -22.060 -0.036 -22.058 -0.035 -22.040 -0.043 -21.988 -0.059 -21.829 -0.036 -21.825 -0.031 -21.816 -0.031 -21.810 -0.038 -21.393 -0.231 13.893 0.493 3.880 0.174 44.602 43.344
-8.200 -21.413 -0.166 -22.057 -0.087 -22.132 -0.040 -22.134 -0.035 -22.134 -0.035 -22.133 -0.034 -22.083 -0.069 -22.068 -0.033 -22.067 -0.033 -22.065 -0.033 -22.049 -0.042 -21.997 -0.059 -21.848 -0.035 -21.844 -0.029 -21.836 -0.028 -21.830 -0.034 -21.413 -0.227 13.793 0.462 3.937 0.166 44.602 43.320
-7.800 -21.421 -0.162 -22.065 -0.086 -22.141 -0.040 -22.143 -0.034 -22.143 -0.034 -22.141 -0.033 -22.088 -0.069 -22.074 -0.030 -22.074 -0.030 -22.072 -0.031 -22.057 -0.042 -22.006 -0.059 -21.865 -0.034 -21.862 -0.028 -21.855 -0.024 -21.849 -0.031 -21.433 -0.224 13.702 0.434 3.991 0.158 44.602 43.297
-7.400 -21.428 -0.158 -22.073 -0.085 -22.149 -0.039 -22.151 -0.034 -22.151 -0.033 -22.149 -0.033 -22.093 -0.069 -22.080 -0.027 -22.080 -0.027 -22.079 -0.029 -22.064 -0.041 -22.014 -0.059 -21.881 -0.033 -21.879 -0.026 -21.873 -0.021 -21.867 -0.028 -21.453 -0.220 13.622 0.407 4.041 0.151 44.603 43.275
-7.000 -21.435 -0.154 -22.080 -0.084 -22.157 -0.039 -22.159 -0.033 -22.159 -0.033 -22.157 -0.032 -22.098 -0.069 -22.086 -0.025 -22.086 -0.024 -22.085 -0.027 -22.072 -0.041 -22.022 -0.059 -21.896 -0.032 -21.894 -0.025 -21.889 -0.018 -21.883 -0.025 -21.472 -0.216 13.551 0.381 4.087 0.142 44.604 43.254
-6.600 -21.442 -0.150 -22.087 -0.082 -22.165 -0.038 -22.167 -0.032 -22.166 -0.032 -22.165 -0.031 -22.102 -0.069 -22.092 -0.022 -22.092 -0.022 -22.091 -0.025 -22.079 -0.040 -22.030 -0.059 -21.909 -0.032 -21.908 -0.023 -21.904 -0.014 -21.898 -0.022 -21.490 -0.211 13.489 0.357 4.129 0.134 44.604 43.234
-6.200 -21.448 -0.146 -22.094 -0.081 -22.172 -0.038 -22.174 -0.032 -22.174 -0.031 -22.172 -0.031 -22.105 -0.069 -22.097 -0.020 -22.097 -0.020 -22.097 -0.023 -22.086 -0.040 -22.037 -0.058 -21.922 -0.032 -21.921 -0.023 -21.917 -0.011 -21.912 -0.019 -21.507 -0.207 13.428 0.335 4.169 0.126 44.605 43.215
-5.800 -21.453 -0.142 -22.100 -0.080 -22.179 -0.037 -22.181 -0.032 -22.181 -0.031 -22.178 -0.030 -22.108 -0.069 -22.101 -0.019 -22.102 -0.019 -22.103 -0.023 -22.092 -0.039 -22.044 -0.058 -21.932 -0.032 -21.932 -0.023 -21.929 -0.010 -21.924 -0.018 -21.525 -0.202 13.357 0.321 4.213 0.122 44.605 43.201
-5.400 -21.459 -0.138 -22.106 -0.079 -22.186 -0.037 -22.187 -0.031 -22.187 -0.031 -22.185 -0.030 -22.110 -0.069 -22.106 -0.019 -22.107 -0.019 -22.108 -0.023 -22.099 -0.039 -22.051 -0.058 -21.942 -0.032 -21.941 -0.024 -21.939 -0.011 -21.935 -0.018 -21.541 -0.197 13.268 0.323 4.263 0.127 44.603 43.199
-5.000 -21.463 -0.133 -22.112 -0.077 -22.193 -0.037 -22.194 -0.032 -22.193 -0.031 -22.190 -0.030 -22.111 -0.068 -22.110 -0.021 -22.111 -0.020 -22.113 -0.023 -22.105 -0.038 -22.057 -0.057 -21.949 -0.034 -21.949 -0.025 -21.947 -0.014 -21.943 -0.019 -21.557 -0.193 13.179 0.338 4.313 0.138 44.602 43.207
-4.600 -21.468 -0.129 -22.118 -0.076 -22.199 -0.037 -22.199 -0.032 -22.199 -0.031 -22.196 -0.031 -22.112 -0.068 -22.113 -0.023 -22.115 -0.022 -22.117 -0.024 -22.111 -0.038 -22.063 -0.057 -21.956 -0.035 -21.956 -0.027 -21.954 -0.017 -21.950 -0.022 -21.572 -0.188 13.100 0.356 4.357 0.151 44.600 43.219
-4.200 -21.472 -0.125 -22.123 -0.075 -22.204 -0.037 -22.204 -0.032 -22.204 -0.031 -22.200 -0.031 -22.113 -0.068 -22.117 -0.025 -22.118 -0.025 -22.121 -0.026 -22.116 -0.038 -22.068 -0.056 -21.961 -0.037 -21.961 -0.029 -21.959 -0.021 -21.956 -0.024 -21.587 -0.182 13.032 0.377 4.397 0.165 44.599 43.232
-3.800 -21.475 -0.121 -22.127 -0.073 -22.209 -0.037 -22.209 -0.032 -22.209 -0.032 -22.205 -0.032 -22.112 -0.067 -22.119 -0.027 -22.121 -0.027 -22.125 -0.027 -22.121 -0.037 -22.073 -0.056 -21.964 -0.039 -21.964 -0.032 -21.963 -0.025 -21.960 -0.027 -21.601 -0.177 12.970 0.397 4.433 0.179 44.598 43.245
-3.400 -21.478 -0.117 -22.132 -0.072 -22.214 -0.036 -22.214 -0.032 -22.213 -0.032 -22.209 -0.032 -22.111 -0.066 -22.122 -0.030 -22.124 -0.029 -22.128 -0.029 -22.126 -0.037 -22.078 -0.055 -21.967 -0.041 -21.967 -0.035 -21.966 -0.028 -21.964 -0.030 -21.615 -0.172 12.915 0.416 4.466 0.193 44.597 43.257
-3.000 -21.481 -0.113 -22.136 -0.071 -22.218 -0.036 -22.218 -0.032 -22.217 -0.032 -22.212 -0.032 -22.110 -0.066 -22.124 -0.032 -22.126 -0.031 -22.131 -0.031 -22.130 -0.037 -22.082 -0.054 -21.969 -0.043 -21.969 -0.037 -21.968 -0.031 -21.966 -0.033 -21.627 -0.166 12.864 0.435 4.495 0.206 44.596 43.267
-2.600 -21.483 -0.109 -22.140 -0.069 -22.222 -0.036 -22.221 -0.032 -22.220 -0.032 -22.215 -0.032 -22.108 -0.065 -22.125 -0.034 -22.127 -0.033 -22.133 -0.032 -22.134 -0.036 -22.085 -0.054 -21.969 -0.044 -21.969 -0.040 -21.968 -0.034 -21.967 -0.036 -21.640 -0.160 12.819 0.452 4.522 0.219 44.595 43.277
-2.200 -21.485 -0.106 -22.144 -0.068 -22.225 -0.036 -22.224 -0.032 -22.223 -0.032 -22.217 -0.032 -22.105 -0.064 -22.126 -0.036 -22.129 -0.035 -22.135 -0.033 -22.137 -0.036 -22.088 -0.053 -21.969 -0.046 -21.969 -0.042 -21.968 -0.037 -21.966 -0.038 -21.652 -0.155 12.779 0.469 4.545 0.231 44.594 43.285
-1.800 -21.487 -0.103 -22.147 -0.067 -22.228 -0.035 -22.226 -0.032 -22.225 -0.032 -22.219 -0.032 -22.102 -0.063 -22.126 -0.038 -22.129 -0.037 -22.136 -0.035 -22.140 -0.035 -22.091 -0.053 -21.967 -0.048 -21.967 -0.044 -21.967 -0.040 -21.965 -0.041 -21.663 -0.149 12.744 0.484 4.565 0.242 44.593 43.293
-1.400 -21.488 -0.099 -22.150 -0.066 -22.231 -0.035 -22.228 -0.032 -22.227 -0.032 -22.220 -0.032 -22.098 -0.061 -22.126 -0.039 -22.129 -0.038 -22.137 -0.036 -22.142 -0.035 -22.093 -0.052 -21.965 -0.049 -21.965 -0.046 -21.965 -0.042 -21.964 -0.043 -21.674 -0.142 12.716 0.498 4.581 0.253 44.592 43.299
-1.000 -21.489 -0.097 -22.152 -0.065 -22.233 -0.034 -22.230 -0.031 -22.229 -0.031 -22.221 -0.032 -22.094 -0.060 -22.125 -0.041 -22.129 -0.039 -22.137 -0.036 -22.144 -0.035 -22.095 -0.052 -21.963 -0.051 -21.962 -0.047 -21.962 -0.043 -21.961 -0.044 -21.684 -0.136 12.697 0.511 4.592 0.262 44.592 43.306
-0.600 -21.490 -0.094 -22.155 -0.064 -22.234 -0.034 -22.231 -0.031 -22.229 -0.031 -22.222 -0.031 -22.089 -0.059 -22.124 -0.041 -22.128 -0.040 -22.137 -0.037 -22.145 -0.034 -22.096 -0.051 -21.959 -0.052 -21.959 -0.048 -21.958 -0.045 -21.958 -0.046 -21.693 -0.130 12.688 0.524 4.596 0.270 44.591 43.312
-0.200 -21.490 -0.092 -22.157 -0.063 -22.235 -0.033 -22.231 -0.030 -22.230 -0.030 -22.221 -0.031 -22.084 -0.057 -22.123 -0.042 -22.126 -0.041 -22.136 -0.037 -22.145 -0.034 -22.096 -0.051 -21.955 -0.052 -21.954 -0.049 -21.954 -0.046 -21.954 -0.046 -21.702 -0.123 12.689 0.535 4.595 0.277 44.591 43.318
0.200 -21.490 -0.090 -22.159 -0.062 -22.236 -0.032 -22.231 -0.030 -22.230 -0.030 -22.221 -0.030 -22.079 -0.056 -22.120 -0.042 -22.124 -0.041 -22.134 -0.037 -22.145 -0.033 -22.096 -0.050 -21.950 -0.053 -21.949 -0.050 -21.949 -0.046 -21.950 -0.047 -21.711 -0.117 12.703 0.546 4.586 0.283 44.591 43.324
0.600 -21.489 -0.088 -22.160 -0.061 -22.236 -0.032 -22.231 -0.029 -22.229 -0.029 -22.220 -0.029 -22.073 -0.054 -22.118 -0.043 -22.122 -0.041 -22.133 -0.037 -22.145 -0.033 -22.096 -0.050 -21.945 -0.053 -21.944 -0.050 -21.944 -0.047 -21.945 -0.047 -21.719 -0.110 12.728 0.557 4.571 0.287 44.592 43.330
1.000 -21.488 -0.087 -22.162 -0.061 -22.235 -0.031 -22.229 -0.028 -22.228 -0.028 -22.218 -0.029 -22.067 -0.052 -22.114 -0.043 -22.119 -0.041 -22.130 -0.037 -22.144 -0.033 -22.095 -0.050 -21.939 -0.053 -21.938 -0.050 -21.939 -0.047 -21.939 -0.047 -21.726 -0.104 12.762 0.567 4.550 0.290 44.592 43.336
1.400 -21.487 -0.086 -22.162 -0.060 -22.234 -0.030 -22.228 -0.027 -22.226 -0.027 -22.216 -0.028 -22.061 -0.050 -22.111 -0.042 -22.116 -0.041 -22.127 -0.037 -22.142 -0.032 -22.094 -0.049 -21.933 -0.053 -21.932 -0.050 -21.932 -0.046 -21.933 -0.047 -21.733 -0.097 12.803 0.575 4.525 0.292 44.593 43.343
1.800 -21.485 -0.086 -22.163 -0.060 -22.233 -0.029 -22.226 -0.026 -22.224 -0.026 -22.213 -0.027 -22.054 -0.049 -22.107 -0.042 -22.112 -0.040 -22.124 -0.036 -22.140 -0.032 -22.092 -0.049 -21.926 -0.052 -21.926 -0.049 -21.926 -0.046 -21.927 -0.047 -21.740 -0.090 12.851 0.583 4.495 0.292 44.594 43.349
2.200 -21.483 -0.085 -22.163 -0.059 -22.231 -0.029 -22.223 -0.026 -22.221 -0.026 -22.210 -0.026 -22.047 -0.047 -22.103 -0.041 -22.107 -0.040 -22.120 -0.036 -22.138 -0.032 -22.090 -0.049 -21.919 -0.052 -21.919 -0.049 -21.919 -0.045 -21.921 -0.046 -21.746 -0.083 12.906 0.590 4.462 0.291 44.595 43.355
2.600 -21.481 -0.085 -22.163 -0.059 -22.228 -0.028 -22.220 -0.025 -22.218 -0.025 -22.206 -0.026 -22.041 -0.046 -22.098 -0.040 -22.103 -0.039 -22.116 -0.035 -22.136 -0.031 -22.088 -0.049 -21.912 -0.051 -21.912 -0.048 -21.913 -0.044 -21.914 -0.045 -21.751 -0.076 12.968 0.595 4.425 0.289 44.596 43.360
3.000 -21.478 -0.085 -22.162 -0.059 -22.225 -0.027 -22.216 -0.024 -22.214 -0.024 -22.202 -0.025 -22.034 -0.044 -22.093 -0.039 -22.098 -0.038 -22.112 -0.034 -22.133 -0.031 -22.085 -0.048 -21.905 -0.050 -21.905 -0.046 -21.906 -0.043 -21.908 -0.044 -21.756 -0.069 13.035 0.598 4.386 0.286 44.597 43.364
3.400 -21.474 -0.085 -22.161 -0.058 -22.222 -0.026 -22.212 -0.023 -22.210 -0.023 -22.198 -0.024 -22.028 -0.043 -22.087 -0.038 -22.093 -0.037 -22.107 -0.033 -22.130 -0.030 -22.082 -0.048 -21.898 -0.048 -21.897 -0.045 -21.899 -0.042 -21.901 -0.042 -21.761 -0.062 13.105 0.599 4.345 0.281 44.599 43.368
3.800 -21.471 -0.085 -22.159 -0.058 -22.218 -0.026 -22.208 -0.023 -22.206 -0.022 -22.193 -0.023 -22.022 -0.043 -22.082 -0.037 -22.087 -0.035 -22.102 -0.032 -22.126 -0.030 -22.078 -0.048 -21.891 -0.047 -21.890 -0.044 -21.892 -0.040 -21.894 -0.041 -21.765 -0.055 13.173 0.597 4.305 0.274 44.600 43.369
4.200 -21.467 -0.086 -22.157 -0.057 -22.213 -0.025 -22.203 -0.022 -22.201 -0.022 -22.188 -0.023 -22.016 -0.042 -22.076 -0.036 -22.082 -0.034 -22.097 -0.031 -22.122 -0.030 -22.075 -0.048 -21.883 -0.045 -21.883 -0.042 -21.885 -0.039 -21.887 -0.040 -21.768 -0.049 13.236 0.592 4.269 0.267 44.600 43.369
4.600 -21.462 -0.086 -22.155 -0.057 -22.208 -0.024 -22.198 -0.021 -22.195 -0.021 -22.182 -0.023 -22.010 -0.042 -22.070 -0.035 -22.076 -0.033 -22.092 -0.030 -22.119 -0.029 -22.071 -0.047 -21.876 -0.044 -21.876 -0.041 -21.878 -0.037 -21.881 -0.039 -21.771 -0.042 13.285 0.583 4.237 0.258 44.600 43.366
5.000 -21.457 -0.087 -22.152 -0.057 -22.203 -0.024 -22.192 -0.021 -22.190 -0.021 -22.176 -0.022 -22.005 -0.042 -22.064 -0.033 -22.070 -0.032 -22.086 -0.029 -22.114 -0.029 -22.067 -0.047 -21.869 -0.042 -21.869 -0.039 -21.871 -0.036 -21.874 -0.038 -21.774 -0.037 13.318 0.571 4.213 0.249 44.600 43.361
5.400 -21.452 -0.088 -22.148 -0.056 -22.197 -0.023 -22.186 -0.021 -22.184 -0.021 -22.170 -0.023 -21.999 -0.042 -22.058 -0.032 -22.065 -0.031 -22.081 -0.028 -22.110 -0.029 -22.063 -0.047 -21.862 -0.040 -21.862 -0.037 -21.865 -0.035 -21.868 -0.037 -21.776 -0.032 13.334 0.557 4.195 0.240 44.598 43.355
5.800 -21.446 -0.089 -22.144 -0.056 -22.191 -0.023 -22.180 -0.021 -22.178 -0.021 -22.164 -0.023 -21.994 -0.043 -22.052 -0.031 -22.059 -0.030 -22.075 -0.027 -22.105 -0.029 -22.060 -0.047 -21.855 -0.039 -21.855 -0.036 -21.858 -0.034 -21.862 -0.037 -21.778 -0.029 13.341 0.545 4.182 0.233 44.596 43.348
6.200 -21.440 -0.090 -22.140 -0.056 -22.185 -0.023 -22.174 -0.021 -22.171 -0.021 -22.158 -0.023 -21.990 -0.044 -22.046 -0.030 -22.053 -0.028 -22.070 -0.026 -22.101 -0.029 -22.056 -0.047 -21.848 -0.037 -21.848 -0.034 -21.852 -0.033 -21.857 -0.036 -21.780 -0.027 13.354 0.539 4.165 0.228 44.595 43.345
6.600 -21.434 -0.091 -22.135 -0.055 -22.179 -0.022 -22.168 -0.021 -22.165 -0.021 -22.152 -0.023 -21.986 -0.045 -22.040 -0.029 -22.046 -0.027 -22.064 -0.025 -22.096 -0.029 -22.052 -0.048 -21.842 -0.035 -21.842 -0.033 -21.846 -0.033 -21.851 -0.036 -21.781 -0.029 13.392 0.541 4.139 0.226 44.594 43.347
7.000 -21.426 -0.093 -22.130 -0.055 -22.173 -0.022 -22.161 -0.021 -22.159 -0.021 -22.146 -0.023 -21.982 -0.047 -22.034 -0.028 -22.040 -0.026 -22.058 -0.024 -22.091 -0.029 -22.047 -0.048 -21.836 -0.034 -21.836 -0.032 -21.841 -0.032 -21.846 -0.036 -21.781 -0.032 13.452 0.547 4.102 0.224 44.594 43.351
7.400 -21.419 -0.095 -22.124 -0.055 -22.166 -0.021 -22.155 -0.021 -22.152 -0.021 -22.140 -0.024 -21.978 -0.048 -22.028 -0.027 -22.034 -0.025 -22.052 -0.024 -22.086 -0.029 -22.043 -0.048 -21.830 -0.032 -21.831 -0.030 -21.836 -0.032 -21.841 -0.036 -21.781 -0.036 13.524 0.551 4.061 0.222 44.595 43.354
7.800 -21.411 -0.097 -22.118 -0.056 -22.160 -0.021 -22.149 -0.020 -22.146 -0.021 -22.134 -0.024 -21.975 -0.050 -22.022 -0.026 -22.028 -0.025 -22.046 -0.023 -22.081 -0.029 -22.039 -0.048 -21.824 -0.031 -21.825 -0.029 -21.831 -0.031 -21.836 -0.036 -21.781 -0.041 13.595 0.552 4.022 0.218 44.595 43.355
8.200 -21.403 -0.099 -22.111 -0.056 -22.153 -0.020 -22.142 -0.020 -22.140 -0.021 -22.128 -0.024 -21.971 -0.052 -22.016 -0.025 -22.022 -0.024 -22.040 -0.023 -22.075 -0.029 -22.034 -0.048 -21.819 -0.030 -21.820 -0.028 -21.826 -0.031 -21.832 -0.036 -21.781 -0.046 13.655 0.550 3.987 0.214 44.595 43.353
8.600 -21.394 -0.102 -22.104 -0.057 -22.146 -0.020 -22.136 -0.020 -22.134 -0.021 -22.122 -0.024 -21.968 -0.054 -22.010 -0.025 -22.016 -0.024 -22.034 -0.023 -22.070 -0.030 -22.030 -0.048 -21.815 -0.029 -21.816 -0.028 -21.822 -0.031 -21.827 -0.036 -21.780 -0.052 13.696 0.545 3.961 0.209 44.595 43.350
9.000 -21.385 -0.105 -22.096 -0.058 -22.140 -0.020 -22.130 -0.021 -22.128 -0.021 -22.116 -0.025 -21.965 -0.055 -22.004 -0.025 -22.011 -0.024 -22.029 -0.023 -22.064 -0.030 -22.025 -0.048 -21.810 -0.029 -21.811 -0.028 -21.818 -0.031 -21.823 -0.036 -21.779 -0.057 13.715 0.540 3.943 0.206 44.593 43.345
9.400 -21.375 -0.108 -22.088 -0.058 -22.133 -0.021 -22.124 -0.021 -22.122 -0.021 -22.110 -0.025 -21.962 -0.057 -21.999 -0.026 -22.005 -0.024 -22.023 -0.023 -22.059 -0.030 -22.020 -0.048 -21.806 -0.029 -21.808 -0.028 -21.814 -0.031 -21.820 -0.036 -21.777 -0.062 13.712 0.535 3.934 0.203 44.591 43.339
9.800 -21.365 -0.111 -22.080 -0.060 -22.127 -0.022 -22.118 -0.021 -22.116 -0.022 -22.105 -0.026 -21.959 -0.059 -21.994 -0.026 -22.000 -0.025 -22.018 -0.024 -22.053 -0.031 -22.016 -0.049 -21.803 -0.029 -21.804 -0.028 -21.810 -0.031 -21.816 -0.036 -21.775 -0.068 13.693 0.530 3.931 0.201 44.588 43.333
10.200 -21.354 -0.114 -22.071 -0.061 -22.120 -0.022 -22.111 -0.022 -22.109 -0.023 -22.099 -0.026 -21.956 -0.061 -21.989 -0.027 -21.995 -0.026 -22.013 -0.025 -22.048 -0.031 -22.011 -0.049 -21.800 -0.029 -21.801 -0.028 -21.807 -0.031 -21.812 -0.036 -21.773 -0.073 13.662 0.525 3.933 0.200 44.584 43.327
10.600 -21.343 -0.118 -22.062 -0.062 -22.113 -0.023 -22.105 -0.023 -22.103 -0.023 -22.093 -0.027 -21.953 -0.063 -21.984 -0.028 -21.990 -0.027 -22.008 -0.025 -22.042 -0.031 -22.006 -0.049 -21.797 -0.030 -21.798 -0.029 -21.804 -0.031 -21.809 -0.036 -21.770 -0.077 13.626 0.519 3.936 0.198 44.580 43.319
11.000 -21.331 -0.121 -22.052 -0.063 -22.106 -0.024 -22.098 -0.024 -22.096 -0.024 -22.087 -0.027 -21.949 -0.064 -21.979 -0.029 -21.985 -0.028 -22.003 -0.026 -22.037 -0.031 -22.001 -0.049 -21.794 -0.031 -21.795 -0.029 -21.800 -0.031 -21.806 -0.036 -21.767 -0.082 13.584 0.512 3.942 0.197 44.576 43.311
11.400 -21.319 -0.125 -22.042 -0.065 -22.098 -0.025 -22.091 -0.024 -22.090 -0.025 -22.080 -0.028 -21.946 -0.066 -21.974 -0.030 -21.980 -0.029 -21.997 -0.027 -22.031 -0.032 -21.995 -0.049 -21.791 -0.031 -21.792 -0.029 -21.797 -0.032 -21.802 -0.036 -21.764 -0.086 13.538 0.505 3.950 0.195 44.572 43.301
11.800 -21.306 -0.128 -22.031 -0.066 -22.090 -0.026 -22.084 -0.025 -22.082 -0.025 -22.073 -0.028 -21.942 -0.067 -21.969 -0.031 -21.975 -0.029 -21.992 -0.027 -22.025 -0.032 -21.990 -0.049 -21.788 -0.032 -21.789 -0.030 -21.794 -0.032 -21.799 -0.036 -21.760 -0.090 13.490 0.497 3.958 0.194 44.568 43.290
12.200 -21.293 -0.132 -22.020 -0.067 -22.082 -0.027 -22.076 -0.025 -22.075 -0.026 -22.066 -0.029 -21.938 -0.068 -21.964 -0.031 -21.970 -0.030 -21.987 -0.028 -22.019 -0.032 -21.985 -0.049 -21.785 -0.032 -21.786 -0.030 -21.791 -0.032 -21.796 -0.036 -21.756 -0.094 13.438 0.488 3.968 0.192 44.563 43.278
12.600 -21.279 -0.136 -22.009 -0.069 -22.073 -0.027 -22.068 -0.026 -22.067 -0.026 -22.059 -0.029 -21.933 -0.070 -21.959 -0.032 -21.965 -0.030 -21.982 -0.028 -22.013 -0.033 -21.979 -0.050 -21.782 -0.033 -21.783 -0.031 -21.788 -0.032 -21.792 -0.036 -21.752 -0.098 13.382 0.478 3.980 0.190 44.559 43.265
13.000 -21.265 -0.139 -21.997 -0.070 -22.064 -0.028 -22.060 -0.026 -22.058 -0.026 -22.051 -0.029 -21.928 -0.071 -21.954 -0.032 -21.960 -0.031 -21.976 -0.028 -22.007 -0.033 -21.973 -0.050 -21.779 -0.034 -21.780 -0.032 -21.785 -0.032 -21.788 -0.036 -21.747 -0.101 13.319 0.468 3.993 0.188 44.553 43.250
13.400 -21.250 -0.143 -21.984 -0.071 -22.055 -0.028 -22.051 -0.027 -22.050 -0.027 -22.042 -0.030 -21.923 -0.072 -21.949 -0.032 -21.955 -0.031 -21.970 -0.029 -22.001 -0.033 -21.968 -0.050 -21.776 -0.035 -21.777 -0.032 -21.781 -0.033 -21.785 -0.036 -21.742 -0.104 13.250 0.459 4.010 0.186 44.548 43.235
13.800 -21.235 -0.146 -21.971 -0.072 -22.044 -0.029 -22.041 -0.027 -22.040 -0.027 -22.033 -0.030 -21.917 -0.073 -21.944 -0.033 -21.950 -0.031 -21.965 -0.029 -21.994 -0.033 -21.962 -0.050 -21.773 -0.036 -21.774 -0.033 -21.777 -0.033 -21.781 -0.037 -21.737 -0.107 13.172 0.449 4.029 0.185 44.542 43.219
14.200 -21.219 -0.150 -21.958 -0.074 -22.034 -0.030 -22.031 -0.028 -22.030 -0.028 -22.024 -0.031 -21.911 -0.074 -21.939 -0.033 -21.944 -0.031 -21.959 -0.029 -21.988 -0.034 -21.956 -0.050 -21.770 -0.037 -21.770 -0.034 -21.774 -0.034 -21.777 -0.037 -21.732 -0.110 13.088 0.440 4.051 0.184 44.535 43.203
14.600 -21.203 -0.153 -21.944 -0.075 -22.022 -0.030 -22.020 -0.028 -22.019 -0.029 -22.014 -0.031 -21.904 -0.074 -21.934 -0.033 -21.939 -0.032 -21.954 -0.029 -21.981 -0.034 -21.950 -0.051 -21.767 -0.038 -21.767 -0.035 -21.770 -0.035 -21.772 -0.038 -21.726 -0.112 12.998 0.430 4.075 0.184 44.529 43.186
15.000 -21.186 -0.156 -21.929 -0.076 -22.010 -0.031 -22.009 -0.029 -22.008 -0.029 -22.003 -0.032 -21.897 -0.075 -21.928 -0.033 -21.934 -0.032 -21.948 -0.029 -21.974 -0.035 -21.944 -0.051 -21.763 -0.039 -21.763 -0.036 -21.765 -0.035 -21.768 -0.038 -21.720 -0.114 12.904 0.421 4.102 0.183 44.522 43.169
15.400 -21.169 -0.160 -21.914 -0.077 -21.998 -0.031 -21.997 -0.030 -21.996 -0.030 -21.991 -0.033 -21.890 -0.075 -21.923 -0.033 -21.928 -0.032 -21.942 -0.030 -21.968 -0.035 -21.938 -0.051 -21.759 -0.040 -21.759 -0.037 -21.761 -0.036 -21.763 -0.039 -21.714 -0.116 12.806 0.412 4.129 0.183 44.514 43.151
15.800 -21.151 -0.163 -21.898 -0.078 -21.985 -0.032 -21.985 -0.030 -21.984 -0.030 -21.980 -0.033 -21.881 -0.076 -21.917 -0.033 -21.923 -0.032 -21.936 -0.030 -21.961 -0.036 -21.933 -0.052 -21.755 -0.041 -21.755 -0.038 -21.756 -0.037 -21.758 -0.039 -21.707 -0.117 12.706 0.403 4.159 0.183 44.507 43.133
16.200 -21.133 -0.166 -21.882 -0.078 -21.972 -0.033 -21.972 -0.031 -21.971 -0.031 -21.967 -0.034 -21.873 -0.076 -21.912 -0.033 -21.917 -0.032 -21.930 -0.030 -21.955 -0.036 -21.927 -0.052 -21.751 -0.042 -21.750 -0.039 -21.751 -0.038 -21.752 -0.040 -21.700 -0.119 12.604 0.394 4.189 0.182 44.499 43.114
16.600 -21.115 -0.169 -21.865 -0.079 -21.958 -0.033 -21.958 -0.031 -21.958 -0.032 -21.954 -0.035 -21.863 -0.076 -21.906 -0.033 -21.911 -0.032 -21.925 -0.030 -21.949 -0.036 -21.922 -0.053 -21.747 -0.042 -21.746 -0.040 -21.746 -0.038 -21.747 -0.041 -21.693 -0.120 12.500 0.385 4.221 0.182 44.491 43.096
17.000 -21.095 -0.172 -21.848 -0.080 -21.943 -0.033 -21.944 -0.032 -21.944 -0.032 -21.941 -0.035 -21.853 -0.076 -21.901 -0.033 -21.906 -0.032 -21.919 -0.030 -21.942 -0.037 -21.917 -0.053 -21.742 -0.043 -21.741 -0.040 -21.740 -0.039 -21.741 -0.041 -21.686 -0.121 12.395 0.377 4.253 0.182 44.483 43.076
17.400 -21.076 -0.175 -21.830 -0.081 -21.928 -0.034 -21.930 -0.032 -21.930 -0.033 -21.927 -0.035 -21.842 -0.076 -21.895 -0.033 -21.900 -0.032 -21.913 -0.030 -21.936 -0.037 -21.911 -0.054 -21.737 -0.043 -21.736 -0.041 -21.735 -0.040 -21.735 -0.042 -21.678 -0.121 12.290 0.368 4.286 0.182 44.475 43.056
17.800 -21.056 -0.177 -21.812 -0.082 -21.912 -0.034 -21.915 -0.033 -21.915 -0.033 -21.912 -0.035 -21.831 -0.076 -21.889 -0.033 -21.894 -0.032 -21.907 -0.030 -21.930 -0.037 -21.907 -0.054 -21.733 -0.044 -21.730 -0.041 -21.729 -0.040 -21.729 -0.042 -21.670 -0.122 12.186 0.359 4.320 0.182 44.467 43.035
18.200 -21.035 -0.180 -21.793 -0.082 -21.896 -0.034 -21.899 -0.033 -21.899 -0.033 -21.897 -0.035 -21.819 -0.076 -21.882 -0.033 -21.887 -0.032 -21.900 -0.030 -21.924 -0.037 -21.902 -0.055 -21.727 -0.044 -21.725 -0.041 -21.723 -0.040 -21.722 -0.043 -21.662 -0.122 12.081 0.350 4.354 0.181 44.459 43.014
18.600 -21.014 -0.182 -21.773 -0.083 -21.879 -0.034 -21.883 -0.032 -21.883 -0.033 -21.881 -0.035 -21.807 -0.075 -21.876 -0.033 -21.881 -0.032 -21.894 -0.030 -21.918 -0.037 -21.898 -0.055 -21.722 -0.044 -21.719 -0.041 -21.716 -0.040 -21.715 -0.043 -21.654 -0.123 11.976 0.341 4.388 0.181 44.451 42.991
19.000 -20.992 -0.184 -21.753 -0.083 -21.862 -0.034 -21.866 -0.032 -21.866 -0.032 -21.865 -0.035 -21.794 -0.075 -21.869 -0.032 -21.874 -0.031 -21.887 -0.030 -21.912 -0.038 -21.893 -0.056 -21.717 -0.044 -21.714 -0.041 -21.710 -0.040 -21.709 -0.043 -21.645 -0.123 11.871 0.332 4.424 0.181 44.442 42.967
19.400 -20.971 -0.187 -21.732 -0.084 -21.844 -0.033 -21.849 -0.032 -21.849 -0.032 -21.848 -0.034 -21.780 -0.074 -21.861 -0.032 -21.867 -0.031 -21.880 -0.030 -21.906 -0.038 -21.889 -0.056 -21.711 -0.044 -21.708 -0.041 -21.703 -0.040 -21.702 -0.043 -21.637 -0.123 11.764 0.322 4.460 0.180 44.434 42.943
19.800 -20.948 -0.189 -21.711 -0.085 -21.825 -0.033 -21.831 -0.031 -21.831 -0.031 -21.830 -0.034 -21.765 -0.073 -21.854 -0.032 -21.859 -0.031 -21.872 -0.030 -21.899 -0.038 -21.885 -0.057 -21.706 -0.044 -21.702 -0.041 -21.697 -0.040 -21.694 -0.043 -21.628 -0.123 11.655 0.313 4.498 0.180 44.425 42.917
20.200 -20.925 -0.191 -21.689 -0.085 -21.806 -0.033 -21.812 -0.031 -21.812 -0.031 -21.812 -0.033 -21.750 -0.072 -21.845 -0.033 -21.851 -0.031 -21.865 -0.030 -21.893 -0.038 -21.881 -0.057 -21.700 -0.044 -21.696 -0.041 -21.690 -0.040 -21.687 -0.043 -21.618 -0.122 11.543 0.305 4.538 0.180 44.416 42.891
20.600 -20.902 -0.193 -21.666 -0.086 -21.786 -0.033 -21.792 -0.030 -21.793 -0.030 -21.793 -0.032 -21.735 -0.071 -21.837 -0.033 -21.842 -0.032 -21.856 -0.030 -21.886 -0.038 -21.877 -0.057 -21.694 -0.044 -21.689 -0.041 -21.683 -0.040 -21.679 -0.043 -21.609 -0.122 11.398 0.295 4.599 0.181 44.405 42.860
21.000 -20.879 -0.194 -21.643 -0.087 -21.765 -0.033 -21.772 -0.030 -21.773 -0.030 -21.773 -0.032 -21.719 -0.070 -21.828 -0.033 -21.833 -0.032 -21.848 -0.030 -21.879 -0.038 -21.873 -0.058 -21.688 -0.044 -21.683 -0.041 -21.675 -0.040 -21.672 -0.043 -21.599 -0.122 11.301 0.289 4.630 0.182 44.397 42.836
21.400 -20.855 -0.196 -21.619 -0.087 -21.744 -0.033 -21.751 -0.029 -21.752 -0.029 -21.753 -0.031 -21.702 -0.069 -21.819 -0.034 -21.824 -0.033 -21.839 -0.031 -21.872 -0.038 -21.868 -0.058 -21.682 -0.044 -21.676 -0.041 -21.668 -0.040 -21.664 -0.043 -21.589 -0.122 11.151 0.281 4.697 0.184 44.386 42.806
21.800 -20.830 -0.198 -21.595 -0.088 -21.722 -0.033 -21.729 -0.029 -21.730 -0.029 -21.732 -0.031 -21.685 -0.068 -21.809 -0.035 -21.815 -0.034 -21.830 -0.032 -21.865 -0.038 -21.864 -0.058 -21.675 -0.045 -21.669 -0.042 -21.660 -0.041 -21.656 -0.043 -21.579 -0.122 11.020 0.275 4.752 0.187 44.375 42.780
22.200 -20.806 -0.199 -21.570 -0.089 -21.699 -0.034 -21.707 -0.029 -21.708 -0.029 -21.710 -0.031 -21.667 -0.067 -21.800 -0.036 -21.805 -0.035 -21.821 -0.033 -21.858 -0.039 -21.859 -0.058 -21.668 -0.045 -21.662 -0.043 -21.652 -0.041 -21.647 -0.044 -21.569 -0.122 10.884 0.271 4.812 0.191 44.365 42.756
22.600 -20.781 -0.201 -21.544 -0.089 -21.675 -0.035 -21.684 -0.030 -21.685 -0.030 -21.687 -0.031 -21.648 -0.065 -21.790 -0.037 -21.796 -0.036 -21.812 -0.034 -21.851 -0.039 -21.855 -0.058 -21.661 -0.046 -21.654 -0.043 -21.644 -0.042 -21.638 -0.045 -21.558 -0.123 10.745 0.269 4.877 0.197 44.354 42.735
23.000 -20.755 -0.202 -21.518 -0.090 -21.651 -0.036 -21.660 -0.031 -21.661 -0.031 -21.664 -0.031 -21.630 -0.064 -21.780 -0.039 -21.786 -0.037 -21.803 -0.035 -21.843 -0.040 -21.849 -0.058 -21.653 -0.047 -21.646 -0.045 -21.635 -0.044 -21.629 -0.046 -21.548 -0.123 10.602 0.268 4.947 0.204 44.343 42.716
23.400 -20.730 -0.203 -21.492 -0.091 -21.626 -0.037 -21.636 -0.032 -21.637 -0.032 -21.640 -0.032 -21.611 -0.063 -21.770 -0.040 -21.776 -0.039 -21.794 -0.036 -21.835 -0.040 -21.844 -0.058 -21.646 -0.049 -21.638 -0.046 -21.626 -0.045 -21.620 -0.048 -21.537 -0.124 10.458 0.267 5.021 0.212 44.332 42.699
23.800 -20.704 -0.204 -21.465 -0.092 -21.600 -0.039 -21.611 -0.034 -21.612 -0.033 -21.615 -0.033 -21.591 -0.062 -21.760 -0.042 -21.766 -0.040 -21.784 -0.038 -21.827 -0.041 -21.838 -0.058 -21.637 -0.050 -21.630 -0.048 -21.617 -0.047 -21.610 -0.050 -21.526 -0.124 10.314 0.268 5.098 0.222 44.321 42.683
24.200 -20.677 -0.205 -21.438 -0.092 -21.574 -0.040 -21.585 -0.035 -21.587 -0.035 -21.591 -0.034 -21.571 -0.061 -21.750 -0.043 -21.756 -0.042 -21.775 -0.040 -21.819 -0.041 -21.832 -0.058 -21.629 -0.052 -21.621 -0.050 -21.608 -0.049 -21.600 -0.052 -21.514 -0.126 10.171 0.269 5.178 0.232 44.311 42.669
24.600 -20.651 -0.206 -21.410 -0.093 -21.548 -0.042 -21.560 -0.037 -21.561 -0.036 -21.565 -0.036 -21.551 -0.060 -21.739 -0.045 -21.746 -0.044 -21.765 -0.041 -21.810 -0.042 -21.825 -0.058 -21.620 -0.054 -21.612 -0.052 -21.598 -0.051 -21.590 -0.054 -21.503 -0.127 10.062 0.273 5.231 0.243 44.301 42.661
25.000 -20.624 -0.207 -21.381 -0.094 -21.522 -0.044 -21.533 -0.039 -21.535 -0.038 -21.540 -0.037 -21.531 -0.059 -21.728 -0.047 -21.735 -0.045 -21.754 -0.043 -21.801 -0.043 -21.818 -0.058 -21.611 -0.056 -21.602 -0.054 -21.588 -0.054 -21.580 -0.057 -21.491 -0.129 9.894 0.273 5.341 0.255 44.290 42.644
25.400 -20.597 -0.208 -21.353 -0.095 -21.495 -0.046 -21.507 -0.041 -21.509 -0.040 -21.514 -0.039 -21.511 -0.059 -21.717 -0.048 -21.724 -0.047 -21.744 -0.044 -21.791 -0.043 -21.810 -0.058 -21.601 -0.058 -21.592 -0.056 -21.577 -0.056 -21.569 -0.059 -21.480 -0.131 9.791 0.276 5.395 0.266 44.280 42.636
25.800 -20.570 -0.209 -21.324 -0.095 -21.467 -0.048 -21.480 -0.043 -21.482 -0.042 -21.488 -0.041 -21.490 -0.059 -21.705 -0.050 -21.712 -0.049 -21.733 -0.046 -21.782 -0.044 -21.802 -0.058 -21.591 -0.060 -21.582 -0.059 -21.567 -0.059 -21.558 -0.062 -21.468 -0.133 9.670 0.278 5.468 0.277 44.270 42.625
26.200 -20.543 -0.210 -21.295 -0.096 -21.440 -0.049 -21.454 -0.045 -21.455 -0.044 -21.462 -0.043 -21.469 -0.059 -21.693 -0.051 -21.701 -0.050 -21.721 -0.047 -21.771 -0.044 -21.793 -0.058 -21.581 -0.062 -21.572 -0.061 -21.556 -0.061 -21.547 -0.064 -21.456 -0.136 9.549 0.279 5.545 0.289 44.260 42.614
26.600 -20.515 -0.211 -21.265 -0.097 -21.412 -0.051 -21.427 -0.046 -21.428 -0.046 -21.436 -0.044 -21.449 -0.059 -21.681 -0.053 -21.688 -0.052 -21.709 -0.048 -21.760 -0.045 -21.784 -0.058 -21.570 -0.064 -21.561 -0.063 -21.544 -0.064 -21.535 -0.067 -21.443 -0.138 9.431 0.280 5.623 0.300 44.251 42.601
27.000 -20.488 -0.212 -21.235 -0.097 -21.384 -0.053 -21.399 -0.048 -21.401 -0.048 -21.409 -0.046 -21.428 -0.060 -21.668 -0.054 -21.675 -0.053 -21.697 -0.049 -21.749 -0.045 -21.773 -0.058 -21.559 -0.066 -21.549 -0.065 -21.533 -0.066 -21.523 -0.069 -21.431 -0.141 9.318 0.279 5.697 0.310 44.242 42.589
27.400 -20.460 -0.213 -21.206 -0.098 -21.356 -0.054 -21.372 -0.050 -21.374 -0.049 -21.383 -0.048 -21.407 -0.061 -21.654 -0.055 -21.662 -0.054 -21.684 -0.050 -21.736 -0.046 -21.762 -0.058 -21.548 -0.067 -21.538 -0.067 -21.521 -0.068 -21.511 -0.071 -21.419 -0.144 9.212 0.279 5.769 0.320 44.232 42.577
27.800 -20.432 -0.214 -21.176 -0.099 -21.328 -0.056 -21.344 -0.051 -21.347 -0.051 -21.356 -0.049 -21.386 -0.062 -21.640 -0.056 -21.648 -0.055 -21.670 -0.051 -21.724 -0.046 -21.751 -0.059 -21.536 -0.069 -21.526 -0.069 -21.508 -0.070 -21.499 -0.073 -21.406 -0.147 9.111 0.278 5.836 0.329 44.223 42.566
28.200 -20.404 -0.215 -21.145 -0.099 -21.299 -0.057 -21.317 -0.053 -21.319 -0.052 -21.329 -0.051 -21.365 -0.063 -21.626 -0.057 -21.634 -0.056 -21.656 -0.052 -21.711 -0.047 -21.738 -0.059 -21.524 -0.071 -21.514 -0.070 -21.496 -0.072 -21.486 -0.075 -21.393 -0.150 9.015 0.276 5.900 0.338 44.214 42.554
28.600 -20.376 -0.216 -21.115 -0.100 -21.271 -0.058 -21.289 -0.054 -21.291 -0.054 -21.302 -0.052 -21.343 -0.064 -21.611 -0.058 -21.619 -0.057 -21.642 -0.053 -21.697 -0.047 -21.725 -0.060 -21.512 -0.072 -21.501 -0.072 -21.483 -0.074 -21.473 -0.077 -21.381 -0.153 8.924 0.275 5.959 0.345 44.206 42.544
29.000 -20.348 -0.217 -21.085 -0.101 -21.242 -0.060 -21.261 -0.056 -21.264 -0.055 -21.275 -0.054 -21.322 -0.066 -21.596 -0.059 -21.604 -0.057 -21.627 -0.053 -21.682 -0.047 -21.712 -0.061 -21.499 -0.073 -21.489 -0.073 -21.470 -0.075 -21.460 -0.079 -21.368 -0.156 8.839 0.273 6.014 0.352 44.197 42.533
29.400 -20.320 -0.218 -21.054 -0.101 -21.214 -0.061 -21.233 -0.057 -21.236 -0.056 -21.247 -0.055 -21.301 -0.068 -21.580 -0.059 -21.588 -0.058 -21.611 -0.054 -21.667 -0.048 -21.697 -0.061 -21.486 -0.074 -21.476 -0.074 -21.457 -0.077 -21.446 -0.080 -21.355 -0.160 8.759 0.271 6.064 0.358 44.188 42.523
29.800 -20.292 -0.219 -21.024 -0.102 -21.185 -0.062 -21.205 -0.058 -21.208 -0.058 -21.220 -0.057 -21.279 -0.069 -21.564 -0.060 -21.572 -0.058 -21.595 -0.054 -21.651 -0.048 -21.683 -0.062 -21.473 -0.075 -21.462 -0.075 -21.444 -0.078 -21.433 -0.082 -21.342 -0.163 8.683 0.268 6.109 0.363 44.179 42.513
30.200 -20.264 -0.220 -20.994 -0.102 -21.156 -0.063 -21.177 -0.059 -21.180 -0.059 -21.193 -0.058 -21.257 -0.071 -21.547 -0.060 -21.556 -0.059 -21.579 -0.055 -21.635 -0.049 -21.667 -0.063 -21.460 -0.075 -21.449 -0.076 -21.430 -0.079 -21.419 -0.083 -21.328 -0.166 8.612 0.266 6.149 0.367 44.171 42.503
30.600 -20.236 -0.221 -20.964 -0.103 -21.128 -0.064 -21.149 -0.060 -21.152 -0.060 -21.166 -0.059 -21.236 -0.073 -21.530 -0.061 -21.538 -0.059 -21.562 -0.055 -21.618 -0.049 -21.651 -0.064 -21.446 -0.076 -21.435 -0.076 -21.416 -0.080 -21.405 -0.084 -21.315 -0.169 8.545 0.263 6.184 0.370 44.162 42.494
31.000 -20.208 -0.223 -20.933 -0.103 -21.099 -0.065 -21.121 -0.061 -21.125 -0.061 -21.138 -0.060 -21.214 -0.075 -21.513 -0.061 -21.521 -0.059 -21.544 -0.055 -21.601 -0.050 -21.635 -0.064 -21.432 -0.076 -21.421 -0.077 -21.402 -0.080 -21.391 -0.085 -21.302 -0.172 8.482 0.260 6.215 0.373 44.154 42.484
31.400 -20.180 -0.225 -20.904 -0.104 -21.071 -0.066 -21.094 -0.062 -21.097 -0.062 -21.111 -0.062 -21.192 -0.077 -21.495 -0.061 -21.503 -0.059 -21.526 -0.055 -21.584 -0.050 -21.618 -0.065 -21.418 -0.076 -21.407 -0.077 -21.388 -0.081 -21.377 -0.085 -21.289 -0.175 8.422 0.257 6.242 0.375 44.145 42.475
31.800 -20.152 -0.226 -20.874 -0.104 -21.043 -0.066 -21.066 -0.063 -21.069 -0.063 -21.084 -0.063 -21.170 -0.079 -21.476 -0.061 -21.485 -0.060 -21.508 -0.055 -21.566 -0.051 -21.601 -0.066 -21.403 -0.076 -21.392 -0.077 -21.373 -0.081 -21.363 -0.086 -21.275 -0.178 8.365 0.254 6.265 0.376 44.137 42.465
32.200 -20.124 -0.228 -20.844 -0.105 -21.015 -0.067 -21.038 -0.064 -21.042 -0.064 -21.057 -0.064 -21.148 -0.081 -21.458 -0.061 -21.466 -0.060 -21.490 -0.056 -21.547 -0.051 -21.584 -0.067 -21.389 -0.076 -21.378 -0.077 -21.359 -0.082 -21.348 -0.086 -21.262 -0.181 8.311 0.251 6.285 0.377 44.128 42.456
32.600 -20.097 -0.230 -20.815 -0.105 -20.987 -0.068 -21.011 -0.065 -21.015 -0.065 -21.030 -0.065 -21.126 -0.083 -21.439 -0.061 -21.448 -0.060 -21.471 -0.056 -21.529 -0.052 -21.566 -0.068 -21.374 -0.076 -21.363 -0.077 -21.344 -0.082 -21.334 -0.087 -21.248 -0.184 8.260 0.248 6.301 0.378 44.120 42.446
33.000 -20.069 -0.232 -20.785 -0.106 -20.959 -0.069 -20.984 -0.066 -20.987 -0.066 -21.004 -0.066 -21.103 -0.085 -21.420 -0.061 -21.429 -0.060 -21.452 -0.056 -21.510 -0.052 -21.549 -0.069 -21.359 -0.076 -21.348 -0.077 -21.330 -0.082 -21.319 -0.087 -21.235 -0.187 8.203 0.245 6.327 0.378 44.111 42.436
33.400 -20.042 -0.234 -20.756 -0.107 -20.931 -0.069 -20.956 -0.067 -20.960 -0.067 -20.977 -0.067 -21.081 -0.087 -21.401 -0.061 -21.410 -0.060 -21.433 -0.056 -21.491 -0.053 -21.531 -0.069 -21.345 -0.076 -21.334 -0.077 -21.315 -0.082 -21.304 -0.087 -21.221 -0.189 8.156 0.242 6.338 0.378 44.103 42.427
33.800 -20.015 -0.237 -20.728 -0.107 -20.904 -0.070 -20.930 -0.068 -20.934 -0.068 -20.951 -0.068 -21.059 -0.089 -21.382 -0.061 -21.391 -0.060 -21.414 -0.056 -21.472 -0.053 -21.512 -0.070 -21.330 -0.075 -21.319 -0.077 -21.300 -0.082 -21.290 -0.088 -21.208 -0.192 8.111 0.239 6.347 0.377 44.094 42.417
34.200 -19.988 -0.239 -20.699 -0.108 -20.876 -0.071 -20.903 -0.069 -20.907 -0.069 -20.924 -0.069 -21.036 -0.091 -21.363 -0.061 -21.372 -0.060 -21.395 -0.056 -21.453 -0.054 -21.494 -0.071 -21.315 -0.075 -21.304 -0.077 -21.286 -0.082 -21.275 -0.088 -21.194 -0.194 8.067 0.236 6.356 0.376 44.086 42.408
34.600 -19.961 -0.242 -20.671 -0.109 -20.849 -0.072 -20.876 -0.070 -20.880 -0.070 -20.898 -0.070 -21.014 -0.092 -21.344 -0.061 -21.352 -0.060 -21.376 -0.056 -21.434 -0.055 -21.476 -0.071 -21.300 -0.075 -21.289 -0.077 -21.271 -0.083 -21.261 -0.088 -21.181 -0.196 8.024 0.233 6.363 0.376 44.078 42.398
35.000 -19.934 -0.245 -20.642 -0.110 -20.823 -0.072 -20.850 -0.070 -20.854 -0.070 -20.872 -0.071 -20.991 -0.094 -21.325 -0.061 -21.333 -0.060 -21.356 -0.056 -21.415 -0.055 -21.457 -0.072 -21.285 -0.075 -21.274 -0.077 -21.256 -0.083 -21.246 -0.088 -21.167 -0.199 7.982 0.230 6.371 0.375 44.070 42.389
35.400 -19.907 -0.247 -20.614 -0.110 -20.796 -0.073 -20.824 -0.071 -20.828 -0.071 -20.846 -0.072 -20.969 -0.096 -21.306 -0.061 -21.314 -0.060 -21.338 -0.057 -21.396 -0.056 -21.439 -0.073 -21.270 -0.075 -21.260 -0.077 -21.242 -0.083 -21.232 -0.089 -21.153 -0.201 7.940 0.227 6.378 0.374 44.062 42.381
35.800 -19.881 -0.250 -20.586 -0.111 -20.770 -0.074 -20.797 -0.072 -20.802 -0.072 -20.821 -0.073 -20.946 -0.097 -21.287 -0.061 -21.296 -0.060 -21.319 -0.057 -21.377 -0.057 -21.421 -0.073 -21.255 -0.076 -21.245 -0.077 -21.227 -0.083 -21.217 -0.089 -21.140 -0.202 7.899 0.224 6.387 0.373 44.054 42.372
36.200 -19.854 -0.253 -20.558 -0.112 -20.743 -0.074 -20.772 -0.073 -20.776 -0.073 -20.795 -0.074 -20.923 -0.098 -21.269 -0.062 -21.277 -0.060 -21.300 -0.057 -21.358 -0.057 -21.402 -0.074 -21.240 -0.076 -21.230 -0.077 -21.213 -0.084 -21.203 -0.090 -21.126 -0.204 7.858 0.222 6.395 0.373 44.046 42.364
36.600 -19.828 -0.256 -20.531 -0.113 -20.717 -0.075 -20.746 -0.074 -20.750 -0.074 -20.770 -0.075 -20.901 -0.100 -21.250 -0.062 -21.258 -0.060 -21.281 -0.058 -21.339 -0.058 -21.384 -0.074 -21.226 -0.076 -21.216 -0.078 -21.198 -0.084 -21.188 -0.090 -21.113 -0.206 7.817 0.219 6.404 0.372 44.038 42.356
37.000 -19.802 -0.259 -20.503 -0.114 -20.691 -0.076 -20.720 -0.075 -20.725 -0.075 -20.744 -0.075 -20.878 -0.101 -21.231 -0.062 -21.240 -0.061 -21.263 -0.058 -21.320 -0.058 -21.365 -0.075 -21.211 -0.077 -21.201 -0.078 -21.184 -0.084 -21.174 -0.090 -21.099 -0.207 7.776 0.216 6.414 0.372 44.030 42.349
37.400 -19.776 -0.262 -20.476 -0.115 -20.665 -0.077 -20.694 -0.075 -20.699 -0.075 -20.719 -0.076 -20.855 -0.102 -21.213 -0.062 -21.221 -0.061 -21.244 -0.058 -21.301 -0.059 -21.347 -0.075 -21.197 -0.077 -21.187 -0.079 -21.170 -0.085 -21.160 -0.091 -21.085 -0.208 7.736 0.214 6.424 0.371 44.022 42.342
37.800 -19.750 -0.265 -20.448 -0.115 -20.639 -0.077 -20.669 -0.076 -20.674 -0.076 -20.694 -0.077 -20.832 -0.103 -21.194 -0.062 -21.202 -0.061 -21.225 -0.059 -21.283 -0.060 -21.329 -0.076 -21.182 -0.078 -21.172 -0.079 -21.155 -0.085 -21.146 -0.091 -21.072 -0.209 7.695 0.211 6.435 0.371 44.015 42.335
38.200 -19.724 -0.268 -20.421 -0.116 -20.613 -0.078 -20.643 -0.077 -20.648 -0.077 -20.668 -0.078 -20.808 -0.104 -21.176 -0.063 -21.184 -0.061 -21.207 -0.059 -21.264 -0.060 -21.310 -0.076 -21.168 -0.078 -21.158 -0.080 -21.141 -0.086 -21.132 -0.091 -21.058 -0.210 7.655 0.209 6.447 0.371 44.007 42.328
38.600 -19.698 -0.271 -20.394 -0.117 -20.587 -0.078 -20.618 -0.077 -20.622 -0.077 -20.643 -0.078 -20.785 -0.105 -21.157 -0.063 -21.165 -0.062 -21.188 -0.059 -21.246 -0.060 -21.292 -0.077 -21.153 -0.078 -21.144 -0.080 -21.127 -0.086 -21.118 -0.092 -21.045 -0.211 7.614 0.206 6.460 0.371 44.000 42.322
39.000 -19.672 -0.275 -20.367 -0.118 -20.561 -0.079 -20.592 -0.078 -20.597 -0.078 -20.617 -0.079 -20.762 -0.105 -21.138 -0.063 -21.147 -0.062 -21.170 -0.059 -21.227 -0.061 -21.274 -0.077 -21.139 -0.079 -21.129 -0.080 -21.113 -0.086 -21.104 -0.092 -21.031 -0.212 7.574 0.204 6.475 0.371 43.992 42.316
39.400 -19.647 -0.278 -20.339 -0.119 -20.535 -0.079 -20.566 -0.078 -20.571 -0.078 -20.592 -0.079 -20.738 -0.106 -21.120 -0.063 -21.128 -0.062 -21.151 -0.059 -21.209 -0.061 -21.256 -0.077 -21.124 -0.079 -21.115 -0.081 -21.099 -0.087 -21.090 -0.092 -21.018 -0.212 7.532 0.202 6.491 0.372 43.985 42.310
39.800 -19.622 -0.281 -20.312 -0.120 -20.509 -0.079 -20.540 -0.078 -20.545 -0.078 -20.566 -0.079 -20.714 -0.107 -21.101 -0.063 -21.109 -0.061 -21.133 -0.059 -21.190 -0.061 -21.238 -0.077 -21.110 -0.079 -21.101 -0.081 -21.085 -0.087 -21.076 -0.092 -21.005 -0.212 7.491 0.199 6.509 0.372 43.978 42.305
40.200 -19.596 -0.284 -20.285 -0.120 -20.483 -0.080 -20.514 -0.078 -20.519 -0.079 -20.540 -0.080 -20.690 -0.107 -21.082 -0.062 -21.091 -0.061 -21.114 -0.059 -21.172 -0.061 -21.220 -0.077 -21.096 -0.079 -21.087 -0.081 -21.072 -0.087 -21.063 -0.092 -20.991 -0.213 7.448 0.197 6.529 0.373 43.971 42.301
40.600 -19.571 -0.288 -20.258 -0.121 -20.457 -0.080 -20.488 -0.079 -20.493 -0.079 -20.514 -0.080 -20.666 -0.108 -21.063 -0.062 -21.072 -0.061 -21.096 -0.059 -21.154 -0.061 -21.202 -0.077 -21.082 -0.080 -21.073 -0.081 -21.058 -0.087 -21.049 -0.093 -20.978 -0.213 7.406 0.195 6.551 0.375 43.964 42.296
41.000 -19.546 -0.291 -20.230 -0.122 -20.430 -0.080 -20.462 -0.079 -20.467 -0.079 -20.488 -0.080 -20.642 -0.108 -21.044 -0.062 -21.053 -0.060 -21.077 -0.058 -21.136 -0.060 -21.185 -0.077 -21.068 -0.080 -21.059 -0.081 -21.044 -0.087 -21.036 -0.092 -20.965 -0.212 7.362 0.193 6.576 0.376 43.957 42.292
41.400 -19.521 -0.294 -20.203 -0.123 -20.403 -0.080 -20.435 -0.079 -20.440 -0.079 -20.462 -0.080 -20.618 -0.108 -21.026 -0.061 -21.034 -0.060 -21.058 -0.058 -21.118 -0.060 -21.167 -0.077 -21.054 -0.080 -21.046 -0.081 -21.031 -0.087 -21.023 -0.092 -20.951 -0.212 7.323 0.191 6.592 0.378 43.950 42.288
41.800 -19.497 -0.297 -20.176 -0.123 -20.376 -0.080 -20.408 -0.078 -20.414 -0.078 -20.435 -0.080 -20.593 -0.108 -21.007 -0.061 -21.015 -0.059 -21.040 -0.057 -21.099 -0.060 -21.149 -0.077 -21.040 -0.080 -21.032 -0.081 -21.018 -0.087 -21.009 -0.092 -20.938 -0.212 7.280 0.190 6.618 0.380 43.943 42.285
42.200 -19.472 -0.300 -20.148 -0.124 -20.349 -0.080 -20.381 -0.078 -20.387 -0.078 -20.409 -0.079 -20.568 -0.108 -20.988 -0.060 -20.996 -0.059 -21.021 -0.056 -21.081 -0.059 -21.132 -0.077 -21.027 -0.080 -21.019 -0.081 -21.004 -0.087 -20.996 -0.092 -20.925 -0.211 7.235 0.188 6.649 0.382 43.936 42.282
42.600 -19.447 -0.304 -20.120 -0.125 -20.322 -0.079 -20.354 -0.078 -20.359 -0.078 -20.381 -0.079 -20.544 -0.109 -20.968 -0.059 -20.977 -0.058 -21.002 -0.056 -21.063 -0.058 -21.114 -0.077 -21.013 -0.079 -21.005 -0.081 -20.991 -0.086 -20.983 -0.092 -20.912 -0.211 7.188 0.186 6.683 0.385 43.929 42.280
43.000 -19.423 -0.307 -20.093 -0.125 -20.294 -0.079 -20.327 -0.077 -20.332 -0.077 -20.354 -0.079 -20.519 -0.109 -20.949 -0.058 -20.958 -0.057 -20.983 -0.055 -21.045 -0.057 -21.097 -0.077 -21.000 -0.079 -20.992 -0.081 -20.978 -0.086 -20.971 -0.092 -20.899 -0.210 7.142 0.184 6.721 0.388 43.923 42.278
43.400 -19.399 -0.310 -20.065 -0.126 -20.266 -0.079 -20.299 -0.077 -20.304 -0.077 -20.327 -0.078 -20.494 -0.108 -20.930 -0.057 -20.939 -0.056 -20.964 -0.054 -21.027 -0.057 -21.080 -0.076 -20.986 -0.079 -20.979 -0.080 -20.966 -0.086 -20.958 -0.091 -20.886 -0.209 7.094 0.182 6.760 0.391 43.916 42.276
43.800 -19.375 -0.313 -20.038 -0.127 -20.238 -0.078 -20.271 -0.076 -20.276 -0.076 -20.299 -0.078 -20.468 -0.108 -20.911 -0.056 -20.920 -0.055 -20.945 -0.053 -21.008 -0.056 -21.062 -0.076 -20.973 -0.079 -20.966 -0.080 -20.953 -0.086 -20.945 -0.091 -20.873 -0.208 7.046 0.180 6.802 0.394 43.910 42.275
44.200 -19.351 -0.316 -20.010 -0.127 -20.210 -0.078 -20.243 -0.076 -20.249 -0.076 -20.271 -0.077 -20.443 -0.108 -20.891 -0.055 -20.900 -0.054 -20.926 -0.051 -20.990 -0.055 -21.045 -0.076 -20.960 -0.079 -20.953 -0.080 -20.940 -0.085 -20.933 -0.091 -20.860 -0.207 6.998 0.178 6.847 0.397 43.904 42.273
44.600 -19.327 -0.319 -19.982 -0.128 -20.182 -0.077 -20.215 -0.075 -20.221 -0.075 -20.244 -0.076 -20.418 -0.108 -20.871 -0.054 -20.881 -0.053 -20.907 -0.050 -20.971 -0.054 -21.027 -0.076 -20.947 -0.078 -20.940 -0.080 -20.928 -0.085 -20.920 -0.090 -20.847 -0.206 6.950 0.176 6.893 0.399 43.898 42.272
45.000 -19.303 -0.322 -19.954 -0.129 -20.154 -0.077 -20.187 -0.075 -20.192 -0.075 -20.216 -0.075 -20.392 -0.108 -20.852 -0.053 -20.861 -0.052 -20.888 -0.049 -20.953 -0.053 -21.010 -0.075 -20.934 -0.078 -20.927 -0.079 -20.915 -0.084 -20.908 -0.090 -20.835 -0.204 6.901 0.173 6.941 0.402 43.891 42.271
45.400 -19.280 -0.325 -19.927 -0.129 -20.125 -0.076 -20.159 -0.074 -20.164 -0.074 -20.188 -0.075 -20.367 -0.107 -20.832 -0.052 -20.841 -0.051 -20.868 -0.048 -20.934 -0.052 -20.992 -0.075 -20.921 -0.078 -20.915 -0.079 -20.903 -0.084 -20.896 -0.089 -20.822 -0.203 6.853 0.171 6.990 0.404 43.885 42.270
45.800 -19.256 -0.328 -19.899 -0.130 -20.097 -0.076 -20.130 -0.073 -20.136 -0.073 -20.159 -0.074 -20.341 -0.107 -20.812 -0.052 -20.822 -0.050 -20.849 -0.047 -20.916 -0.051 -20.975 -0.075 -20.909 -0.078 -20.902 -0.079 -20.891 -0.084 -20.884 -0.089 -20.809 -0.201 6.805 0.168 7.040 0.406 43.879 42.268
46.200 -19.233 -0.331 -19.871 -0.131 -20.068 -0.075 -20.102 -0.072 -20.108 -0.072 -20.131 -0.073 -20.315 -0.107 -20.791 -0.051 -20.801 -0.049 -20.829 -0.047 -20.897 -0.050 -20.957 -0.075 -20.896 -0.077 -20.890 -0.078 -20.879 -0.083 -20.872 -0.089 -20.797 -0.200 6.757 0.165 7.089 0.407 43.873 42.267
46.600 -19.210 -0.334 -19.844 -0.131 -20.040 -0.075 -20.074 -0.072 -20.079 -0.071 -20.103 -0.072 -20.290 -0.107 -20.771 -0.051 -20.781 -0.049 -20.809 -0.046 -20.878 -0.050 -20.939 -0.074 -20.884 -0.077 -20.878 -0.078 -20.867 -0.083 -20.860 -0.088 -20.784 -0.198 6.711 0.162 7.138 0.408 43.867 42.265
47.000 -19.187 -0.337 -19.817 -0.132 -20.012 -0.074 -20.046 -0.071 -20.051 -0.071 -20.075 -0.071 -20.264 -0.106 -20.751 -0.050 -20.761 -0.049 -20.789 -0.046 -20.859 -0.049 -20.921 -0.074 -20.871 -0.077 -20.865 -0.078 -20.855 -0.083 -20.848 -0.088 -20.772 -0.196 6.665 0.159 7.185 0.408 43.861 42.262
47.400 -19.164 -0.340 -19.789 -0.133 -19.983 -0.074 -20.017 -0.070 -20.023 -0.070 -20.047 -0.071 -20.239 -0.106 -20.730 -0.050 -20.740 -0.049 -20.769 -0.045 -20.839 -0.049 -20.904 -0.074 -20.859 -0.077 -20.853 -0.078 -20.843 -0.082 -20.837 -0.087 -20.759 -0.195 6.621 0.155 7.230 0.406 43.855 42.260
47.800 -19.142 -0.343 -19.762 -0.133 -19.955 -0.073 -19.989 -0.070 -19.995 -0.069 -20.019 -0.070 -20.213 -0.106 -20.709 -0.050 -20.720 -0.049 -20.748 -0.046 -20.820 -0.048 -20.886 -0.074 -20.847 -0.077 -20.841 -0.077 -20.831 -0.082 -20.825 -0.087 -20.747 -0.193 6.578 0.151 7.271 0.404 43.848 42.256
48.200 -19.119 -0.345 -19.735 -0.134 -19.927 -0.073 -19.962 -0.069 -19.967 -0.069 -19.992 -0.069 -20.188 -0.106 -20.688 -0.051 -20.699 -0.049 -20.728 -0.046 -20.800 -0.048 -20.867 -0.075 -20.835 -0.077 -20.829 -0.077 -20.820 -0.082 -20.814 -0.086 -20.735 -0.191 6.537 0.148 7.309 0.401 43.842 42.252
48.600 -19.097 -0.348 -19.709 -0.135 -19.900 -0.073 -19.934 -0.069 -19.939 -0.068 -19.964 -0.069 -20.163 -0.105 -20.667 -0.051 -20.678 -0.049 -20.707 -0.046 -20.780 -0.049 -20.849 -0.075 -20.822 -0.077 -20.817 -0.077 -20.808 -0.081 -20.802 -0.086 -20.722 -0.190 6.498 0.144 7.343 0.397 43.836 42.246
49.000 -19.075 -0.351 -19.682 -0.136 -19.872 -0.073 -19.906 -0.068 -19.912 -0.068 -19.937 -0.068 -20.138 -0.105 -20.646 -0.052 -20.657 -0.050 -20.686 -0.047 -20.760 -0.049 -20.831 -0.075 -20.810 -0.077 -20.805 -0.077 -20.796 -0.081 -20.791 -0.086 -20.710 -0.188 6.461 0.140 7.372 0.392 43.829 42.240
49.400 -19.053 -0.353 -19.656 -0.136 -19.845 -0.073 -19.879 -0.068 -19.885 -0.068 -19.910 -0.068 -20.113 -0.105 -20.625 -0.052 -20.636 -0.051 -20.665 -0.047 -20.740 -0.050 -20.812 -0.076 -20.798 -0.077 -20.794 -0.077 -20.785 -0.081 -20.779 -0.085 -20.698 -0.186 6.426 0.135 7.396 0.386 43.823 42.232
49.800 -19.032 -0.356 -19.630 -0.137 -19.818 -0.073 -19.853 -0.068 -19.858 -0.068 -19.883 -0.068 -20.089 -0.105 -20.604 -0.053 -20.614 -0.051 -20.644 -0.048 -20.719 -0.051 -20.794 -0.076 -20.786 -0.077 -20.782 -0.077 -20.773 -0.080 -20.768 -0.085 -20.686 -0.185 6.387 0.131 7.433 0.380 43.816 42.225
50.200 -19.010 -0.358 -19.605 -0.138 -19.792 -0.073 -19.826 -0.068 -19.832 -0.068 -19.857 -0.068 -20.064 -0.105 -20.582 -0.054 -20.593 -0.052 -20.623 -0.049 -20.699 -0.052 -20.775 -0.077 -20.774 -0.076 -20.770 -0.077 -20.762 -0.080 -20.757 -0.085 -20.674 -0.183 6.356 0.127 7.447 0.374 43.810 42.215
50.600 -18.989 -0.361 -19.580 -0.139 -19.766 -0.073 -19.800 -0.069 -19.806 -0.068 -19.831 -0.068 -20.040 -0.106 -20.561 -0.054 -20.572 -0.053 -20.602 -0.050 -20.678 -0.054 -20.757 -0.078 -20.762 -0.076 -20.758 -0.076 -20.750 -0.080 -20.745 -0.084 -20.662 -0.182 6.328 0.124 7.458 0.367 43.803 42.205
51.000 -18.968 -0.363 -19.555 -0.140 -19.740 -0.074 -19.774 -0.069 -19.780 -0.069 -19.805 -0.069 -20.017 -0.106 -20.540 -0.055 -20.551 -0.054 -20.581 -0.051 -20.658 -0.055 -20.738 -0.079 -20.750 -0.076 -20.746 -0.076 -20.739 -0.080 -20.734 -0.084 -20.649 -0.180 6.301 0.120 7.465 0.360 43.796 42.195
51.400 -18.947 -0.366 -19.530 -0.141 -19.715 -0.075 -19.749 -0.070 -19.755 -0.069 -19.780 -0.069 -19.993 -0.106 -20.519 -0.056 -20.530 -0.055 -20.560 -0.052 -20.637 -0.056 -20.720 -0.080 -20.738 -0.076 -20.734 -0.076 -20.727 -0.080 -20.723 -0.084 -20.638 -0.179 6.275 0.117 7.469 0.353 43.790 42.184
51.800 -18.927 -0.368 -19.506 -0.142 -19.690 -0.076 -19.725 -0.071 -19.730 -0.070 -19.756 -0.070 -19.970 -0.106 -20.498 -0.057 -20.509 -0.055 -20.539 -0.053 -20.617 -0.058 -20.701 -0.081 -20.726 -0.077 -20.722 -0.076 -20.716 -0.080 -20.711 -0.084 -20.626 -0.178 6.251 0.114 7.470 0.346 43.783 42.172
52.200 -18.907 -0.371 -19.483 -0.143 -19.666 -0.077 -19.700 -0.072 -19.706 -0.071 -19.732 -0.071 -19.948 -0.107 -20.477 -0.058 -20.488 -0.056 -20.518 -0.054 -20.597 -0.059 -20.683 -0.082 -20.713 -0.077 -20.710 -0.077 -20.704 -0.080 -20.700 -0.084 -20.614 -0.177 6.228 0.111 7.469 0.339 43.777 42.161
52.600 -18.886 -0.373 -19.460 -0.144 -19.642 -0.078 -19.677 -0.073 -19.682 -0.072 -19.708 -0.072 -19.925 -0.107 -20.456 -0.059 -20.467 -0.057 -20.497 -0.056 -20.577 -0.061 -20.664 -0.083 -20.701 -0.077 -20.698 -0.077 -20.692 -0.080 -20.688 -0.084 -20.602 -0.176 6.207 0.108 7.465 0.333 43.770 42.150
53.000 -18.867 -0.375 -19.437 -0.145 -19.619 -0.079 -19.654 -0.074 -19.659 -0.074 -19.685 -0.073 -19.903 -0.108 -20.436 -0.060 -20.447 -0.059 -20.477 -0.057 -20.557 -0.062 -20.646 -0.085 -20.689 -0.077 -20.686 -0.077 -20.681 -0.080 -20.677 -0.084 -20.590 -0.175 6.187 0.106 7.458 0.327 43.764 42.139
53.400 -18.847 -0.377 -19.415 -0.146 -19.596 -0.080 -19.631 -0.076 -19.637 -0.075 -19.662 -0.075 -19.882 -0.108 -20.416 -0.061 -20.427 -0.060 -20.457 -0.058 -20.537 -0.064 -20.628 -0.086 -20.677 -0.077 -20.674 -0.077 -20.669 -0.081 -20.665 -0.085 -20.578 -0.174 6.168 0.104 7.450 0.322 43.758 42.128
53.800 -18.828 -0.379 -19.393 -0.147 -19.574 -0.082 -19.609 -0.077 -19.615 -0.077 -19.641 -0.076 -19.861 -0.109 -20.396 -0.062 -20.407 -0.061 -20.437 -0.059 -20.518 -0.065 -20.610 -0.087 -20.664 -0.078 -20.662 -0.078 -20.657 -0.081 -20.654 -0.085 -20.567 -0.173 6.151 0.102 7.439 0.317 43.752 42.118
54.200 -18.809 -0.382 -19.371 -0.148 -19.552 -0.083 -19.587 -0.078 -19.593 -0.078 -19.619 -0.078 -19.840 -0.110 -20.377 -0.063 -20.387 -0.062 -20.418 -0.061 -20.498 -0.067 -20.592 -0.088 -20.652 -0.078 -20.650 -0.078 -20.645 -0.081 -20.642 -0.086 -20.555 -0.173 6.135 0.100 7.427 0.312 43.746 42.108
54.600 -18.790 -0.384 -19.351 -0.149 -19.531 -0.084 -19.566 -0.080 -19.572 -0.079 -19.598 -0.079 -19.820 -0.110 -20.358 -0.064 -20.368 -0.063 -20.399 -0.062 -20.480 -0.068 -20.574 -0.089 -20.640 -0.079 -20.638 -0.079 -20.634 -0.082 -20.630 -0.086 -20.543 -0.172 6.119 0.099 7.412 0.308 43.740 42.098
55.000 -18.771 -0.386 -19.330 -0.150 -19.511 -0.086 -19.546 -0.081 -19.552 -0.081 -19.578 -0.081 -19.801 -0.111 -20.339 -0.065 -20.350 -0.064 -20.380 -0.063 -20.461 -0.070 -20.557 -0.091 -20.627 -0.079 -20.626 -0.079 -20.622 -0.082 -20.619 -0.086 -20.532 -0.172 6.105 0.097 7.396 0.304 43.734 42.090
55.400 -18.753 -0.388 -19.310 -0.151 -19.491 -0.087 -19.526 -0.083 -19.532 -0.082 -19.558 -0.082 -19.781 -0.112 -20.321 -0.067 -20.332 -0.066 -20.362 -0.065 -20.443 -0.071 -20.539 -0.092 -20.615 -0.080 -20.613 -0.080 -20.610 -0.083 -20.607 -0.087 -20.520 -0.172 6.092 0.096 7.378 0.300 43.728 42.081
55.800 -18.735 -0.390 -19.291 -0.151 -19.472 -0.088 -19.507 -0.084 -19.513 -0.084 -19.539 -0.083 -19.763 -0.113 -20.303 -0.068 -20.314 -0.067 -20.344 -0.066 -20.425 -0.073 -20.522 -0.093 -20.602 -0.080 -20.601 -0.080 -20.598 -0.083 -20.595 -0.087 -20.509 -0.171 6.080 0.095 7.358 0.297 43.722 42.073
56.200 -18.717 -0.392 -19.272 -0.152 -19.453 -0.090 -19.488 -0.085 -19.494 -0.085 -19.520 -0.085 -19.744 -0.113 -20.286 -0.069 -20.296 -0.069 -20.327 -0.068 -20.408 -0.074 -20.506 -0.094 -20.590 -0.081 -20.589 -0.081 -20.586 -0.084 -20.583 -0.088 -20.497 -0.171 6.069 0.094 7.336 0.294 43.716 42.066
56.600 -18.700 -0.393 -19.254 -0.153 -19.435 -0.091 -19.470 -0.087 -19.476 -0.086 -19.502 -0.086 -19.726 -0.114 -20.269 -0.071 -20.280 -0.070 -20.310 -0.069 -20.391 -0.075 -20.489 -0.095 -20.577 -0.082 -20.576 -0.081 -20.574 -0.084 -20.572 -0.088 -20.486 -0.171 6.058 0.093 7.313 0.291 43.710 42.059
57.000 -18.683 -0.395 -19.236 -0.154 -19.417 -0.092 -19.453 -0.088 -19.459 -0.088 -19.485 -0.087 -19.709 -0.115 -20.252 -0.072 -20.263 -0.071 -20.293 -0.070 -20.374 -0.077 -20.473 -0.096 -20.565 -0.082 -20.564 -0.082 -20.562 -0.085 -20.560 -0.088 -20.475 -0.171 6.049 0.092 7.289 0.289 43.705 42.052
57.400 -18.666 -0.397 -19.219 -0.155 -19.400 -0.093 -19.436 -0.089 -19.441 -0.089 -19.468 -0.088 -19.692 -0.115 -20.237 -0.073 -20.247 -0.072 -20.277 -0.072 -20.358 -0.078 -20.457 -0.097 -20.552 -0.083 -20.552 -0.082 -20.550 -0.085 -20.548 -0.089 -20.463 -0.171 6.040 0.092 7.264 0.286 43.699 42.046
57.800 -18.649 -0.399 -19.202 -0.156 -19.384 -0.094 -19.419 -0.090 -19.425 -0.090 -19.451 -0.089 -19.676 -0.116 -20.221 -0.074 -20.232 -0.074 -20.262 -0.073 -20.342 -0.079 -20.442 -0.098 -20.540 -0.083 -20.539 -0.083 -20.538 -0.085 -20.536 -0.089 -20.452 -0.171 6.033 0.091 7.238 0.284 43.694 42.039
58.200 -18.633 -0.401 -19.185 -0.156 -19.368 -0.095 -19.403 -0.091 -19.409 -0.091 -19.435 -0.090 -19.660 -0.116 -20.206 -0.076 -20.217 -0.075 -20.247 -0.074 -20.327 -0.080 -20.427 -0.099 -20.527 -0.083 -20.527 -0.083 -20.526 -0.086 -20.525 -0.089 -20.441 -0.171 6.025 0.090 7.211 0.281 43.689 42.033
58.600 -18.617 -0.402 -19.169 -0.157 -19.352 -0.096 -19.387 -0.092 -19.393 -0.091 -19.419 -0.091 -19.645 -0.117 -20.192 -0.077 -20.202 -0.076 -20.232 -0.075 -20.312 -0.081 -20.412 -0.100 -20.515 -0.084 -20.515 -0.083 -20.514 -0.086 -20.513 -0.089 -20.430 -0.171 6.019 0.090 7.183 0.279 43.684 42.026
59.000 -18.601 -0.404 -19.154 -0.158 -19.337 -0.096 -19.372 -0.092 -19.378 -0.092 -19.404 -0.091 -19.630 -0.117 -20.177 -0.077 -20.188 -0.077 -20.218 -0.076 -20.298 -0.082 -20.397 -0.100 -20.502 -0.084 -20.503 -0.084 -20.502 -0.086 -20.501 -0.089 -20.419 -0.171 6.013 0.089 7.155 0.276 43.678 42.020
59.400 -18.585 -0.405 -19.139 -0.158 -19.322 -0.097 -19.358 -0.093 -19.363 -0.092 -19.390 -0.092 -19.615 -0.118 -20.164 -0.078 -20.174 -0.078 -20.204 -0.077 -20.283 -0.083 -20.383 -0.101 -20.490 -0.084 -20.491 -0.084 -20.491 -0.086 -20.490 -0.089 -20.408 -0.172 6.007 0.088 7.127 0.274 43.673 42.013
59.800 -18.570 -0.407 -19.124 -0.159 -19.308 -0.097 -19.343 -0.093 -19.349 -0.093 -19.375 -0.092 -19.601 -0.118 -20.151 -0.079 -20.161 -0.078 -20.191 -0.078 -20.270 -0.083 -20.369 -0.102 -20.478 -0.084 -20.479 -0.084 -20.479 -0.085 -20.478 -0.089 -20.397 -0.172 6.002 0.088 7.098 0.271 43.668 42.006
60.200 -18.555 -0.409 -19.110 -0.159 -19.294 -0.097 -19.330 -0.093 -19.335 -0.093 -19.362 -0.093 -19.588 -0.118 -20.138 -0.080 -20.148 -0.079 -20.178 -0.078 -20.257 -0.084 -20.355 -0.102 -20.466 -0.084 -20.467 -0.083 -20.467 -0.085 -20.467 -0.088 -20.386 -0.172 5.998 0.087 7.069 0.268 43.664 41.999
60.600 -18.540 -0.410 -19.096 -0.159 -19.281 -0.097 -19.316 -0.093 -19.322 -0.093 -19.348 -0.093 -19.575 -0.118 -20.126 -0.080 -20.136 -0.079 -20.165 -0.079 -20.244 -0.084 -20.342 -0.103 -20.454 -0.084 -20.455 -0.083 -20.456 -0.085 -20.455 -0.088 -20.375 -0.173 5.994 0.087 7.040 0.265 43.659 41.992
61.000 -18.525 -0.411 -19.083 -0.160 -19.268 -0.097 -19.303 -0.093 -19.309 -0.093 -19.335 -0.093 -19.562 -0.119 -20.114 -0.080 -20.124 -0.080 -20.153 -0.079 -20.231 -0.085 -20.329 -0.103 -20.442 -0.083 -20.443 -0.083 -20.444 -0.084 -20.444 -0.087 -20.365 -0.174 5.991 0.086 7.011 0.262 43.654 41.985
61.400 -18.511 -0.413 -19.069 -0.160 -19.255 -0.097 -19.291 -0.093 -19.297 -0.093 -19.323 -0.092 -19.550 -0.119 -20.102 -0.080 -20.113 -0.080 -20.142 -0.079 -20.219 -0.085 -20.317 -0.104 -20.430 -0.083 -20.431 -0.082 -20.433 -0.084 -20.433 -0.087 -20.354 -0.175 5.987 0.085 6.982 0.259 43.650 41.977
61.800 -18.497 -0.414 -19.057 -0.160 -19.243 -0.097 -19.279 -0.093 -19.284 -0.093 -19.310 -0.092 -19.538 -0.119 -20.091 -0.081 -20.101 -0.080 -20.130 -0.079 -20.208 -0.085 -20.304 -0.104 -20.418 -0.083 -20.420 -0.082 -20.421 -0.083 -20.421 -0.086 -20.343 -0.176 5.985 0.084 6.952 0.256 43.645 41.970
62.200 -18.483 -0.416 -19.045 -0.160 -19.231 -0.097 -19.267 -0.093 -19.273 -0.092 -19.299 -0.092 -19.527 -0.119 -20.080 -0.081 -20.091 -0.080 -20.120 -0.079 -20.196 -0.086 -20.292 -0.104 -20.407 -0.082 -20.408 -0.081 -20.410 -0.082 -20.410 -0.085 -20.333 -0.177 5.983 0.084 6.922 0.253 43.641 41.962
62.600 -18.469 -0.417 -19.033 -0.161 -19.220 -0.097 -19.255 -0.092 -19.261 -0.092 -19.287 -0.091 -19.516 -0.119 -20.070 -0.080 -20.080 -0.080 -20.109 -0.079 -20.185 -0.086 -20.281 -0.104 -20.395 -0.082 -20.397 -0.081 -20.399 -0.082 -20.399 -0.085 -20.322 -0.178 5.981 0.083 6.892 0.250 43.637 41.954
63.000 -18.456 -0.418 -19.021 -0.161 -19.209 -0.096 -19.244 -0.092 -19.250 -0.091 -19.276 -0.091 -19.505 -0.118 -20.060 -0.080 -20.070 -0.080 -20.099 -0.079 -20.175 -0.086 -20.270 -0.105 -20.384 -0.081 -20.385 -0.080 -20.388 -0.081 -20.388 -0.084 -20.312 -0.180 5.979 0.082 6.862 0.247 43.632 41.947
63.400 -18.443 -0.419 -19.010 -0.161 -19.198 -0.096 -19.234 -0.091 -19.240 -0.091 -19.266 -0.090 -19.495 -0.118 -20.050 -0.080 -20.061 -0.079 -20.089 -0.079 -20.164 -0.085 -20.259 -0.105 -20.373 -0.081 -20.374 -0.079 -20.376 -0.080 -20.377 -0.083 -20.302 -0.181 5.978 0.082 6.832 0.244 43.628 41.939
63.800 -18.430 -0.421 -18.999 -0.161 -19.188 -0.095 -19.223 -0.091 -19.229 -0.090 -19.255 -0.090 -19.486 -0.118 -20.041 -0.079 -20.051 -0.079 -20.080 -0.078 -20.155 -0.085 -20.248 -0.105 -20.361 -0.080 -20.363 -0.079 -20.365 -0.079 -20.366 -0.082 -20.291 -0.183 5.978 0.081 6.801 0.241 43.624 41.932
64.200 -18.417 -0.422 -18.988 -0.161 -19.178 -0.095 -19.213 -0.090 -19.219 -0.090 -19.246 -0.089 -19.477 -0.118 -20.032 -0.079 -20.042 -0.078 -20.071 -0.078 -20.145 -0.085 -20.238 -0.105 -20.350 -0.080 -20.352 -0.078 -20.354 -0.079 -20.355 -0.082 -20.281 -0.185 5.978 0.081 6.769 0.238 43.620 41.925
64.600 -18.405 -0.423 -18.978 -0.161 -19.168 -0.094 -19.204 -0.089 -19.210 -0.089 -19.236 -0.088 -19.468 -0.118 -20.024 -0.078 -20.034 -0.078 -20.062 -0.077 -20.136 -0.084 -20.227 -0.105 -20.339 -0.079 -20.341 -0.078 -20.344 -0.078 -20.344 -0.081 -20.271 -0.188 5.979 0.080 6.737 0.235 43.616 41.918
65.000 -18.392 -0.424 -18.968 -0.161 -19.159 -0.093 -19.195 -0.089 -19.201 -0.088 -19.227 -0.088 -19.460 -0.117 -20.015 -0.078 -20.025 -0.077 -20.053 -0.077 -20.127 -0.084 -20.218 -0.104 -20.328 -0.079 -20.330 -0.077 -20.333 -0.078 -20.334 -0.081 -20.261 -0.190 5.981 0.080 6.703 0.233 43.612 41.911
65.400 -18.380 -0.425 -18.959 -0.160 -19.150 -0.093 -19.186 -0.088 -19.192 -0.088 -19.219 -0.087 -19.452 -0.117 -20.007 -0.077 -20.017 -0.076 -20.045 -0.076 -20.118 -0.083 -20.208 -0.104 -20.317 -0.078 -20.319 -0.077 -20.322 -0.077 -20.323 -0.080 -20.251 -0.193 5.983 0.079 6.670 0.231 43.609 41.905
65.800 -18.368 -0.426 -18.949 -0.160 -19.142 -0.092 -19.178 -0.087 -19.184 -0.087 -19.211 -0.086 -19.444 -0.117 -19.999 -0.076 -20.010 -0.075 -20.037 -0.075 -20.110 -0.083 -20.199 -0.104 -20.307 -0.078 -20.308 -0.076 -20.311 -0.077 -20.312 -0.080 -20.241 -0.196 5.985 0.079 6.635 0.228 43.605 41.899
66.200 -18.357 -0.427 -18.940 -0.160 -19.134 -0.091 -19.170 -0.086 -19.176 -0.086 -19.203 -0.085 -19.437 -0.116 -19.992 -0.075 -20.002 -0.075 -20.030 -0.074 -20.102 -0.082 -20.190 -0.104 -20.296 -0.078 -20.298 -0.076 -20.301 -0.076 -20.302 -0.079 -20.232 -0.199 5.988 0.079 6.601 0.226 43.601 41.894
66.600 -18.345 -0.428 -18.932 -0.160 -19.126 -0.090 -19.163 -0.085 -19.169 -0.085 -19.196 -0.085 -19.430 -0.116 -19.985 -0.074 -19.995 -0.074 -20.022 -0.073 -20.094 -0.081 -20.181 -0.103 -20.286 -0.077 -20.287 -0.076 -20.290 -0.076 -20.291 -0.079 -20.222 -0.203 5.992 0.079 6.566 0.225 43.598 41.889
67.000 -18.334 -0.429 -18.923 -0.160 -19.119 -0.089 -19.155 -0.085 -19.162 -0.084 -19.189 -0.084 -19.423 -0.116 -19.978 -0.073 -19.988 -0.072 -20.015 -0.072 -20.087 -0.080 -20.173 -0.103 -20.276 -0.077 -20.277 -0.075 -20.280 -0.075 -20.281 -0.078 -20.212 -0.206 5.995 0.079 6.532 0.223 43.594 41.884
67.400 -18.323 -0.430 -18.915 -0.160 -19.112 -0.088 -19.149 -0.084 -19.155 -0.083 -19.182 -0.083 -19.417 -0.115 -19.971 -0.072 -19.981 -0.071 -20.008 -0.071 -20.079 -0.079 -20.165 -0.103 -20.265 -0.077 -20.267 -0.075 -20.270 -0.075 -20.271 -0.078 -20.203 -0.210 5.999 0.079 6.497 0.222 43.591 41.881
67.800 -18.312 -0.431 -18.907 -0.160 -19.105 -0.088 -19.142 -0.083 -19.148 -0.082 -19.176 -0.082 -19.411 -0.115 -19.965 -0.071 -19.975 -0.070 -20.002 -0.070 -20.072 -0.078 -20.157 -0.102 -20.256 -0.077 -20.257 -0.075 -20.260 -0.075 -20.261 -0.077 -20.193 -0.214 6.004 0.079 6.463 0.221 43.587 41.877
68.200 -18.301 -0.432 -18.900 -0.160 -19.099 -0.087 -19.136 -0.082 -19.142 -0.081 -19.170 -0.081 -19.405 -0.115 -19.959 -0.070 -19.969 -0.069 -19.996 -0.068 -20.066 -0.077 -20.149 -0.102 -20.246 -0.077 -20.247 -0.075 -20.250 -0.074 -20.251 -0.077 -20.184 -0.218 6.008 0.079 6.429 0.221 43.584 41.875
68.600 -18.291 -0.433 -18.892 -0.160 -19.092 -0.086 -19.130 -0.081 -19.136 -0.080 -19.164 -0.080 -19.400 -0.114 -19.953 -0.068 -19.963 -0.068 -19.990 -0.067 -20.059 -0.076 -20.141 -0.102 -20.236 -0.077 -20.238 -0.075 -20.240 -0.074 -20.242 -0.077 -20.174 -0.221 6.013 0.079 6.396 0.220 43.581 41.873
69.000 -18.280 -0.434 -18.885 -0.159 -19.087 -0.085 -19.124 -0.080 -19.131 -0.080 -19.158 -0.079 -19.395 -0.114 -19.947 -0.067 -19.957 -0.066 -19.984 -0.066 -20.053 -0.075 -20.134 -0.101 -20.227 -0.077 -20.229 -0.075 -20.231 -0.074 -20.232 -0.076 -20.165 -0.225 6.018 0.080 6.363 0.220 43.578 41.871
69.400 -18.270 -0.435 -18.879 -0.159 -19.081 -0.084 -19.119 -0.079 -19.125 -0.079 -19.153 -0.078 -19.390 -0.114 -19.941 -0.066 -19.951 -0.065 -19.978 -0.064 -20.046 -0.074 -20.126 -0.101 -20.218 -0.077 -20.219 -0.075 -20.222 -0.074 -20.223 -0.076 -20.156 -0.229 6.024 0.080 6.330 0.220 43.575 41.870
69.800 -18.260 -0.436 -18.872 -0.159 -19.076 -0.084 -19.114 -0.078 -19.120 -0.078 -19.148 -0.077 -19.385 -0.114 -19.936 -0.064 -19.946 -0.064 -19.972 -0.063 -20.040 -0.073 -20.119 -0.101 -20.209 -0.077 -20.210 -0.075 -20.213 -0.073 -20.214 -0.076 -20.147 -0.234 6.029 0.081 6.298 0.221 43.572 41.869
70.200 -18.250 -0.436 -18.865 -0.159 -19.071 -0.083 -19.109 -0.078 -19.116 -0.077 -19.144 -0.077 -19.380 -0.113 -19.931 -0.063 -19.941 -0.062 -19.967 -0.061 -20.034 -0.072 -20.112 -0.100 -20.200 -0.077 -20.202 -0.075 -20.204 -0.073 -20.205 -0.075 -20.138 -0.238 6.035 0.082 6.265 0.221 43.570 41.869
70.600 -18.240 -0.437 -18.859 -0.159 -19.066 -0.083 -19.105 -0.077 -19.111 -0.077 -19.139 -0.076 -19.376 -0.113 -19.926 -0.062 -19.935 -0.061 -19.962 -0.060 -20.028 -0.071 -20.105 -0.100 -20.192 -0.078 -20.193 -0.075 -20.195 -0.073 -20.196 -0.075 -20.129 -0.242 6.042 0.083 6.233 0.222 43.567 41.868
71.000 -18.230 -0.438 -18.853 -0.160 -19.062 -0.082 -19.101 -0.076 -19.107 -0.076 -19.135 -0.076 -19.372 -0.113 -19.921 -0.061 -19.930 -0.060 -19.956 -0.059 -20.023 -0.070 -20.098 -0.100 -20.183 -0.078 -20.185 -0.075 -20.186 -0.073 -20.187 -0.075 -20.120 -0.246 6.048 0.083 6.201 0.223 43.564 41.868
71.400 -18.221 -0.439 -18.847 -0.160 -19.058 -0.082 -19.097 -0.076 -19.103 -0.076 -19.132 -0.075 -19.368 -0.113 -19.916 -0.060 -19.925 -0.058 -19.951 -0.058 -20.017 -0.069 -20.092 -0.099 -20.175 -0.078 -20.176 -0.075 -20.178 -0.073 -20.179 -0.075 -20.111 -0.250 6.055 0.084 6.168 0.224 43.562 41.867
71.800 -18.211 -0.439 -18.841 -0.160 -19.054 -0.082 -19.093 -0.076 -19.099 -0.076 -19.128 -0.075 -19.364 -0.113 -19.910 -0.059 -19.920 -0.057 -19.946 -0.056 -20.011 -0.068 -20.085 -0.099 -20.167 -0.079 -20.168 -0.076 -20.170 -0.074 -20.171 -0.075 -20.102 -0.255 6.062 0.085 6.135 0.224 43.559 41.867
72.200 -18.202 -0.440 -18.836 -0.160 -19.050 -0.082 -19.089 -0.076 -19.096 -0.076 -19.124 -0.075 -19.360 -0.113 -19.905 -0.058 -19.915 -0.057 -19.941 -0.055 -20.005 -0.068 -20.078 -0.099 -20.159 -0.079 -20.160 -0.076 -20.162 -0.074 -20.162 -0.075 -20.093 -0.259 6.070 0.086 6.102 0.225 43.556 41.866
72.600 -18.193 -0.441 -18.830 -0.161 -19.046 -0.082 -19.086 -0.076 -19.092 -0.076 -19.121 -0.075 -19.356 -0.114 -19.900 -0.057 -19.910 -0.056 -19.936 -0.055 -20.000 -0.067 -20.072 -0.099 -20.151 -0.080 -20.152 -0.077 -20.154 -0.074 -20.154 -0.076 -20.085 -0.263 6.078 0.087 6.068 0.226 43.554 41.864
73.000 -18.184 -0.442 -18.825 -0.161 -19.042 -0.082 -19.082 -0.077 -19.089 -0.076 -19.118 -0.076 -19.352 -0.114 -19.895 -0.057 -19.905 -0.055 -19.930 -0.054 -19.994 -0.066 -20.065 -0.099 -20.143 -0.081 -20.144 -0.077 -20.146 -0.075 -20.146 -0.076 -20.076 -0.267 6.087 0.088 6.032 0.226 43.551 41.863
73.400 -18.175 -0.442 -18.819 -0.162 -19.039 -0.083 -19.079 -0.077 -19.085 -0.077 -19.114 -0.077 -19.349 -0.114 -19.890 -0.056 -19.899 -0.055 -19.925 -0.053 -19.988 -0.066 -20.058 -0.099 -20.135 -0.081 -20.136 -0.078 -20.138 -0.075 -20.138 -0.076 -20.067 -0.272 6.095 0.089 5.996 0.226 43.549 41.861
73.800 -18.166 -0.443 -18.814 -0.162 -19.035 -0.084 -19.075 -0.078 -19.082 -0.078 -19.111 -0.077 -19.345 -0.115 -19.884 -0.056 -19.894 -0.055 -19.919 -0.053 -19.982 -0.066 -20.052 -0.099 -20.127 -0.082 -20.128 -0.079 -20.130 -0.076 -20.130 -0.077 -20.059 -0.276 6.105 0.090 5.959 0.226 43.546 41.858
74.200 -18.157 -0.444 -18.808 -0.163 -19.031 -0.085 -19.072 -0.079 -19.078 -0.079 -19.107 -0.079 -19.341 -0.115 -19.879 -0.056 -19.888 -0.055 -19.914 -0.053 -19.976 -0.066 -20.045 -0.099 -20.120 -0.083 -20.120 -0.080 -20.122 -0.077 -20.122 -0.078 -20.050 -0.280 6.114 0.091 5.921 0.226 43.543 41.854
74.600 -18.148 -0.444 -18.803 -0.163 -19.027 -0.086 -19.068 -0.081 -19.075 -0.080 -19.104 -0.080 -19.338 -0.115 -19.873 -0.056 -19.882 -0.055 -19.908 -0.053 -19.970 -0.066 -20.039 -0.099 -20.112 -0.083 -20.113 -0.080 -20.114 -0.077 -20.114 -0.078 -20.042 -0.284 6.124 0.092 5.882 0.226 43.540 41.850
75.000 -18.140 -0.445 -18.797 -0.164 -19.023 -0.088 -19.064 -0.082 -19.071 -0.082 -19.100 -0.081 -19.334 -0.116 -19.867 -0.057 -19.876 -0.055 -19.902 -0.054 -19.963 -0.066 -20.032 -0.099 -20.104 -0.084 -20.105 -0.081 -20.106 -0.078 -20.106 -0.079 -20.034 -0.288 6.135 0.092 5.842 0.225 43.537 41.846
75.400 -18.131 -0.446 -18.792 -0.165 -19.019 -0.089 -19.060 -0.084 -19.067 -0.083 -19.097 -0.083 -19.330 -0.117 -19.861 -0.057 -19.870 -0.056 -19.895 -0.054 -19.957 -0.066 -20.026 -0.099 -20.096 -0.085 -20.097 -0.082 -20.098 -0.079 -20.098 -0.080 -20.026 -0.292 6.145 0.093 5.802 0.224 43.534 41.841
75.800 -18.122 -0.446 -18.787 -0.166 -19.015 -0.091 -19.056 -0.085 -19.063 -0.085 -19.093 -0.084 -19.326 -0.117 -19.855 -0.058 -19.864 -0.057 -19.889 -0.055 -19.951 -0.067 -20.019 -0.099 -20.089 -0.086 -20.089 -0.083 -20.090 -0.080 -20.090 -0.081 -20.017 -0.296 6.156 0.094 5.761 0.222 43.531 41.836
76.200 -18.114 -0.447 -18.781 -0.167 -19.010 -0.092 -19.052 -0.087 -19.059 -0.087 -19.089 -0.086 -19.322 -0.118 -19.848 -0.059 -19.858 -0.058 -19.883 -0.056 -19.944 -0.067 -20.012 -0.099 -20.081 -0.086 -20.081 -0.083 -20.082 -0.081 -20.082 -0.081 -20.009 -0.300 6.167 0.094 5.719 0.221 43.528 41.830
76.600 -18.106 -0.447 -18.776 -0.168 -19.006 -0.094 -19.048 -0.089 -19.055 -0.089 -19.084 -0.088 -19.318 -0.119 -19.842 -0.060 -19.851 -0.059 -19.876 -0.057 -19.937 -0.068 -20.006 -0.100 -20.073 -0.087 -20.074 -0.084 -20.074 -0.081 -20.074 -0.082 -20.001 -0.304 6.178 0.094 5.677 0.219 43.524 41.824
77.000 -18.097 -0.448 -18.770 -0.169 -19.001 -0.096 -19.043 -0.091 -19.050 -0.091 -19.080 -0.090 -19.314 -0.119 -19.835 -0.061 -19.845 -0.060 -19.869 -0.058 -19.931 -0.068 -19.999 -0.100 -20.065 -0.088 -20.066 -0.085 -20.066 -0.082 -20.066 -0.083 -19.993 -0.308 6.188 0.095 5.636 0.218 43.521 41.817
77.400 -18.089 -0.448 -18.764 -0.170 -18.996 -0.098 -19.039 -0.093 -19.045 -0.093 -19.075 -0.092 -19.310 -0.120 -19.829 -0.062 -19.838 -0.061 -19.863 -0.059 -19.924 -0.069 -19.992 -0.100 -20.058 -0.088 -20.058 -0.085 -20.058 -0.082 -20.058 -0.083 -19.985 -0.312 6.199 0.095 5.595 0.216 43.518 41.810
77.800 -18.081 -0.449 -18.759 -0.171 -18.991 -0.100 -19.034 -0.095 -19.041 -0.095 -19.071 -0.094 -19.306 -0.121 -19.822 -0.063 -19.831 -0.062 -19.856 -0.060 -19.917 -0.070 -19.986 -0.101 -20.050 -0.088 -20.050 -0.086 -20.050 -0.083 -20.050 -0.084 -19.978 -0.315 6.210 0.095 5.554 0.214 43.514 41.804
78.200 -18.073 -0.449 -18.753 -0.172 -18.986 -0.102 -19.029 -0.097 -19.036 -0.097 -19.066 -0.096 -19.301 -0.122 -19.815 -0.064 -19.824 -0.063 -19.849 -0.061 -19.911 -0.071 -19.979 -0.101 -20.042 -0.089 -20.042 -0.086 -20.042 -0.083 -20.042 -0.084 -19.970 -0.319 6.220 0.096 5.514 0.212 43.511 41.797
78.600 -18.065 -0.450 -18.747 -0.173 -18.981 -0.104 -19.024 -0.099 -19.031 -0.099 -19.061 -0.098 -19.297 -0.123 -19.809 -0.065 -19.818 -0.064 -19.842 -0.062 -19.904 -0.072 -19.972 -0.101 -20.034 -0.089 -20.034 -0.086 -20.034 -0.083 -20.034 -0.084 -19.962 -0.323 6.230 0.096 5.474 0.210 43.507 41.789
79.000 -18.057 -0.450 -18.741 -0.174 -18.976 -0.106 -19.018 -0.101 -19.025 -0.101 -19.056 -0.100 -19.292 -0.123 -19.802 -0.066 -19.811 -0.065 -19.835 -0.063 -19.897 -0.072 -19.966 -0.102 -20.026 -0.089 -20.027 -0.086 -20.026 -0.084 -20.026 -0.084 -19.955 -0.326 6.240 0.096 5.436 0.208 43.504 41.782
79.400 -18.049 -0.451 -18.735 -0.175 -18.970 -0.108 -19.013 -0.103 -19.020 -0.103 -19.051 -0.101 -19.288 -0.124 -19.795 -0.067 -19.804 -0.066 -19.828 -0.064 -19.890 -0.073 -19.959 -0.102 -20.019 -0.089 -20.019 -0.086 -20.018 -0.083 -20.018 -0.084 -19.947 -0.330 6.250 0.097 5.398 0.206 43.501 41.775
79.800 -18.041 -0.451 -18.729 -0.176 -18.965 -0.110 -19.008 -0.105 -19.015 -0.104 -19.045 -0.103 -19.283 -0.125 -19.788 -0.068 -19.797 -0.067 -19.821 -0.065 -19.883 -0.074 -19.952 -0.103 -20.011 -0.089 -20.011 -0.086 -20.010 -0.083 -20.010 -0.084 -19.940 -0.333 6.259 0.097 5.361 0.205 43.497 41.768
80.200 -18.033 -0.452 -18.723 -0.177 -18.959 -0.111 -19.002 -0.107 -19.009 -0.106 -19.040 -0.105 -19.278 -0.125 -19.781 -0.068 -19.790 -0.067 -19.815 -0.066 -19.877 -0.075 -19.945 -0.103 -20.003 -0.089 -20.003 -0.086 -20.003 -0.083 -20.002 -0.084 -19.932 -0.336 6.268 0.097 5.324 0.203 43.494 41.761
80.600 -18.026 -0.452 -18.717 -0.178 -18.954 -0.113 -18.997 -0.108 -19.004 -0.108 -19.034 -0.106 -19.273 -0.126 -19.774 -0.069 -19.783 -0.068 -19.808 -0.066 -19.870 -0.075 -19.939 -0.103 -19.996 -0.088 -19.995 -0.085 -19.995 -0.083 -19.994 -0.084 -19.925 -0.340 6.278 0.098 5.289 0.201 43.491 41.754
81.000 -18.018 -0.452 -18.711 -0.179 -18.948 -0.114 -18.991 -0.110 -18.998 -0.109 -19.029 -0.108 -19.268 -0.127 -19.768 -0.069 -19.776 -0.068 -19.801 -0.067 -19.863 -0.076 -19.932 -0.104 -19.988 -0.088 -19.988 -0.085 -19.987 -0.082 -19.986 -0.083 -19.918 -0.343 6.286 0.098 5.254 0.200 43.487 41.747
81.400 -18.010 -0.453 -18.705 -0.180 -18.942 -0.116 -18.985 -0.111 -18.992 -0.110 -19.023 -0.109 -19.264 -0.127 -19.761 -0.069 -19.770 -0.068 -19.794 -0.067 -19.857 -0.076 -19.926 -0.104 -19.980 -0.087 -19.980 -0.084 -19.979 -0.081 -19.978 -0.082 -19.911 -0.346 6.295 0.099 5.220 0.199 43.484 41.741
81.800 -18.003 -0.453 -18.699 -0.181 -18.936 -0.117 -18.980 -0.112 -18.987 -0.112 -19.018 -0.110 -19.259 -0.128 -19.754 -0.069 -19.763 -0.068 -19.788 -0.067 -19.850 -0.076 -19.919 -0.104 -19.973 -0.087 -19.973 -0.083 -19.972 -0.081 -19.971 -0.082 -19.903 -0.349 6.303 0.099 5.187 0.198 43.481 41.734
82.200 -17.995 -0.453 -18.693 -0.182 -18.931 -0.118 -18.974 -0.113 -18.981 -0.113 -19.012 -0.111 -19.254 -0.128 -19.748 -0.069 -19.757 -0.068 -19.781 -0.068 -19.844 -0.077 -19.912 -0.104 -19.965 -0.086 -19.965 -0.083 -19.964 -0.080 -19.963 -0.081 -19.896 -0.352 6.312 0.100 5.155 0.196 43.478 41.728
82.600 -17.988 -0.453 -18.687 -0.183 -18.925 -0.119 -18.968 -0.114 -18.975 -0.114 -19.007 -0.112 -19.249 -0.129 -19.741 -0.069 -19.750 -0.068 -19.775 -0.068 -19.838 -0.077 -19.906 -0.105 -19.958 -0.085 -19.958 -0.082 -19.956 -0.079 -19.956 -0.080 -19.890 -0.355 6.320 0.100 5.124 0.195 43.475 41.722
83.000 -17.980 -0.454 -18.681 -0.183 -18.919 -0.120 -18.963 -0.115 -18.970 -0.115 -19.001 -0.113 -19.244 -0.129 -19.735 -0.069 -19.744 -0.068 -19.768 -0.068 -19.831 -0.077 -19.899 -0.105 -19.951 -0.085 -19.950 -0.081 -19.949 -0.078 -19.948 -0.079 -19.883 -0.358 6.327 0.101 5.094 0.195 43.472 41.716
83.400 -17.973 -0.454 -18.675 -0.184 -18.913 -0.121 -18.957 -0.116 -18.964 -0.115 -18.995 -0.114 -19.239 -0.129 -19.729 -0.069 -19.738 -0.068 -19.762 -0.067 -19.825 -0.077 -19.893 -0.105 -19.943 -0.084 -19.943 -0.081 -19.942 -0.077 -19.941 -0.078 -19.876 -0.361 6.335 0.101 5.064 0.194 43.469 41.711
83.800 -17.966 -0.454 -18.669 -0.184 -18.908 -0.121 -18.951 -0.116 -18.959 -0.116 -18.990 -0.114 -19.234 -0.130 -19.723 -0.069 -19.732 -0.068 -19.756 -0.067 -19.819 -0.077 -19.886 -0.105 -19.936 -0.084 -19.936 -0.080 -19.934 -0.076 -19.933 -0.077 -19.869 -0.364 6.342 0.102 5.036 0.193 43.466 41.706
84.200 -17.958 -0.454 -18.664 -0.185 -18.902 -0.122 -18.946 -0.117 -18.953 -0.116 -18.984 -0.115 -19.229 -0.130 -19.717 -0.069 -19.726 -0.068 -19.750 -0.067 -19.813 -0.077 -19.880 -0.106 -19.929 -0.083 -19.928 -0.079 -19.927 -0.076 -19.926 -0.077 -19.863 -0.366 6.348 0.102 5.008 0.193 43.463 41.702
84.600 -17.951 -0.454 -18.658 -0.185 -18.896 -0.122 -18.940 -0.117 -18.947 -0.117 -18.979 -0.115 -19.225 -0.130 -19.712 -0.068 -19.721 -0.068 -19.745 -0.067 -19.807 -0.077 -19.873 -0.106 -19.922 -0.083 -19.921 -0.079 -19.920 -0.075 -19.919 -0.076 -19.856 -0.369 6.355 0.103 4.982 0.192 43.460 41.698
85.000 -17.944 -0.454 -18.652 -0.186 -18.891 -0.123 -18.935 -0.118 -18.942 -0.117 -18.974 -0.115 -19.220 -0.130 -19.707 -0.068 -19.715 -0.068 -19.739 -0.067 -19.801 -0.078 -19.867 -0.106 -19.915 -0.082 -19.914 -0.078 -19.913 -0.074 -19.912 -0.075 -19.850 -0.372 6.361 0.104 4.957 0.192 43.457 41.695
85.400 -17.937 -0.454 -18.647 -0.186 -18.885 -0.123 -18.930 -0.118 -18.937 -0.117 -18.968 -0.115 -19.216 -0.130 -19.701 -0.068 -19.710 -0.067 -19.734 -0.067 -19.795 -0.078 -19.861 -0.106 -19.908 -0.082 -19.907 -0.078 -19.906 -0.074 -19.905 -0.075 -19.844 -0.374 6.367 0.104 4.932 0.192 43.455 41.692
85.800 -17.930 -0.454 -18.641 -0.186 -18.880 -0.123 -18.924 -0.118 -18.932 -0.117 -18.963 -0.116 -19.211 -0.131 -19.696 -0.068 -19.705 -0.067 -19.728 -0.067 -19.789 -0.078 -19.854 -0.106 -19.901 -0.082 -19.901 -0.077 -19.899 -0.073 -19.898 -0.075 -19.837 -0.377 6.372 0.105 4.909 0.192 43.452 41.690
86.200 -17.923 -0.454 -18.636 -0.186 -18.875 -0.123 -18.919 -0.118 -18.927 -0.117 -18.958 -0.116 -19.207 -0.131 -19.691 -0.068 -19.700 -0.067 -19.723 -0.067 -19.783 -0.078 -19.848 -0.107 -19.894 -0.081 -19.894 -0.077 -19.892 -0.073 -19.891 -0.074 -19.831 -0.379 6.378 0.106 4.886 0.192 43.449 41.689
86.600 -17.917 -0.454 -18.630 -0.187 -18.870 -0.123 -18.914 -0.118 -18.922 -0.117 -18.953 -0.116 -19.203 -0.131 -19.687 -0.068 -19.695 -0.067 -19.718 -0.067 -19.777 -0.078 -19.842 -0.107 -19.888 -0.081 -19.887 -0.077 -19.886 -0.073 -19.885 -0.074 -19.825 -0.381 6.383 0.107 4.863 0.192 43.447 41.688
87.000 -17.910 -0.454 -18.625 -0.187 -18.865 -0.123 -18.910 -0.118 -18.917 -0.117 -18.949 -0.116 -19.199 -0.131 -19.682 -0.068 -19.690 -0.067 -19.713 -0.067 -19.772 -0.078 -19.836 -0.107 -19.881 -0.081 -19.880 -0.077 -19.879 -0.073 -19.878 -0.074 -19.820 -0.383 6.388 0.108 4.842 0.192 43.444 41.687
87.400 -17.903 -0.454 -18.620 -0.187 -18.860 -0.123 -18.905 -0.118 -18.912 -0.117 -18.944 -0.115 -19.195 -0.131 -19.678 -0.068 -19.686 -0.067 -19.709 -0.067 -19.767 -0.078 -19.830 -0.107 -19.874 -0.082 -19.874 -0.077 -19.872 -0.073 -19.871 -0.074 -19.814 -0.386 6.393 0.108 4.821 0.193 43.442 41.688
87.800 -17.896 -0.454 -18.615 -0.187 -18.856 -0.123 -18.900 -0.118 -18.908 -0.117 -18.940 -0.115 -19.191 -0.131 -19.673 -0.068 -19.682 -0.068 -19.704 -0.067 -19.762 -0.079 -19.825 -0.108 -19.868 -0.082 -19.867 -0.078 -19.866 -0.073 -19.864 -0.074 -19.808 -0.388 6.398 0.109 4.800 0.193 43.440 41.688
88.200 -17.890 -0.454 -18.611 -0.187 -18.851 -0.123 -18.896 -0.118 -18.903 -0.117 -18.936 -0.115 -19.188 -0.131 -19.669 -0.069 -19.678 -0.068 -19.700 -0.067 -19.757 -0.079 -19.819 -0.108 -19.861 -0.082 -19.860 -0.078 -19.859 -0.074 -19.858 -0.075 -19.803 -0.390 6.403 0.110 4.780 0.194 43.437 41.690
88.600 -17.883 -0.454 -18.606 -0.187 -18.847 -0.123 -18.892 -0.118 -18.899 -0.117 -18.932 -0.115 -19.184 -0.131 -19.666 -0.069 -19.674 -0.068 -19.696 -0.068 -19.752 -0.079 -19.814 -0.108 -19.854 -0.083 -19.854 -0.079 -19.852 -0.074 -19.851 -0.075 -19.797 -0.392 6.408 0.111 4.760 0.195 43.435 41.691
89.000 -17.877 -0.453 -18.602 -0.186 -18.843 -0.123 -18.888 -0.117 -18.895 -0.117 -18.928 -0.115 -19.181 -0.131 -19.662 -0.069 -19.670 -0.069 -19.692 -0.068 -19.747 -0.079 -19.809 -0.108 -19.848 -0.083 -19.847 -0.079 -19.846 -0.075 -19.845 -0.076 -19.792 -0.394 6.413 0.112 4.741 0.196 43.433 41.694
89.400 -17.871 -0.453 -18.598 -0.186 -18.839 -0.122 -18.884 -0.117 -18.892 -0.117 -18.924 -0.115 -19.178 -0.131 -19.658 -0.070 -19.666 -0.069 -19.688 -0.068 -19.743 -0.079 -19.804 -0.108 -19.842 -0.084 -19.841 -0.080 -19.839 -0.075 -19.838 -0.076 -19.787 -0.396 6.418 0.113 4.721 0.197 43.431 41.697
89.800 -17.865 -0.453 -18.594 -0.186 -18.836 -0.122 -18.881 -0.117 -18.888 -0.116 -18.921 -0.115 -19.176 -0.131 -19.655 -0.070 -19.663 -0.069 -19.684 -0.069 -19.739 -0.080 -19.799 -0.109 -19.835 -0.085 -19.834 -0.081 -19.833 -0.076 -19.831 -0.077 -19.782 -0.397 6.423 0.115 4.702 0.198 43.428 41.700
90.200 -17.858 -0.453 -18.590 -0.186 -18.833 -0.122 -18.878 -0.117 -18.885 -0.116 -18.918 -0.115 -19.173 -0.131 -19.652 -0.071 -19.660 -0.070 -19.681 -0.069 -19.735 -0.080 -19.794 -0.109 -19.829 -0.086 -19.828 -0.081 -19.826 -0.077 -19.825 -0.078 -19.777 -0.399 6.428 0.116 4.684 0.199 43.426 41.704
90.600 -17.852 -0.452 -18.586 -0.185 -18.829 -0.121 -18.875 -0.116 -18.882 -0.116 -18.915 -0.114 -19.171 -0.131 -19.649 -0.071 -19.657 -0.070 -19.678 -0.070 -19.731 -0.080 -19.790 -0.109 -19.822 -0.086 -19.822 -0.082 -19.820 -0.078 -19.818 -0.079 -19.772 -0.401 6.434 0.117 4.665 0.201 43.424 41.709
91.000 -17.846 -0.452 -18.583 -0.185 -18.826 -0.121 -18.872 -0.116 -18.879 -0.115 -18.912 -0.114 -19.169 -0.130 -19.647 -0.071 -19.654 -0.071 -19.675 -0.070 -19.728 -0.080 -19.785 -0.109 -19.816 -0.087 -19.815 -0.083 -19.813 -0.079 -19.812 -0.080 -19.767 -0.402 6.439 0.119 4.647 0.203 43.423 41.714
91.400 -17.840 -0.452 -18.580 -0.184 -18.824 -0.120 -18.869 -0.115 -18.877 -0.115 -18.910 -0.113 -19.167 -0.130 -19.644 -0.072 -19.652 -0.071 -19.672 -0.070 -19.724 -0.080 -19.781 -0.109 -19.810 -0.088 -19.809 -0.084 -19.807 -0.080 -19.805 -0.081 -19.763 -0.404 6.445 0.120 4.629 0.205 43.421 41.720
91.800 -17.835 -0.451 -18.577 -0.184 -18.821 -0.120 -18.867 -0.115 -18.875 -0.114 -18.907 -0.113 -19.166 -0.130 -19.642 -0.072 -19.650 -0.071 -19.670 -0.071 -19.721 -0.081 -19.778 -0.109 -19.804 -0.089 -19.803 -0.085 -19.800 -0.081 -19.799 -0.082 -19.759 -0.406 6.451 0.122 4.611 0.207 43.419 41.725
92.200 -17.829 -0.451 -18.575 -0.184 -18.819 -0.119 -18.865 -0.114 -18.873 -0.114 -18.906 -0.112 -19.165 -0.130 -19.640 -0.072 -19.648 -0.072 -19.668 -0.071 -19.719 -0.081 -19.774 -0.109 -19.798 -0.090 -19.797 -0.086 -19.794 -0.082 -19.792 -0.083 -19.754 -0.407 6.457 0.124 4.594 0.209 43.417 41.731
92.600 -17.823 -0.450 -18.572 -0.183 -18.818 -0.119 -18.863 -0.114 -18.871 -0.113 -18.904 -0.112 -19.164 -0.130 -19.639 -0.073 -19.646 -0.072 -19.666 -0.071 -19.716 -0.081 -19.771 -0.109 -19.793 -0.091 -19.791 -0.087 -19.788 -0.083 -19.786 -0.084 -19.750 -0.408 6.463 0.126 4.577 0.211 43.416 41.737
93.000 -17.817 -0.450 -18.570 -0.183 -18.816 -0.118 -18.862 -0.113 -18.870 -0.112 -18.903 -0.111 -19.163 -0.130 -19.637 -0.073 -19.644 -0.072 -19.664 -0.071 -19.714 -0.080 -19.768 -0.109 -19.787 -0.092 -19.785 -0.088 -19.782 -0.084 -19.780 -0.085 -19.746 -0.410 6.469 0.127 4.561 0.214 43.414 41.744
93.400 -17.812 -0.449 -18.568 -0.182 -18.815 -0.117 -18.861 -0.112 -18.868 -0.112 -18.902 -0.110 -19.163 -0.129 -19.636 -0.073 -19.643 -0.072 -19.663 -0.071 -19.712 -0.080 -19.765 -0.110 -19.782 -0.092 -19.780 -0.089 -19.777 -0.085 -19.775 -0.086 -19.743 -0.411 6.475 0.129 4.546 0.216 43.413 41.750
93.800 -17.806 -0.449 -18.567 -0.181 -18.814 -0.116 -18.860 -0.111 -18.868 -0.111 -18.901 -0.109 -19.163 -0.129 -19.635 -0.073 -19.642 -0.072 -19.661 -0.071 -19.710 -0.080 -19.762 -0.110 -19.777 -0.093 -19.775 -0.090 -19.771 -0.086 -19.769 -0.087 -19.739 -0.412 6.481 0.131 4.531 0.218 43.412 41.755
94.200 -17.801 -0.448 -18.565 -0.181 -18.813 -0.115 -18.860 -0.110 -18.867 -0.110 -18.901 -0.109 -19.163 -0.129 -19.634 -0.072 -19.641 -0.071 -19.660 -0.070 -19.708 -0.080 -19.760 -0.110 -19.772 -0.094 -19.770 -0.090 -19.766 -0.087 -19.764 -0.088 -19.735 -0.413 6.487 0.133 4.517 0.221 43.411 41.761
94.600 -17.796 -0.448 -18.564 -0.180 -18.813 -0.114 -18.859 -0.109 -18.867 -0.109 -18.901 -0.108 -19.164 -0.129 -19.633 -0.072 -19.640 -0.071 -19.659 -0.070 -19.707 -0.080 -19.758 -0.110 -19.768 -0.095 -19.766 -0.091 -19.761 -0.088 -19.759 -0.088 -19.732 -0.414 6.494 0.135 4.504 0.223 43.410 41.766
95.000 -17.790 -0.447 -18.564 -0.180 -18.813 -0.113 -18.860 -0.108 -18.867 -0.108 -18.901 -0.107 -19.165 -0.129 -19.633 -0.072 -19.640 -0.071 -19.659 -0.069 -19.706 -0.079 -19.756 -0.110 -19.764 -0.095 -19.762 -0.092 -19.757 -0.088 -19.755 -0.089 -19.729 -0.415 6.500 0.136 4.492 0.225 43.409 41.771
95.400 -17.785 -0.446 -18.563 -0.179 -18.814 -0.112 -18.860 -0.108 -18.868 -0.107 -18.902 -0.106 -19.166 -0.128 -19.632 -0.071 -19.639 -0.070 -19.658 -0.069 -19.705 -0.079 -19.755 -0.110 -19.761 -0.096 -19.758 -0.092 -19.753 -0.089 -19.751 -0.090 -19.726 -0.416 6.505 0.138 4.480 0.227 43.409 41.775
95.800 -17.780 -0.446 -18.563 -0.179 -18.814 -0.111 -18.861 -0.107 -18.869 -0.106 -18.903 -0.105 -19.168 -0.128 -19.632 -0.071 -19.639 -0.070 -19.658 -0.068 -19.704 -0.079 -19.754 -0.110 -19.758 -0.096 -19.755 -0.093 -19.750 -0.090 -19.747 -0.090 -19.723 -0.417 6.511 0.139 4.470 0.228 43.408 41.779
96.200 -17.775 -0.445 -18.563 -0.178 -18.815 -0.111 -18.862 -0.106 -18.870 -0.105 -18.904 -0.104 -19.169 -0.128 -19.632 -0.071 -19.639 -0.069 -19.658 -0.068 -19.703 -0.078 -19.753 -0.110 -19.755 -0.097 -19.752 -0.094 -19.747 -0.090 -19.744 -0.091 -19.720 -0.418 6.517 0.140 4.460 0.229 43.408 41.782
96.600 -17.769 -0.444 -18.563 -0.178 -18.817 -0.110 -18.864 -0.105 -18.872 -0.105 -18.906 -0.104 -19.172 -0.128 -19.632 -0.070 -19.639 -0.069 -19.658 -0.068 -19.703 -0.078 -19.752 -0.110 -19.753 -0.098 -19.750 -0.094 -19.745 -0.091 -19.742 -0.092 -19.717 -0.419 6.522 0.141 4.452 0.230 43.408 41.784
97.000 -17.764 -0.443 -18.564 -0.177 -18.819 -0.109 -18.866 -0.104 -18.874 -0.104 -18.908 -0.103 -19.174 -0.128 -19.632 -0.070 -19.639 -0.069 -19.658 -0.067 -19.703 -0.078 -19.752 -0.110 -19.752 -0.098 -19.749 -0.095 -19.743 -0.091 -19.740 -0.092 -19.715 -0.420 6.528 0.141 4.444 0.230 43.407 41.786
97.400 -17.759 -0.443 -18.565 -0.177 -18.821 -0.109 -18.869 -0.104 -18.876 -0.103 -18.911 -0.102 -19.177 -0.128 -19.633 -0.070 -19.639 -0.069 -19.658 -0.067 -19.703 -0.078 -19.752 -0.110 -19.751 -0.099 -19.748 -0.095 -19.741 -0.092 -19.738 -0.093 -19.712 -0.420 6.533 0.141 4.437 0.230 43.407 41.786
97.800 -17.754 -0.442 -18.566 -0.176 -18.824 -0.108 -18.871 -0.103 -18.879 -0.103 -18.914 -0.102 -19.180 -0.128 -19.633 -0.070 -19.640 -0.069 -19.658 -0.067 -19.703 -0.078 -19.752 -0.110 -19.751 -0.099 -19.747 -0.096 -19.741 -0.093 -19.738 -0.094 -19.710 -0.421 6.538 0.141 4.430 0.229 43.407 41.785
98.200 -17.749 -0.441 -18.568 -0.176 -18.827 -0.108 -18.875 -0.103 -18.882 -0.103 -18.917 -0.102 -19.184 -0.128 -19.633 -0.070 -19.640 -0.069 -19.658 -0.067 -19.703 -0.078 -19.753 -0.110 -19.751 -0.100 -19.747 -0.097 -19.741 -0.094 -19.738 -0.094 -19.708 -0.422 6.540 0.140 4.430 0.227 43.408 41.783
98.600 -17.744 -0.440 -18.569 -0.176 -18.830 -0.108 -18.878 -0.103 -18.886 -0.103 -18.921 -0.102 -19.187 -0.128 -19.634 -0.071 -19.641 -0.070 -19.659 -0.068 -19.703 -0.079 -19.754 -0.111 -19.752 -0.100 -19.748 -0.097 -19.742 -0.094 -19.738 -0.095 -19.706 -0.422 6.549 0.139 4.418 0.224 43.408 41.779
99.000 -17.739 -0.439 -18.571 -0.176 -18.834 -0.108 -18.882 -0.103 -18.890 -0.103 -18.925 -0.102 -19.191 -0.128 -19.634 -0.071 -19.641 -0.070 -19.659 -0.069 -19.704 -0.079 -19.755 -0.111 -19.754 -0.101 -19.750 -0.098 -19.743 -0.095 -19.740 -0.096 -19.704 -0.423 6.554 0.137 4.413 0.221 43.408 41.775
99.400 -17.734 -0.438 -18.574 -0.176 -18.838 -0.108 -18.887 -0.103 -18.895 -0.103 -18.929 -0.102 -19.196 -0.128 -19.635 -0.072 -19.642 -0.071 -19.660 -0.070 -19.705 -0.080 -19.756 -0.111 -19.756 -0.101 -19.752 -0.098 -19.745 -0.096 -19.742 -0.097 -19.702 -0.423 6.559 0.135 4.408 0.218 43.409 41.769
99.800 -17.729 -0.438 -18.576 -0.175 -18.843 -0.108 -18.891 -0.104 -18.899 -0.103 -18.934 -0.102 -19.200 -0.128 -19.636 -0.073 -19.643 -0.072 -19.661 -0.071 -19.706 -0.081 -19.758 -0.112 -19.759 -0.102 -19.755 -0.099 -19.748 -0.097 -19.744 -0.098 -19.700 -0.423 6.564 0.133 4.405 0.214 43.409 41.762
100.200 -17.724 -0.437 -18.579 -0.175 -18.847 -0.109 -18.896 -0.104 -18.904 -0.104 -18.939 -0.103 -19.205 -0.128 -19.637 -0.074 -19.644 -0.073 -19.661 -0.072 -19.707 -0.082 -19.760 -0.112 -19.762 -0.102 -19.758 -0.100 -19.751 -0.098 -19.747 -0.099 -19.699 -0.424 6.569 0.130 4.402 0.209 43.410 41.755
100.600 -17.718 -0.436 -18.581 -0.175 -18.852 -0.109 -18.902 -0.104 -18.910 -0.104 -18.945 -0.103 -19.210 -0.128 -19.638 -0.075 -19.645 -0.074 -19.662 -0.073 -19.708 -0.083 -19.762 -0.112 -19.766 -0.103 -19.762 -0.100 -19.755 -0.098 -19.751 -0.100 -19.697 -0.424 6.573 0.127 4.401 0.204 43.411 41.747
101.000 -17.713 -0.435 -18.584 -0.175 -18.858 -0.110 -18.907 -0.105 -18.915 -0.105 -18.950 -0.104 -19.216 -0.128 -19.640 -0.076 -19.646 -0.075 -19.664 -0.074 -19.710 -0.084 -19.764 -0.113 -19.770 -0.103 -19.766 -0.101 -19.759 -0.099 -19.755 -0.101 -19.696 -0.424 6.577 0.124 4.402 0.200 43.412 41.738
101.400 -17.708 -0.434 -18.587 -0.175 -18.863 -0.110 -18.913 -0.106 -18.921 -0.105 -18.956 -0.104 -19.221 -0.129 -19.641 -0.077 -19.647 -0.076 -19.665 -0.075 -19.712 -0.085 -19.767 -0.113 -19.775 -0.104 -19.771 -0.101 -19.764 -0.100 -19.760 -0.101 -19.694 -0.424 6.580 0.121 4.403 0.195 43.413 41.729
101.800 -17.703 -0.433 -18.591 -0.175 -18.869 -0.111 -18.919 -0.106 -18.927 -0.106 -18.962 -0.105 -19.227 -0.129 -19.643 -0.078 -19.649 -0.077 -19.667 -0.076 -19.714 -0.086 -19.770 -0.114 -19.781 -0.104 -19.777 -0.102 -19.770 -0.100 -19.766 -0.102 -19.693 -0.424 6.582 0.118 4.407 0.190 43.415 41.719
102.200 -17.697 -0.431 -18.594 -0.176 -18.874 -0.111 -18.925 -0.107 -18.933 -0.106 -18.968 -0.105 -19.233 -0.129 -19.645 -0.079 -19.651 -0.078 -19.669 -0.077 -19.716 -0.087 -19.773 -0.114 -19.787 -0.104 -19.783 -0.102 -19.775 -0.101 -19.771 -0.103 -19.692 -0.424 6.584 0.115 4.412 0.185 43.416 41.710
102.600 -17.692 -0.430 -18.597 -0.176 -18.880 -0.112 -18.931 -0.107 -18.939 -0.107 -18.975 -0.106 -19.238 -0.129 -19.647 -0.080 -19.653 -0.079 -19.671 -0.079 -19.718 -0.088 -19.777 -0.115 -19.793 -0.104 -19.789 -0.102 -19.782 -0.101 -19.778 -0.103 -19.691 -0.424 6.585 0.112 4.418 0.180 43.418 41.700
103.000 -17.686 -0.429 -18.601 -0.176 -18.886 -0.113 -18.937 -0.108 -18.945 -0.108 -18.981 -0.107 -19.245 -0.130 -19.649 -0.081 -19.655 -0.080 -19.673 -0.080 -19.721 -0.089 -19.781 -0.115 -19.800 -0.104 -19.796 -0.102 -19.789 -0.102 -19.785 -0.104 -19.689 -0.424 6.585 0.109 4.427 0.175 43.419 41.690
103.400 -17.680 -0.428 -18.604 -0.176 -18.892 -0.113 -18.943 -0.109 -18.952 -0.108 -18.987 -0.107 -19.251 -0.130 -19.652 -0.082 -19.658 -0.081 -19.676 -0.081 -19.724 -0.090 -19.784 -0.116 -19.808 -0.104 -19.804 -0.102 -19.796 -0.102 -19.792 -0.104 -19.688 -0.424 6.585 0.106 4.438 0.171 43.421 41.680
103.800 -17.674 -0.427 -18.607 -0.176 -18.898 -0.114 -18.950 -0.110 -18.958 -0.109 -18.994 -0.108 -19.257 -0.131 -19.655 -0.083 -19.661 -0.083 -19.678 -0.082 -19.727 -0.091 -19.789 -0.116 -19.816 -0.104 -19.812 -0.103 -19.804 -0.102 -19.799 -0.104 -19.687 -0.424 6.583 0.103 4.451 0.167 43.423 41.670
104.200 -17.668 -0.426 -18.611 -0.176 -18.905 -0.115 -18.956 -0.110 -18.964 -0.110 -19.001 -0.109 -19.263 -0.131 -19.658 -0.084 -19.664 -0.084 -19.682 -0.083 -19.730 -0.091 -19.793 -0.116 -19.824 -0.104 -19.820 -0.102 -19.812 -0.102 -19.807 -0.105 -19.686 -0.423 6.580 0.100 4.465 0.163 43.425 41.661
104.600 -17.662 -0.424 -18.614 -0.177 -18.911 -0.115 -18.962 -0.111 -18.971 -0.111 -19.007 -0.110 -19.270 -0.131 -19.661 -0.085 -19.667 -0.085 -19.685 -0.084 -19.734 -0.092 -19.797 -0.117 -19.832 -0.104 -19.828 -0.102 -19.820 -0.102 -19.816 -0.105 -19.685 -0.423 6.577 0.097 4.482 0.159 43.428 41.653
105.000 -17.655 -0.423 -18.617 -0.177 -18.917 -0.116 -18.969 -0.112 -18.977 -0.111 -19.014 -0.110 -19.276 -0.132 -19.665 -0.086 -19.671 -0.086 -19.689 -0.085 -19.738 -0.093 -19.802 -0.117 -19.841 -0.104 -19.837 -0.102 -19.829 -0.102 -19.824 -0.105 -19.684 -0.422 6.572 0.094 4.501 0.156 43.430 41.645
105.400 -17.649 -0.422 -18.620 -0.177 -18.923 -0.117 -18.975 -0.112 -18.983 -0.112 -19.020 -0.111 -19.282 -0.132 -19.669 -0.087 -19.675 -0.087 -19.693 -0.086 -19.742 -0.094 -19.807 -0.118 -19.850 -0.103 -19.846 -0.102 -19.838 -0.102 -19.833 -0.105 -19.683 -0.422 6.566 0.092 4.522 0.153 43.433 41.638
105.800 -17.642 -0.421 -18.623 -0.177 -18.928 -0.118 -18.981 -0.113 -18.990 -0.113 -19.027 -0.112 -19.288 -0.133 -19.673 -0.088 -19.679 -0.088 -19.697 -0.087 -19.746 -0.095 -19.811 -0.118 -19.860 -0.103 -19.856 -0.102 -19.848 -0.102 -19.843 -0.105 -19.682 -0.421 6.560 0.090 4.545 0.150 43.435 41.632
106.200 -17.635 -0.419 -18.626 -0.177 -18.934 -0.118 -18.987 -0.114 -18.996 -0.114 -19.033 -0.113 -19.294 -0.133 -19.677 -0.089 -19.684 -0.089 -19.701 -0.088 -19.750 -0.096 -19.816 -0.119 -19.869 -0.102 -19.865 -0.101 -19.857 -0.102 -19.852 -0.105 -19.680 -0.421 6.552 0.088 4.569 0.148 43.438 41.627
106.600 -17.628 -0.418 -18.628 -0.177 -18.940 -0.119 -18.993 -0.115 -19.002 -0.114 -19.039 -0.113 -19.300 -0.134 -19.682 -0.090 -19.688 -0.090 -19.705 -0.089 -19.754 -0.097 -19.821 -0.119 -19.879 -0.102 -19.875 -0.101 -19.867 -0.102 -19.861 -0.105 -19.679 -0.420 6.544 0.086 4.596 0.146 43.441 41.624
107.000 -17.621 -0.416 -18.630 -0.178 -18.945 -0.120 -18.999 -0.115 -19.007 -0.115 -19.045 -0.114 -19.306 -0.134 -19.686 -0.091 -19.692 -0.091 -19.710 -0.090 -19.759 -0.098 -19.826 -0.119 -19.888 -0.101 -19.885 -0.100 -19.877 -0.101 -19.871 -0.105 -19.678 -0.419 6.535 0.085 4.623 0.145 43.444 41.621
107.400 -17.613 -0.415 -18.632 -0.178 -18.950 -0.120 -19.004 -0.116 -19.013 -0.116 -19.050 -0.115 -19.312 -0.135 -19.691 -0.092 -19.697 -0.092 -19.714 -0.091 -19.763 -0.099 -19.830 -0.120 -19.898 -0.101 -19.894 -0.100 -19.886 -0.101 -19.880 -0.104 -19.676 -0.418 6.525 0.084 4.652 0.144 43.446 41.621
107.800 -17.605 -0.413 -18.634 -0.178 -18.955 -0.121 -19.009 -0.117 -19.018 -0.117 -19.056 -0.116 -19.317 -0.135 -19.695 -0.093 -19.701 -0.093 -19.719 -0.092 -19.768 -0.099 -19.835 -0.120 -19.907 -0.100 -19.904 -0.099 -19.896 -0.101 -19.889 -0.104 -19.675 -0.418 6.515 0.083 4.681 0.144 43.449 41.621
108.200 -17.597 -0.412 -18.635 -0.178 -18.959 -0.122 -19.014 -0.118 -19.023 -0.117 -19.061 -0.116 -19.322 -0.136 -19.699 -0.094 -19.706 -0.094 -19.723 -0.093 -19.772 -0.100 -19.839 -0.121 -19.916 -0.100 -19.913 -0.099 -19.905 -0.100 -19.898 -0.104 -19.673 -0.417 6.504 0.082 4.711 0.144 43.452 41.623
108.600 -17.589 -0.410 -18.636 -0.179 -18.963 -0.122 -19.018 -0.118 -19.027 -0.118 -19.065 -0.117 -19.327 -0.137 -19.704 -0.095 -19.710 -0.095 -19.727 -0.094 -19.776 -0.101 -19.844 -0.121 -19.925 -0.099 -19.922 -0.098 -19.914 -0.100 -19.907 -0.104 -19.671 -0.415 6.493 0.082 4.742 0.144 43.454 41.626
109.000 -17.580 -0.409 -18.637 -0.179 -18.967 -0.123 -19.022 -0.119 -19.031 -0.119 -19.070 -0.118 -19.331 -0.137 -19.708 -0.096 -19.714 -0.096 -19.731 -0.095 -19.780 -0.102 -19.848 -0.122 -19.934 -0.099 -19.930 -0.098 -19.922 -0.100 -19.915 -0.104 -19.669 -0.414 6.481 0.082 4.773 0.146 43.457 41.631
109.400 -17.571 -0.407 -18.637 -0.179 -18.970 -0.124 -19.026 -0.120 -19.035 -0.120 -19.073 -0.119 -19.335 -0.138 -19.712 -0.097 -19.718 -0.097 -19.735 -0.096 -19.783 -0.103 -19.851 -0.122 -19.942 -0.099 -19.939 -0.098 -19.930 -0.100 -19.923 -0.104 -19.667 -0.413 6.470 0.082 4.803 0.147 43.459 41.637
109.800 -17.562 -0.405 -18.636 -0.179 -18.972 -0.125 -19.029 -0.121 -19.038 -0.120 -19.077 -0.120 -19.339 -0.139 -19.715 -0.099 -19.721 -0.098 -19.739 -0.097 -19.787 -0.104 -19.855 -0.123 -19.949 -0.098 -19.946 -0.098 -19.938 -0.100 -19.930 -0.104 -19.665 -0.412 6.458 0.082 4.834 0.149 43.462 41.644
110.200 -17.552 -0.403 -18.636 -0.180 -18.975 -0.125 -19.031 -0.122 -19.040 -0.121 -19.079 -0.121 -19.342 -0.140 -19.718 -0.100 -19.725 -0.099 -19.742 -0.098 -19.790 -0.105 -19.858 -0.124 -19.956 -0.098 -19.953 -0.098 -19.945 -0.100 -19.937 -0.104 -19.662 -0.411 6.446 0.083 4.863 0.152 43.464 41.653
110.600 -17.542 -0.402 -18.634 -0.180 -18.976 -0.126 -19.033 -0.123 -19.042 -0.122 -19.082 -0.121 -19.344 -0.140 -19.721 -0.101 -19.727 -0.100 -19.745 -0.100 -19.793 -0.106 -19.861 -0.125 -19.962 -0.098 -19.959 -0.098 -19.951 -0.100 -19.943 -0.105 -19.660 -0.409 6.434 0.084 4.892 0.154 43.466 41.662
111.000 -17.532 -0.400 -18.632 -0.180 -18.977 -0.127 -19.035 -0.124 -19.044 -0.123 -19.083 -0.122 -19.347 -0.141 -19.724 -0.102 -19.730 -0.102 -19.747 -0.101 -19.795 -0.107 -19.863 -0.125 -19.968 -0.099 -19.965 -0.098 -19.956 -0.101 -19.949 -0.105 -19.657 -0.408 6.422 0.085 4.919 0.158 43.467 41.673
111.400 -17.521 -0.398 -18.630 -0.181 -18.977 -0.128 -19.035 -0.125 -19.044 -0.124 -19.084 -0.124 -19.348 -0.142 -19.726 -0.104 -19.732 -0.103 -19.749 -0.103 -19.797 -0.109 -19.865 -0.126 -19.972 -0.099 -19.970 -0.099 -19.961 -0.101 -19.953 -0.106 -19.654 -0.406 6.411 0.086 4.945 0.161 43.469 41.685
111.800 -17.510 -0.396 -18.627 -0.181 -18.977 -0.129 -19.035 -0.126 -19.044 -0.125 -19.084 -0.125 -19.350 -0.143 -19.727 -0.106 -19.733 -0.105 -19.751 -0.104 -19.798 -0.110 -19.866 -0.127 -19.976 -0.100 -19.973 -0.100 -19.965 -0.102 -19.957 -0.107 -19.651 -0.405 6.399 0.087 4.968 0.166 43.470 41.698
112.200 -17.499 -0.394 -18.624 -0.182 -18.976 -0.130 -19.034 -0.127 -19.044 -0.127 -19.084 -0.126 -19.350 -0.144 -19.728 -0.107 -19.734 -0.107 -19.752 -0.106 -19.799 -0.112 -19.867 -0.128 -19.979 -0.101 -19.976 -0.101 -19.968 -0.104 -19.960 -0.108 -19.647 -0.403 6.389 0.089 4.990 0.170 43.471 41.711
112.600 -17.487 -0.392 -18.619 -0.182 -18.974 -0.132 -19.033 -0.128 -19.042 -0.128 -19.083 -0.127 -19.350 -0.145 -19.729 -0.109 -19.735 -0.109 -19.752 -0.108 -19.799 -0.113 -19.867 -0.130 -19.981 -0.103 -19.978 -0.102 -19.970 -0.105 -19.962 -0.110 -19.643 -0.401 6.378 0.091 5.009 0.175 43.471 41.725
113.000 -17.475 -0.390 -18.615 -0.183 -18.971 -0.133 -19.031 -0.130 -19.040 -0.129 -19.081 -0.129 -19.349 -0.146 -19.729 -0.111 -19.735 -0.111 -19.752 -0.110 -19.799 -0.115 -19.867 -0.131 -19.982 -0.104 -19.979 -0.104 -19.970 -0.107 -19.962 -0.112 -19.639 -0.399 6.368 0.092 5.026 0.180 43.471 41.740
113.400 -17.463 -0.388 -18.609 -0.183 -18.968 -0.135 -19.028 -0.131 -19.037 -0.131 -19.078 -0.130 -19.348 -0.147 -19.728 -0.114 -19.734 -0.113 -19.751 -0.112 -19.799 -0.117 -19.866 -0.132 -19.981 -0.106 -19.979 -0.106 -19.970 -0.109 -19.962 -0.114 -19.635 -0.397 6.359 0.094 5.040 0.185 43.471 41.754
113.800 -17.450 -0.385 -18.603 -0.184 -18.964 -0.136 -19.024 -0.133 -19.033 -0.132 -19.075 -0.132 -19.346 -0.148 -19.727 -0.116 -19.733 -0.115 -19.750 -0.115 -19.797 -0.119 -19.865 -0.134 -19.980 -0.109 -19.978 -0.108 -19.969 -0.111 -19.961 -0.116 -19.630 -0.395 6.349 0.096 5.052 0.190 43.471 41.769
114.200 -17.437 -0.383 -18.597 -0.184 -18.959 -0.138 -19.020 -0.134 -19.029 -0.134 -19.070 -0.133 -19.344 -0.150 -19.725 -0.118 -19.731 -0.118 -19.748 -0.117 -19.795 -0.121 -19.862 -0.135 -19.978 -0.111 -19.976 -0.111 -19.967 -0.114 -19.959 -0.118 -19.625 -0.393 6.341 0.099 5.061 0.196 43.470 41.783
114.600 -17.423 -0.381 -18.590 -0.185 -18.954 -0.139 -19.014 -0.136 -19.024 -0.136 -19.066 -0.135 -19.341 -0.151 -19.723 -0.121 -19.729 -0.120 -19.746 -0.119 -19.793 -0.123 -19.859 -0.137 -19.975 -0.114 -19.972 -0.114 -19.964 -0.117 -19.956 -0.121 -19.620 -0.391 6.332 0.101 5.067 0.201 43.469 41.798
115.000 -17.409 -0.378 -18.582 -0.185 -18.948 -0.141 -19.009 -0.138 -19.018 -0.138 -19.060 -0.137 -19.337 -0.152 -19.720 -0.123 -19.726 -0.122 -19.743 -0.122 -19.790 -0.126 -19.856 -0.138 -19.971 -0.116 -19.968 -0.116 -19.960 -0.119 -19.953 -0.124 -19.615 -0.389 6.325 0.103 5.071 0.207 43.467 41.811
115.400 -17.395 -0.376 -18.574 -0.186 -18.941 -0.143 -19.002 -0.140 -19.012 -0.139 -19.054 -0.139 -19.332 -0.153 -19.716 -0.125 -19.722 -0.125 -19.739 -0.124 -19.786 -0.128 -19.852 -0.140 -19.966 -0.119 -19.963 -0.119 -19.955 -0.122 -19.948 -0.126 -19.609 -0.386 6.317 0.105 5.072 0.212 43.465 41.824
115.800 -17.380 -0.373 -18.565 -0.187 -18.933 -0.144 -18.995 -0.141 -19.005 -0.141 -19.047 -0.140 -19.327 -0.155 -19.712 -0.128 -19.718 -0.127 -19.735 -0.127 -19.781 -0.130 -19.847 -0.141 -19.960 -0.122 -19.957 -0.122 -19.950 -0.125 -19.942 -0.129 -19.603 -0.384 6.310 0.108 5.071 0.218 43.463 41.837
116.200 -17.365 -0.371 -18.555 -0.187 -18.925 -0.146 -18.987 -0.143 -18.997 -0.143 -19.039 -0.142 -19.321 -0.156 -19.707 -0.130 -19.713 -0.130 -19.730 -0.129 -19.776 -0.132 -19.841 -0.143 -19.953 -0.125 -19.950 -0.125 -19.943 -0.128 -19.936 -0.132 -19.597 -0.381 6.304 0.110 5.067 0.223 43.461 41.849
116.600 -17.350 -0.368 -18.545 -0.188 -18.917 -0.148 -18.979 -0.145 -18.989 -0.145 -19.031 -0.144 -19.315 -0.157 -19.701 -0.133 -19.707 -0.132 -19.724 -0.132 -19.770 -0.134 -19.835 -0.145 -19.945 -0.128 -19.943 -0.128 -19.935 -0.131 -19.928 -0.135 -19.590 -0.378 6.297 0.112 5.061 0.228 43.458 41.859
117.000 -17.334 -0.365 -18.534 -0.189 -18.907 -0.149 -18.969 -0.147 -18.979 -0.146 -19.022 -0.146 -19.308 -0.158 -19.695 -0.135 -19.701 -0.135 -19.718 -0.134 -19.763 -0.137 -19.828 -0.146 -19.936 -0.131 -19.934 -0.131 -19.927 -0.134 -19.920 -0.138 -19.583 -0.376 6.291 0.114 5.052 0.233 43.455 41.870
117.400 -17.317 -0.363 -18.523 -0.189 -18.897 -0.151 -18.960 -0.148 -18.970 -0.148 -19.013 -0.147 -19.300 -0.160 -19.688 -0.137 -19.694 -0.137 -19.711 -0.136 -19.756 -0.139 -19.820 -0.148 -19.927 -0.133 -19.925 -0.134 -19.917 -0.137 -19.911 -0.140 -19.576 -0.373 6.286 0.116 5.042 0.238 43.451 41.879
117.800 -17.301 -0.360 -18.511 -0.190 -18.886 -0.153 -18.949 -0.150 -18.959 -0.150 -19.003 -0.149 -19.291 -0.161 -19.680 -0.139 -19.686 -0.139 -19.703 -0.138 -19.748 -0.141 -19.811 -0.149 -19.916 -0.136 -19.914 -0.137 -19.907 -0.140 -19.901 -0.143 -19.568 -0.370 6.280 0.118 5.028 0.242 43.448 41.887
118.200 -17.284 -0.357 -18.498 -0.190 -18.875 -0.154 -18.938 -0.152 -18.948 -0.151 -18.992 -0.151 -19.282 -0.162 -19.672 -0.141 -19.678 -0.141 -19.694 -0.141 -19.739 -0.143 -19.802 -0.151 -19.905 -0.139 -19.903 -0.139 -19.896 -0.142 -19.890 -0.146 -19.560 -0.367 6.275 0.120 5.013 0.246 43.444 41.894
118.600 -17.266 -0.354 -18.485 -0.191 -18.863 -0.156 -18.927 -0.153 -18.937 -0.153 -18.980 -0.153 -19.272 -0.163 -19.663 -0.143 -19.669 -0.143 -19.685 -0.143 -19.730 -0.145 -19.791 -0.152 -19.893 -0.141 -19.891 -0.142 -19.884 -0.145 -19.878 -0.148 -19.551 -0.363 6.270 0.122 4.996 0.250 43.439 41.901
119.000 -17.248 -0.351 -18.472 -0.191 -18.851 -0.157 -18.914 -0.155 -18.924 -0.155 -18.968 -0.154 -19.261 -0.164 -19.653 -0.145 -19.659 -0.145 -19.675 -0.144 -19.719 -0.146 -19.780 -0.154 -19.880 -0.144 -19.878 -0.144 -19.872 -0.147 -19.866 -0.150 -19.543 -0.360 6.265 0.124 4.977 0.253 43.435 41.906
119.400 -17.230 -0.347 -18.457 -0.192 -18.838 -0.159 -18.901 -0.156 -18.912 -0.156 -18.955 -0.156 -19.250 -0.165 -19.643 -0.147 -19.649 -0.147 -19.665 -0.146 -19.708 -0.148 -19.769 -0.155 -19.866 -0.146 -19.865 -0.147 -19.858 -0.150 -19.852 -0.153 -19.534 -0.357 6.261 0.125 4.956 0.256 43.430 41.911
119.800 -17.211 -0.344 -18.443 -0.192 -18.824 -0.160 -18.888 -0.158 -18.898 -0.158 -18.942 -0.157 -19.238 -0.166 -19.631 -0.149 -19.637 -0.148 -19.653 -0.148 -19.697 -0.149 -19.756 -0.156 -19.852 -0.148 -19.850 -0.149 -19.844 -0.152 -19.838 -0.155 -19.524 -0.353 6.257 0.127 4.933 0.259 43.424 41.914
120.200 -17.192 -0.341 -18.427 -0.193 -18.810 -0.161 -18.874 -0.159 -18.884 -0.159 -18.928 -0.158 -19.225 -0.167 -19.620 -0.150 -19.625 -0.150 -19.641 -0.149 -19.684 -0.151 -19.743 -0.157 -19.837 -0.150 -19.835 -0.151 -19.829 -0.154 -19.824 -0.157 -19.514 -0.349 6.253 0.128 4.908 0.261 43.419 41.917
120.600 -17.172 -0.337 -18.412 -0.193 -18.795 -0.163 -18.859 -0.161 -18.869 -0.160 -18.914 -0.160 -19.212 -0.168 -19.607 -0.151 -19.613 -0.151 -19.628 -0.151 -19.671 -0.152 -19.729 -0.158 -19.821 -0.152 -19.819 -0.153 -19.814 -0.156 -19.808 -0.159 -19.504 -0.346 6.249 0.130 4.881 0.263 43.413 41.919
121.000 -17.153 -0.333 -18.395 -0.193 -18.779 -0.164 -18.844 -0.162 -18.854 -0.161 -18.899 -0.161 -19.198 -0.168 -19.594 -0.153 -19.599 -0.152 -19.615 -0.152 -19.657 -0.153 -19.714 -0.159 -19.804 -0.154 -19.803 -0.155 -19.797 -0.157 -19.792 -0.160 -19.494 -0.342 6.245 0.131 4.853 0.264 43.407 41.920
121.400 -17.132 -0.330 -18.378 -0.193 -18.763 -0.165 -18.828 -0.163 -18.838 -0.162 -18.883 -0.162 -19.183 -0.169 -19.579 -0.154 -19.585 -0.153 -19.601 -0.153 -19.642 -0.154 -19.699 -0.160 -19.787 -0.156 -19.786 -0.156 -19.780 -0.159 -19.776 -0.162 -19.483 -0.338 6.242 0.132 4.824 0.266 43.401 41.920
121.800 -17.112 -0.326 -18.361 -0.193 -18.747 -0.166 -18.812 -0.164 -18.822 -0.163 -18.867 -0.163 -19.168 -0.169 -19.565 -0.154 -19.570 -0.154 -19.586 -0.154 -19.627 -0.155 -19.682 -0.161 -19.769 -0.157 -19.768 -0.158 -19.763 -0.160 -19.758 -0.163 -19.472 -0.334 6.238 0.133 4.793 0.266 43.394 41.919
122.200 -17.091 -0.322 -18.343 -0.192 -18.730 -0.166 -18.795 -0.164 -18.805 -0.164 -18.850 -0.163 -19.152 -0.169 -19.549 -0.155 -19.555 -0.155 -19.570 -0.154 -19.611 -0.155 -19.665 -0.161 -19.750 -0.158 -19.749 -0.159 -19.745 -0.161 -19.740 -0.164 -19.460 -0.329 6.235 0.134 4.760 0.267 43.387 41.917
122.600 -17.069 -0.318 -18.325 -0.192 -18.712 -0.167 -18.777 -0.165 -18.788 -0.165 -18.833 -0.164 -19.135 -0.170 -19.533 -0.155 -19.538 -0.155 -19.554 -0.155 -19.594 -0.156 -19.648 -0.161 -19.731 -0.159 -19.730 -0.160 -19.726 -0.162 -19.721 -0.165 -19.448 -0.325 6.232 0.135 4.726 0.267 43.380 41.915
123.000 -17.047 -0.314 -18.306 -0.191 -18.694 -0.167 -18.759 -0.165 -18.770 -0.165 -18.815 -0.164 -19.118 -0.170 -19.516 -0.156 -19.522 -0.155 -19.537 -0.155 -19.576 -0.156 -19.629 -0.161 -19.711 -0.160 -19.710 -0.160 -19.706 -0.163 -19.702 -0.165 -19.436 -0.321 6.229 0.135 4.691 0.266 43.373 41.912
123.400 -17.025 -0.310 -18.287 -0.191 -18.676 -0.167 -18.741 -0.165 -18.751 -0.165 -18.796 -0.164 -19.100 -0.169 -19.498 -0.156 -19.504 -0.155 -19.519 -0.155 -19.558 -0.156 -19.610 -0.161 -19.691 -0.160 -19.690 -0.161 -19.686 -0.163 -19.682 -0.165 -19.424 -0.316 6.226 0.136 4.655 0.265 43.365 41.908
123.800 -17.003 -0.305 -18.267 -0.190 -18.656 -0.167 -18.722 -0.165 -18.732 -0.165 -18.777 -0.164 -19.082 -0.169 -19.480 -0.155 -19.485 -0.155 -19.500 -0.155 -19.539 -0.156 -19.590 -0.161 -19.669 -0.160 -19.669 -0.161 -19.665 -0.163 -19.662 -0.166 -19.411 -0.311 6.223 0.136 4.618 0.264 43.358 41.903
124.200 -16.980 -0.301 -18.247 -0.189 -18.637 -0.167 -18.702 -0.165 -18.713 -0.165 -18.758 -0.164 -19.062 -0.169 -19.461 -0.155 -19.466 -0.155 -19.481 -0.154 -19.520 -0.155 -19.570 -0.161 -19.648 -0.160 -19.647 -0.161 -19.644 -0.163 -19.641 -0.165 -19.398 -0.306 6.220 0.136 4.580 0.263 43.350 41.897
124.600 -16.957 -0.296 -18.227 -0.188 -18.617 -0.166 -18.682 -0.165 -18.693 -0.164 -18.738 -0.164 -19.043 -0.168 -19.441 -0.154 -19.447 -0.154 -19.461 -0.154 -19.499 -0.155 -19.548 -0.160 -19.625 -0.160 -19.625 -0.161 -19.622 -0.163 -19.619 -0.165 -19.384 -0.301 6.218 0.136 4.540 0.261 43.342 41.891
125.000 -16.933 -0.291 -18.206 -0.186 -18.596 -0.166 -18.662 -0.164 -18.672 -0.164 -18.717 -0.163 -19.022 -0.167 -19.421 -0.154 -19.426 -0.153 -19.441 -0.153 -19.478 -0.154 -19.526 -0.160 -19.603 -0.160 -19.602 -0.160 -19.600 -0.162 -19.597 -0.165 -19.370 -0.296 6.215 0.136 4.500 0.259 43.333 41.884
125.400 -16.910 -0.287 -18.184 -0.185 -18.575 -0.165 -18.640 -0.163 -18.651 -0.163 -18.696 -0.162 -19.001 -0.166 -19.400 -0.152 -19.405 -0.152 -19.420 -0.152 -19.457 -0.153 -19.504 -0.159 -19.579 -0.159 -19.579 -0.159 -19.577 -0.162 -19.575 -0.164 -19.356 -0.291 6.213 0.136 4.459 0.257 43.324 41.877
125.800 -16.886 -0.282 -18.162 -0.183 -18.553 -0.164 -18.619 -0.162 -18.629 -0.162 -18.675 -0.161 -18.980 -0.165 -19.378 -0.151 -19.383 -0.151 -19.398 -0.150 -19.434 -0.152 -19.481 -0.157 -19.556 -0.158 -19.555 -0.158 -19.554 -0.161 -19.552 -0.163 -19.342 -0.286 6.211 0.136 4.417 0.254 43.316 41.868
126.200 -16.861 -0.277 -18.140 -0.181 -18.531 -0.162 -18.597 -0.161 -18.607 -0.160 -18.653 -0.160 -18.958 -0.164 -19.356 -0.150 -19.361 -0.149 -19.375 -0.149 -19.411 -0.150 -19.457 -0.156 -19.531 -0.157 -19.531 -0.157 -19.530 -0.159 -19.528 -0.161 -19.327 -0.280 6.209 0.135 4.374 0.251 43.307 41.859
126.600 -16.836 -0.272 -18.117 -0.179 -18.509 -0.161 -18.574 -0.159 -18.585 -0.159 -18.630 -0.158 -18.935 -0.162 -19.333 -0.148 -19.338 -0.148 -19.352 -0.147 -19.388 -0.148 -19.432 -0.154 -19.507 -0.155 -19.507 -0.156 -19.506 -0.158 -19.505 -0.160 -19.312 -0.274 6.207 0.135 4.331 0.248 43.297 41.850
127.000 -16.811 -0.266 -18.094 -0.176 -18.486 -0.159 -18.552 -0.157 -18.562 -0.157 -18.607 -0.156 -18.912 -0.160 -19.309 -0.146 -19.314 -0.146 -19.328 -0.145 -19.363 -0.146 -19.407 -0.153 -19.481 -0.154 -19.482 -0.154 -19.481 -0.156 -19.480 -0.158 -19.296 -0.269 6.205 0.134 4.287 0.244 43.288 41.839
127.400 -16.786 -0.261 -18.071 -0.174 -18.463 -0.156 -18.528 -0.155 -18.539 -0.155 -18.584 -0.154 -18.888 -0.158 -19.285 -0.144 -19.290 -0.144 -19.304 -0.143 -19.338 -0.144 -19.382 -0.151 -19.456 -0.152 -19.457 -0.152 -19.456 -0.154 -19.456 -0.156 -19.281 -0.263 6.203 0.134 4.242 0.241 43.278 41.828
127.800 -16.761 -0.256 -18.047 -0.171 -18.439 -0.154 -18.504 -0.153 -18.515 -0.152 -18.560 -0.152 -18.864 -0.156 -19.260 -0.141 -19.265 -0.141 -19.279 -0.141 -19.313 -0.142 -19.356 -0.149 -19.430 -0.150 -19.431 -0.150 -19.431 -0.152 -19.431 -0.154 -19.265 -0.257 6.202 0.133 4.197 0.237 43.269 41.816
128.200 -16.735 -0.250 -18.023 -0.168 -18.415 -0.151 -18.480 -0.150 -18.490 -0.150 -18.535 -0.149 -18.839 -0.154 -19.234 -0.139 -19.239 -0.138 -19.253 -0.138 -19.287 -0.139 -19.329 -0.146 -19.404 -0.147 -19.405 -0.148 -19.406 -0.149 -19.405 -0.151 -19.248 -0.251 6.201 0.132 4.151 0.233 43.259 41.804
128.600 -16.709 -0.245 -17.999 -0.165 -18.390 -0.148 -18.455 -0.147 -18.466 -0.147 -18.511 -0.146 -18.813 -0.151 -19.208 -0.136 -19.213 -0.136 -19.227 -0.135 -19.260 -0.136 -19.302 -0.144 -19.377 -0.145 -19.378 -0.145 -19.380 -0.147 -19.380 -0.149 -19.232 -0.245 6.199 0.131 4.105 0.228 43.249 41.791
129.000 -16.683 -0.239 -17.974 -0.161 -18.365 -0.145 -18.430 -0.144 -18.440 -0.144 -18.485 -0.143 -18.788 -0.148 -19.182 -0.133 -19.187 -0.133 -19.200 -0.132 -19.233 -0.133 -19.274 -0.141 -19.350 -0.142 -19.352 -0.142 -19.353 -0.144 -19.354 -0.146 -19.215 -0.238 6.198 0.130 4.058 0.224 43.238 41.777
129.400 -16.656 -0.233 -17.948 -0.158 -18.340 -0.142 -18.405 -0.141 -18.415 -0.140 -18.460 -0.140 -18.761 -0.145 -19.154 -0.130 -19.159 -0.129 -19.172 -0.129 -19.205 -0.130 -19.245 -0.138 -19.323 -0.139 -19.324 -0.139 -19.327 -0.141 -19.327 -0.143 -19.198 -0.232 6.198 0.128 4.010 0.219 43.228 41.762
129.800 -16.629 -0.228 -17.923 -0.154 -18.314 -0.138 -18.379 -0.137 -18.389 -0.137 -18.434 -0.136 -18.734 -0.142 -19.127 -0.126 -19.131 -0.126 -19.145 -0.125 -19.177 -0.127 -19.217 -0.135 -19.295 -0.135 -19.297 -0.136 -19.300 -0.137 -19.301 -0.139 -19.181 -0.226 6.197 0.127 3.963 0.214 43.218 41.747
130.200 -16.603 -0.222 -17.897 -0.150 -18.287 -0.134 -18.352 -0.133 -18.362 -0.133 -18.407 -0.132 -18.707 -0.139 -19.098 -0.123 -19.103 -0.122 -19.116 -0.121 -19.148 -0.123 -19.187 -0.132 -19.268 -0.132 -19.270 -0.132 -19.273 -0.134 -19.274 -0.136 -19.163 -0.219 6.197 0.125 3.915 0.209 43.207 41.731
130.600 -16.575 -0.216 -17.871 -0.146 -18.261 -0.130 -18.325 -0.129 -18.336 -0.129 -18.380 -0.128 -18.679 -0.135 -19.069 -0.119 -19.074 -0.118 -19.087 -0.117 -19.118 -0.119 -19.157 -0.128 -19.240 -0.128 -19.242 -0.128 -19.245 -0.130 -19.247 -0.132 -19.145 -0.213 6.197 0.124 3.866 0.204 43.196 41.714
131.000 -16.548 -0.210 -17.844 -0.141 -18.234 -0.126 -18.298 -0.124 -18.308 -0.124 -18.353 -0.124 -18.650 -0.131 -19.040 -0.115 -19.045 -0.114 -19.057 -0.113 -19.089 -0.115 -19.127 -0.125 -19.211 -0.124 -19.214 -0.124 -19.218 -0.126 -19.220 -0.128 -19.127 -0.207 6.197 0.122 3.817 0.199 43.185 41.696
131.400 -16.521 -0.204 -17.817 -0.137 -18.206 -0.121 -18.271 -0.120 -18.281 -0.120 -18.325 -0.119 -18.622 -0.128 -19.010 -0.111 -19.015 -0.110 -19.027 -0.109 -19.058 -0.111 -19.097 -0.121 -19.183 -0.120 -19.186 -0.120 -19.190 -0.122 -19.193 -0.124 -19.109 -0.200 6.197 0.120 3.768 0.193 43.174 41.678
131.800 -16.493 -0.199 -17.790 -0.132 -18.179 -0.116 -18.243 -0.115 -18.253 -0.115 -18.297 -0.115 -18.592 -0.124 -18.979 -0.106 -18.984 -0.106 -18.997 -0.105 -19.027 -0.107 -19.066 -0.117 -19.154 -0.116 -19.157 -0.116 -19.162 -0.118 -19.165 -0.120 -19.090 -0.194 6.198 0.118 3.719 0.187 43.163 41.659
132.200 -16.466 -0.193 -17.763 -0.127 -18.150 -0.111 -18.214 -0.110 -18.224 -0.110 -18.268 -0.110 -18.563 -0.119 -18.948 -0.102 -18.953 -0.101 -18.966 -0.100 -18.996 -0.102 -19.034 -0.113 -19.125 -0.112 -19.129 -0.112 -19.134 -0.113 -19.138 -0.116 -19.072 -0.188 6.200 0.116 3.669 0.181 43.151 41.638
132.600 -16.438 -0.188 -17.735 -0.123 -18.122 -0.106 -18.185 -0.104 -18.196 -0.104 -18.239 -0.104 -18.533 -0.115 -18.917 -0.097 -18.922 -0.097 -18.934 -0.096 -18.964 -0.098 -19.003 -0.110 -19.096 -0.107 -19.100 -0.107 -19.106 -0.109 -19.110 -0.111 -19.053 -0.181 6.202 0.114 3.618 0.175 43.140 41.617
133.000 -16.410 -0.182 -17.707 -0.118 -18.093 -0.100 -18.156 -0.099 -18.166 -0.099 -18.210 -0.099 -18.502 -0.111 -18.885 -0.093 -18.890 -0.092 -18.902 -0.091 -18.932 -0.093 -18.971 -0.106 -19.067 -0.103 -19.071 -0.103 -19.078 -0.104 -19.082 -0.107 -19.033 -0.176 6.204 0.111 3.568 0.169 43.128 41.595
133.400 -16.382 -0.177 -17.678 -0.113 -18.064 -0.095 -18.127 -0.093 -18.137 -0.093 -18.180 -0.093 -18.471 -0.107 -18.853 -0.088 -18.857 -0.087 -18.870 -0.086 -18.900 -0.088 -18.938 -0.102 -19.038 -0.098 -19.042 -0.098 -19.049 -0.100 -19.054 -0.102 -19.014 -0.170 6.207 0.109 3.516 0.163 43.117 41.571
133.800 -16.354 -0.173 -17.649 -0.108 -18.034 -0.089 -18.097 -0.088 -18.107 -0.088 -18.150 -0.088 -18.440 -0.103 -18.820 -0.083 -18.825 -0.082 -18.837 -0.081 -18.867 -0.084 -18.906 -0.098 -19.008 -0.094 -19.013 -0.093 -19.021 -0.095 -19.026 -0.098 -18.994 -0.164 6.211 0.106 3.465 0.156 43.105 41.547
134.200 -16.326 -0.168 -17.620 -0.104 -18.004 -0.083 -18.067 -0.082 -18.077 -0.082 -18.120 -0.082 -18.408 -0.099 -18.787 -0.079 -18.792 -0.078 -18.804 -0.076 -18.834 -0.079 -18.873 -0.094 -18.979 -0.089 -18.984 -0.089 -18.992 -0.091 -18.997 -0.094 -18.975 -0.159 6.215 0.103 3.413 0.150 43.093 41.521
134.600 -16.298 -0.164 -17.591 -0.099 -17.974 -0.078 -18.036 -0.077 -18.046 -0.077 -18.089 -0.077 -18.376 -0.095 -18.754 -0.074 -18.759 -0.073 -18.771 -0.072 -18.800 -0.075 -18.840 -0.090 -18.949 -0.085 -18.954 -0.085 -18.963 -0.087 -18.969 -0.090 -18.954 -0.155 6.219 0.100 3.361 0.143 43.081 41.495
135.000 -16.270 -0.161 -17.561 -0.095 -17.943 -0.073 -18.005 -0.071 -18.015 -0.071 -18.058 -0.072 -18.344 -0.091 -18.720 -0.070 -18.725 -0.069 -18.737 -0.067 -18.767 -0.071 -18.807 -0.087 -18.919 -0.081 -18.925 -0.081 -18.934 -0.083 -18.940 -0.087 -18.934 -0.150 6.224 0.097 3.310 0.137 43.069 41.468
135.400 -16.242 -0.158 -17.531 -0.092 -17.912 -0.068 -17.974 -0.067 -17.984 -0.066 -18.026 -0.067 -18.312 -0.088 -18.686 -0.066 -18.691 -0.065 -18.703 -0.063 -18.733 -0.067 -18.774 -0.084 -18.890 -0.078 -18.895 -0.077 -18.905 -0.080 -18.912 -0.083 -18.914 -0.147 6.228 0.094 3.258 0.130 43.056 41.440
135.800 -16.214 -0.155 -17.501 -0.089 -17.881 -0.064 -17.942 -0.062 -17.952 -0.062 -17.994 -0.063 -18.279 -0.086 -18.652 -0.063 -18.657 -0.062 -18.669 -0.060 -18.699 -0.064 -18.740 -0.081 -18.860 -0.075 -18.865 -0.074 -18.876 -0.077 -18.883 -0.081 -18.893 -0.144 6.232 0.091 3.208 0.124 43.044 41.412
136.200 -16.186 -0.154 -17.470 -0.086 -17.849 -0.060 -17.910 -0.059 -17.920 -0.059 -17.962 -0.059 -18.246 -0.084 -18.618 -0.061 -18.622 -0.060 -18.635 -0.057 -18.664 -0.061 -18.707 -0.080 -18.830 -0.073 -18.836 -0.072 -18.847 -0.075 -18.854 -0.079 -18.873 -0.142 6.235 0.087 3.160 0.118 43.031 41.384
136.600 -16.158 -0.153 -17.439 -0.085 -17.817 -0.058 -17.878 -0.056 -17.888 -0.056 -17.929 -0.057 -18.212 -0.083 -18.583 -0.059 -18.588 -0.058 -18.600 -0.056 -18.630 -0.060 -18.673 -0.079 -18.800 -0.072 -18.806 -0.071 -18.818 -0.074 -18.825 -0.078 -18.852 -0.141 6.236 0.084 3.113 0.112 43.019 41.358
137.000 -16.130 -0.153 -17.408 -0.084 -17.784 -0.057 -17.845 -0.055 -17.855 -0.055 -17.897 -0.056 -18.179 -0.082 -18.549 -0.059 -18.553 -0.058 -18.565 -0.056 -18.596 -0.060 -18.639 -0.078 -18.770 -0.072 -18.776 -0.071 -18.788 -0.074 -18.796 -0.079 -18.831 -0.141 6.235 0.082 3.070 0.107 43.006 41.333
137.400 -16.102 -0.153 -17.376 -0.085 -17.751 -0.058 -17.812 -0.056 -17.822 -0.056 -17.864 -0.057 -18.145 -0.083 -18.514 -0.060 -18.518 -0.059 -18.531 -0.057 -18.561 -0.061 -18.606 -0.079 -18.739 -0.073 -18.746 -0.072 -18.759 -0.075 -18.767 -0.080 -18.809 -0.142 6.231 0.079 3.029 0.103 42.994 41.310
137.800 -16.075 -0.155 -17.344 -0.087 -17.718 -0.060 -17.779 -0.059 -17.789 -0.059 -17.830 -0.059 -18.111 -0.085 -18.479 -0.063 -18.484 -0.062 -18.496 -0.060 -18.527 -0.063 -18.572 -0.081 -18.709 -0.075 -18.716 -0.075 -18.730 -0.078 -18.738 -0.082 -18.788 -0.143 6.224 0.077 2.992 0.100 42.981 41.289
138.200 -16.047 -0.158 -17.312 -0.090 -17.685 -0.064 -17.746 -0.063 -17.755 -0.062 -17.797 -0.063 -18.077 -0.087 -18.444 -0.067 -18.449 -0.066 -18.461 -0.064 -18.492 -0.067 -18.539 -0.083 -18.679 -0.079 -18.686 -0.078 -18.700 -0.082 -18.709 -0.086 -18.766 -0.146 6.214 0.076 2.958 0.097 42.968 41.270
138.600 -16.020 -0.161 -17.280 -0.094 -17.651 -0.069 -17.712 -0.068 -17.721 -0.068 -17.763 -0.068 -18.043 -0.091 -18.409 -0.071 -18.414 -0.070 -18.426 -0.069 -18.458 -0.071 -18.505 -0.087 -18.649 -0.083 -18.657 -0.083 -18.671 -0.086 -18.679 -0.090 -18.745 -0.150 6.203 0.074 2.926 0.094 42.956 41.251
