"Time (MJD)" G-5850.88 G-5850.88_err cyan-5182.42 cyan-5182.42_err g-4746.48 g-4746.48_err g-4793.46 g-4793.46_err i-7589.41 i-7589.41_err i-7829.03 i-7829.03_err orange-6629.82 orange-6629.82_err r-6120.65 r-6120.65_err r-6366.38 r-6366.38_err u-3513.68 u-3513.68_err z-8970.57 z-8970.57_err "Temp./1e3 (K)" "Temp. Err." "Radius/1e15 (cm)" "Radius Err." "Log10(Bol. Lum)" "Log10(Bol. Err)"
-35.000 -16.941 -0.222 -16.814 -0.135 -16.806 -0.134 -16.737 -0.127 -16.595 -0.128 -16.534 -0.130 -16.477 -0.133 -16.417 -0.137 -16.199 -0.159 -16.146 -0.169 -15.904 -0.254 12.089 1.546 0.387 0.062 42.357 41.663
-34.600 -17.033 -0.216 -16.915 -0.127 -16.908 -0.126 -16.839 -0.120 -16.698 -0.122 -16.635 -0.125 -16.578 -0.128 -16.516 -0.131 -16.293 -0.155 -16.238 -0.164 -15.988 -0.250 19.240 0.756 0.244 0.009 42.765 41.684
-34.200 -17.125 -0.209 -17.017 -0.120 -17.010 -0.119 -16.943 -0.114 -16.801 -0.117 -16.738 -0.120 -16.679 -0.123 -16.616 -0.127 -16.387 -0.151 -16.330 -0.160 -16.071 -0.247 19.345 0.875 0.254 0.011 42.810 41.791
-33.800 -17.217 -0.204 -17.120 -0.114 -17.113 -0.113 -17.047 -0.109 -16.904 -0.113 -16.840 -0.116 -16.781 -0.119 -16.717 -0.123 -16.481 -0.147 -16.423 -0.158 -16.155 -0.244 19.441 0.998 0.265 0.013 42.854 41.891
-33.400 -17.309 -0.199 -17.223 -0.108 -17.216 -0.107 -17.152 -0.104 -17.009 -0.109 -16.944 -0.113 -16.883 -0.116 -16.818 -0.121 -16.576 -0.145 -16.516 -0.156 -16.239 -0.242 19.522 1.123 0.277 0.015 42.899 41.985
-33.000 -17.401 -0.194 -17.326 -0.103 -17.320 -0.102 -17.256 -0.099 -17.113 -0.106 -17.048 -0.110 -16.986 -0.114 -16.919 -0.118 -16.671 -0.144 -16.609 -0.154 -16.323 -0.242 19.587 1.248 0.289 0.018 42.942 42.073
-32.600 -17.492 -0.190 -17.429 -0.099 -17.423 -0.098 -17.361 -0.096 -17.218 -0.104 -17.151 -0.108 -17.089 -0.112 -17.020 -0.117 -16.765 -0.143 -16.702 -0.154 -16.406 -0.241 19.633 1.372 0.302 0.020 42.985 42.155
-32.200 -17.582 -0.187 -17.532 -0.094 -17.526 -0.093 -17.465 -0.092 -17.322 -0.102 -17.255 -0.107 -17.192 -0.111 -17.122 -0.116 -16.860 -0.143 -16.794 -0.154 -16.490 -0.242 19.658 1.493 0.316 0.023 43.027 42.232
-31.800 -17.671 -0.184 -17.634 -0.090 -17.628 -0.089 -17.569 -0.089 -17.426 -0.101 -17.358 -0.105 -17.294 -0.110 -17.223 -0.115 -16.955 -0.144 -16.887 -0.155 -16.573 -0.243 19.660 1.607 0.331 0.026 43.067 42.303
-31.400 -17.760 -0.181 -17.735 -0.086 -17.730 -0.086 -17.672 -0.086 -17.529 -0.099 -17.461 -0.104 -17.396 -0.109 -17.324 -0.114 -17.049 -0.144 -16.979 -0.156 -16.656 -0.244 19.639 1.713 0.347 0.029 43.107 42.369
-31.000 -17.847 -0.179 -17.835 -0.083 -17.830 -0.082 -17.774 -0.084 -17.632 -0.098 -17.563 -0.103 -17.497 -0.108 -17.423 -0.114 -17.142 -0.146 -17.071 -0.157 -16.739 -0.246 19.594 1.808 0.364 0.033 43.144 42.430
-30.600 -17.933 -0.177 -17.933 -0.079 -17.928 -0.079 -17.875 -0.081 -17.733 -0.097 -17.664 -0.103 -17.597 -0.108 -17.522 -0.114 -17.235 -0.147 -17.162 -0.159 -16.821 -0.248 19.524 1.891 0.383 0.036 43.181 42.485
-30.200 -18.017 -0.175 -18.030 -0.076 -18.025 -0.075 -17.973 -0.079 -17.832 -0.096 -17.763 -0.102 -17.696 -0.107 -17.620 -0.113 -17.327 -0.148 -17.252 -0.161 -16.903 -0.250 19.429 1.960 0.402 0.040 43.215 42.535
-29.800 -18.099 -0.173 -18.124 -0.073 -18.120 -0.072 -18.070 -0.076 -17.930 -0.095 -17.861 -0.101 -17.793 -0.106 -17.717 -0.113 -17.419 -0.150 -17.342 -0.163 -16.984 -0.253 19.308 2.014 0.423 0.043 43.248 42.580
-29.400 -18.179 -0.172 -18.216 -0.069 -18.213 -0.069 -18.164 -0.074 -18.026 -0.094 -17.957 -0.100 -17.889 -0.105 -17.812 -0.112 -17.509 -0.151 -17.430 -0.165 -17.064 -0.256 19.160 2.050 0.445 0.047 43.279 42.619
-29.000 -18.257 -0.171 -18.306 -0.067 -18.302 -0.066 -18.256 -0.072 -18.120 -0.092 -18.051 -0.099 -17.983 -0.104 -17.906 -0.112 -17.598 -0.153 -17.518 -0.167 -17.144 -0.259 18.983 2.069 0.468 0.051 43.307 42.652
-28.600 -18.333 -0.171 -18.392 -0.064 -18.389 -0.064 -18.345 -0.071 -18.211 -0.091 -18.143 -0.098 -18.075 -0.103 -17.997 -0.111 -17.685 -0.154 -17.604 -0.169 -17.222 -0.262 18.777 2.069 0.493 0.055 43.333 42.679
-28.200 -18.407 -0.170 -18.476 -0.063 -18.473 -0.062 -18.431 -0.070 -18.300 -0.090 -18.233 -0.096 -18.165 -0.102 -18.087 -0.110 -17.771 -0.156 -17.689 -0.171 -17.300 -0.265 18.538 2.051 0.520 0.058 43.357 42.701
-27.800 -18.478 -0.170 -18.555 -0.062 -18.553 -0.061 -18.513 -0.069 -18.386 -0.089 -18.320 -0.095 -18.253 -0.101 -18.175 -0.109 -17.856 -0.157 -17.772 -0.172 -17.376 -0.268 18.267 2.016 0.548 0.062 43.378 42.716
-27.400 -18.547 -0.169 -18.631 -0.061 -18.629 -0.061 -18.592 -0.068 -18.469 -0.088 -18.404 -0.094 -18.338 -0.099 -18.260 -0.108 -17.938 -0.158 -17.853 -0.174 -17.452 -0.270 17.965 1.967 0.579 0.066 43.395 42.726
-27.000 -18.613 -0.169 -18.703 -0.062 -18.701 -0.062 -18.667 -0.068 -18.550 -0.087 -18.486 -0.092 -18.420 -0.098 -18.343 -0.107 -18.019 -0.159 -17.933 -0.176 -17.526 -0.273 17.641 1.907 0.611 0.069 43.411 42.732
-26.600 -18.677 -0.169 -18.771 -0.063 -18.770 -0.063 -18.739 -0.069 -18.627 -0.086 -18.564 -0.091 -18.500 -0.097 -18.423 -0.106 -18.098 -0.160 -18.012 -0.177 -17.599 -0.276 17.305 1.840 0.645 0.072 43.424 42.733
-26.200 -18.738 -0.169 -18.836 -0.064 -18.835 -0.064 -18.807 -0.069 -18.701 -0.085 -18.640 -0.090 -18.577 -0.095 -18.501 -0.104 -18.175 -0.161 -18.088 -0.179 -17.671 -0.279 16.964 1.768 0.680 0.076 43.436 42.731
-25.800 -18.797 -0.169 -18.897 -0.066 -18.896 -0.065 -18.872 -0.070 -18.771 -0.085 -18.713 -0.089 -18.651 -0.094 -18.576 -0.104 -18.250 -0.162 -18.162 -0.180 -17.741 -0.281 16.627 1.694 0.716 0.079 43.446 42.726
-25.400 -18.853 -0.169 -18.955 -0.067 -18.955 -0.066 -18.934 -0.071 -18.839 -0.084 -18.782 -0.088 -18.722 -0.093 -18.648 -0.103 -18.323 -0.163 -18.235 -0.181 -17.810 -0.284 16.297 1.619 0.754 0.082 43.456 42.720
-25.000 -18.906 -0.169 -19.010 -0.068 -19.010 -0.067 -18.992 -0.071 -18.903 -0.084 -18.849 -0.088 -18.790 -0.093 -18.718 -0.102 -18.394 -0.163 -18.305 -0.182 -17.877 -0.286 15.979 1.544 0.793 0.085 43.465 42.711
-24.600 -18.958 -0.169 -19.062 -0.069 -19.062 -0.068 -19.046 -0.072 -18.964 -0.084 -18.912 -0.087 -18.855 -0.093 -18.784 -0.102 -18.462 -0.164 -18.373 -0.183 -17.943 -0.288 15.674 1.470 0.832 0.087 43.473 42.700
-24.200 -19.007 -0.169 -19.111 -0.069 -19.111 -0.069 -19.098 -0.072 -19.022 -0.084 -18.973 -0.087 -18.917 -0.093 -18.848 -0.102 -18.528 -0.165 -18.439 -0.184 -18.008 -0.290 15.383 1.397 0.871 0.090 43.481 42.688
-23.800 -19.053 -0.169 -19.157 -0.069 -19.157 -0.069 -19.147 -0.072 -19.077 -0.084 -19.030 -0.088 -18.976 -0.093 -18.908 -0.102 -18.592 -0.165 -18.503 -0.185 -18.071 -0.292 15.104 1.326 0.911 0.092 43.489 42.673
-23.400 -19.098 -0.168 -19.200 -0.069 -19.201 -0.068 -19.193 -0.072 -19.130 -0.084 -19.084 -0.088 -19.033 -0.093 -18.966 -0.102 -18.653 -0.165 -18.565 -0.185 -18.132 -0.294 14.838 1.256 0.952 0.094 43.495 42.657
-23.000 -19.141 -0.168 -19.241 -0.068 -19.242 -0.067 -19.237 -0.071 -19.179 -0.084 -19.136 -0.088 -19.086 -0.093 -19.021 -0.103 -18.712 -0.166 -18.624 -0.186 -18.192 -0.296 14.582 1.188 0.993 0.095 43.502 42.640
-22.600 -19.181 -0.168 -19.280 -0.066 -19.281 -0.066 -19.278 -0.070 -19.226 -0.084 -19.185 -0.088 -19.137 -0.094 -19.074 -0.103 -18.769 -0.166 -18.681 -0.186 -18.250 -0.297 14.337 1.123 1.034 0.097 43.508 42.620
-22.200 -19.220 -0.168 -19.317 -0.065 -19.318 -0.064 -19.317 -0.069 -19.270 -0.084 -19.231 -0.088 -19.185 -0.094 -19.124 -0.103 -18.823 -0.166 -18.736 -0.186 -18.306 -0.298 14.102 1.060 1.075 0.098 43.513 42.600
-21.800 -19.257 -0.167 -19.352 -0.063 -19.353 -0.062 -19.354 -0.068 -19.312 -0.083 -19.275 -0.088 -19.231 -0.094 -19.171 -0.103 -18.875 -0.166 -18.789 -0.186 -18.361 -0.299 13.877 1.000 1.117 0.099 43.518 42.578
-21.400 -19.293 -0.167 -19.385 -0.061 -19.386 -0.060 -19.389 -0.066 -19.351 -0.083 -19.316 -0.088 -19.274 -0.093 -19.216 -0.102 -18.925 -0.165 -18.840 -0.186 -18.414 -0.300 13.661 0.944 1.158 0.100 43.522 42.555
-21.000 -19.327 -0.166 -19.416 -0.058 -19.417 -0.058 -19.422 -0.065 -19.388 -0.082 -19.356 -0.087 -19.315 -0.093 -19.259 -0.101 -18.972 -0.165 -18.888 -0.186 -18.466 -0.301 13.457 0.891 1.200 0.100 43.527 42.532
-20.600 -19.360 -0.166 -19.446 -0.056 -19.447 -0.056 -19.453 -0.063 -19.424 -0.081 -19.392 -0.086 -19.353 -0.092 -19.299 -0.100 -19.018 -0.164 -18.935 -0.186 -18.516 -0.302 13.265 0.841 1.241 0.100 43.531 42.509
-20.200 -19.391 -0.166 -19.475 -0.054 -19.476 -0.054 -19.483 -0.062 -19.457 -0.080 -19.427 -0.085 -19.389 -0.090 -19.337 -0.099 -19.061 -0.163 -18.979 -0.185 -18.564 -0.302 13.088 0.796 1.281 0.101 43.536 42.486
-19.800 -19.422 -0.165 -19.502 -0.053 -19.504 -0.052 -19.512 -0.060 -19.488 -0.078 -19.460 -0.083 -19.423 -0.089 -19.372 -0.098 -19.101 -0.163 -19.021 -0.185 -18.611 -0.303 12.928 0.754 1.320 0.100 43.540 42.466
-19.400 -19.451 -0.165 -19.529 -0.052 -19.531 -0.052 -19.539 -0.059 -19.518 -0.077 -19.491 -0.082 -19.455 -0.087 -19.405 -0.096 -19.140 -0.162 -19.061 -0.184 -18.656 -0.303 12.789 0.717 1.358 0.100 43.546 42.448
-19.000 -19.479 -0.165 -19.556 -0.052 -19.557 -0.051 -19.566 -0.058 -19.546 -0.075 -19.520 -0.079 -19.485 -0.085 -19.436 -0.094 -19.177 -0.160 -19.099 -0.183 -18.700 -0.303 12.671 0.684 1.393 0.099 43.552 42.433
-18.600 -19.506 -0.165 -19.581 -0.052 -19.583 -0.052 -19.591 -0.057 -19.572 -0.072 -19.547 -0.077 -19.513 -0.082 -19.465 -0.091 -19.212 -0.159 -19.135 -0.182 -18.742 -0.303 12.570 0.652 1.426 0.098 43.558 42.421
-18.200 -19.533 -0.165 -19.606 -0.053 -19.607 -0.052 -19.615 -0.056 -19.597 -0.069 -19.572 -0.074 -19.539 -0.079 -19.492 -0.088 -19.245 -0.158 -19.170 -0.181 -18.783 -0.303 12.483 0.623 1.457 0.096 43.565 42.409
-17.800 -19.558 -0.165 -19.630 -0.054 -19.631 -0.053 -19.639 -0.055 -19.621 -0.066 -19.596 -0.070 -19.563 -0.076 -19.517 -0.085 -19.276 -0.156 -19.203 -0.180 -18.822 -0.303 12.407 0.594 1.486 0.095 43.572 42.398
-17.400 -19.583 -0.165 -19.652 -0.054 -19.654 -0.053 -19.661 -0.054 -19.643 -0.063 -19.618 -0.067 -19.586 -0.072 -19.541 -0.082 -19.305 -0.155 -19.234 -0.178 -18.860 -0.302 12.339 0.566 1.514 0.092 43.578 42.386
-17.000 -19.606 -0.165 -19.674 -0.055 -19.675 -0.054 -19.682 -0.053 -19.663 -0.059 -19.639 -0.062 -19.607 -0.068 -19.563 -0.078 -19.333 -0.153 -19.263 -0.177 -18.897 -0.302 12.277 0.539 1.541 0.090 43.585 42.374
-16.600 -19.629 -0.165 -19.695 -0.055 -19.696 -0.054 -19.702 -0.052 -19.683 -0.055 -19.659 -0.058 -19.627 -0.064 -19.583 -0.074 -19.359 -0.151 -19.291 -0.176 -18.932 -0.301 12.219 0.511 1.567 0.087 43.591 42.360
-16.200 -19.651 -0.165 -19.715 -0.055 -19.716 -0.054 -19.720 -0.050 -19.701 -0.050 -19.677 -0.053 -19.645 -0.059 -19.602 -0.071 -19.384 -0.150 -19.318 -0.175 -18.966 -0.301 12.165 0.483 1.591 0.083 43.597 42.345
-15.800 -19.673 -0.166 -19.734 -0.055 -19.735 -0.053 -19.738 -0.048 -19.718 -0.046 -19.694 -0.048 -19.662 -0.055 -19.620 -0.067 -19.407 -0.148 -19.343 -0.173 -18.999 -0.300 12.114 0.456 1.615 0.080 43.602 42.328
-15.400 -19.693 -0.166 -19.752 -0.055 -19.752 -0.053 -19.754 -0.046 -19.734 -0.041 -19.710 -0.043 -19.678 -0.050 -19.636 -0.063 -19.430 -0.147 -19.367 -0.172 -19.031 -0.299 12.067 0.429 1.638 0.076 43.608 42.311
-15.000 -19.713 -0.166 -19.769 -0.054 -19.769 -0.052 -19.770 -0.044 -19.749 -0.036 -19.724 -0.038 -19.693 -0.046 -19.652 -0.060 -19.451 -0.146 -19.390 -0.171 -19.061 -0.298 12.025 0.404 1.659 0.073 43.613 42.293
-14.600 -19.733 -0.166 -19.784 -0.054 -19.785 -0.052 -19.784 -0.043 -19.762 -0.031 -19.738 -0.034 -19.707 -0.043 -19.666 -0.058 -19.471 -0.145 -19.412 -0.170 -19.091 -0.297 11.992 0.381 1.677 0.069 43.617 42.276
-14.200 -19.751 -0.167 -19.799 -0.054 -19.799 -0.052 -19.797 -0.041 -19.775 -0.027 -19.751 -0.031 -19.720 -0.041 -19.680 -0.056 -19.490 -0.144 -19.433 -0.169 -19.120 -0.296 11.971 0.361 1.692 0.066 43.622 42.259
-13.800 -19.769 -0.167 -19.813 -0.054 -19.813 -0.052 -19.809 -0.041 -19.786 -0.025 -19.762 -0.030 -19.732 -0.040 -19.693 -0.056 -19.509 -0.143 -19.453 -0.169 -19.147 -0.295 11.967 0.343 1.703 0.063 43.627 42.243
-13.400 -19.786 -0.167 -19.826 -0.055 -19.825 -0.053 -19.820 -0.041 -19.797 -0.025 -19.773 -0.031 -19.744 -0.041 -19.705 -0.057 -19.526 -0.143 -19.473 -0.168 -19.174 -0.294 11.981 0.327 1.710 0.060 43.633 42.227
-13.000 -19.803 -0.168 -19.838 -0.056 -19.837 -0.054 -19.830 -0.041 -19.806 -0.028 -19.783 -0.033 -19.754 -0.043 -19.717 -0.058 -19.543 -0.142 -19.491 -0.167 -19.200 -0.292 12.013 0.311 1.712 0.057 43.638 42.211
-12.600 -19.819 -0.168 -19.849 -0.057 -19.849 -0.055 -19.840 -0.042 -19.815 -0.032 -19.792 -0.037 -19.764 -0.046 -19.728 -0.060 -19.560 -0.142 -19.509 -0.167 -19.225 -0.291 12.056 0.297 1.711 0.055 43.644 42.195
-12.200 -19.835 -0.169 -19.861 -0.059 -19.860 -0.057 -19.850 -0.044 -19.823 -0.037 -19.801 -0.041 -19.773 -0.049 -19.738 -0.062 -19.575 -0.142 -19.526 -0.166 -19.249 -0.290 12.105 0.284 1.709 0.052 43.650 42.179
-11.800 -19.850 -0.169 -19.872 -0.061 -19.871 -0.059 -19.860 -0.047 -19.831 -0.042 -19.809 -0.046 -19.782 -0.053 -19.748 -0.065 -19.591 -0.142 -19.543 -0.166 -19.273 -0.288 12.156 0.271 1.706 0.049 43.656 42.164
-11.400 -19.865 -0.170 -19.883 -0.063 -19.881 -0.060 -19.869 -0.050 -19.839 -0.047 -19.817 -0.050 -19.791 -0.057 -19.758 -0.067 -19.605 -0.142 -19.559 -0.165 -19.296 -0.286 12.206 0.259 1.704 0.047 43.662 42.150
-11.000 -19.879 -0.170 -19.893 -0.064 -19.892 -0.062 -19.879 -0.053 -19.846 -0.051 -19.825 -0.054 -19.799 -0.060 -19.768 -0.070 -19.620 -0.142 -19.575 -0.165 -19.319 -0.285 12.253 0.248 1.703 0.045 43.668 42.135
-10.600 -19.893 -0.171 -19.904 -0.066 -19.903 -0.064 -19.888 -0.056 -19.854 -0.056 -19.832 -0.058 -19.808 -0.063 -19.777 -0.073 -19.634 -0.142 -19.591 -0.164 -19.340 -0.283 12.295 0.238 1.702 0.043 43.674 42.123
-10.200 -19.907 -0.171 -19.915 -0.068 -19.913 -0.067 -19.898 -0.059 -19.861 -0.059 -19.840 -0.062 -19.816 -0.066 -19.786 -0.075 -19.648 -0.141 -19.606 -0.164 -19.362 -0.281 12.332 0.229 1.703 0.041 43.679 42.111
-9.800 -19.920 -0.172 -19.925 -0.070 -19.923 -0.069 -19.907 -0.062 -19.869 -0.063 -19.847 -0.065 -19.824 -0.069 -19.795 -0.077 -19.661 -0.141 -19.621 -0.163 -19.382 -0.279 12.364 0.221 1.704 0.039 43.685 42.103
-9.400 -19.933 -0.172 -19.935 -0.072 -19.934 -0.071 -19.916 -0.064 -19.876 -0.066 -19.855 -0.068 -19.831 -0.071 -19.803 -0.078 -19.675 -0.141 -19.635 -0.162 -19.403 -0.277 12.390 0.216 1.707 0.038 43.690 42.099
-9.000 -19.946 -0.173 -19.946 -0.074 -19.944 -0.073 -19.925 -0.067 -19.884 -0.069 -19.862 -0.070 -19.839 -0.073 -19.812 -0.080 -19.688 -0.140 -19.650 -0.161 -19.422 -0.274 12.412 0.213 1.711 0.038 43.695 42.099
-8.600 -19.958 -0.173 -19.956 -0.076 -19.954 -0.075 -19.935 -0.070 -19.892 -0.071 -19.870 -0.072 -19.847 -0.075 -19.821 -0.080 -19.701 -0.139 -19.664 -0.160 -19.442 -0.272 12.429 0.213 1.715 0.038 43.699 42.103
-8.200 -19.970 -0.173 -19.966 -0.079 -19.964 -0.077 -19.944 -0.072 -19.899 -0.073 -19.878 -0.074 -19.856 -0.076 -19.830 -0.081 -19.714 -0.138 -19.678 -0.159 -19.461 -0.269 12.442 0.214 1.720 0.038 43.704 42.112
-7.800 -19.982 -0.174 -19.976 -0.081 -19.974 -0.079 -19.953 -0.074 -19.907 -0.075 -19.885 -0.075 -19.864 -0.076 -19.839 -0.081 -19.726 -0.137 -19.692 -0.158 -19.479 -0.266 12.450 0.218 1.727 0.039 43.708 42.126
-7.400 -19.994 -0.174 -19.986 -0.083 -19.984 -0.082 -19.962 -0.077 -19.915 -0.076 -19.893 -0.075 -19.872 -0.076 -19.848 -0.080 -19.739 -0.136 -19.706 -0.156 -19.498 -0.263 12.453 0.223 1.734 0.040 43.712 42.143
-7.000 -20.005 -0.174 -19.996 -0.086 -19.994 -0.084 -19.971 -0.079 -19.923 -0.076 -19.902 -0.076 -19.881 -0.076 -19.857 -0.080 -19.752 -0.135 -19.719 -0.155 -19.515 -0.260 12.452 0.230 1.742 0.041 43.716 42.162
-6.600 -20.017 -0.175 -20.006 -0.088 -20.003 -0.087 -19.980 -0.080 -19.932 -0.077 -19.910 -0.075 -19.889 -0.075 -19.866 -0.079 -19.765 -0.133 -19.733 -0.153 -19.533 -0.257 12.447 0.238 1.751 0.043 43.719 42.182
-6.200 -20.028 -0.175 -20.016 -0.090 -20.013 -0.089 -19.989 -0.082 -19.940 -0.077 -19.919 -0.075 -19.898 -0.074 -19.876 -0.077 -19.778 -0.131 -19.747 -0.151 -19.550 -0.254 12.437 0.247 1.760 0.044 43.723 42.204
-5.800 -20.038 -0.175 -20.025 -0.092 -20.023 -0.091 -19.998 -0.083 -19.949 -0.076 -19.927 -0.074 -19.907 -0.073 -19.885 -0.075 -19.791 -0.129 -19.760 -0.149 -19.567 -0.250 12.423 0.256 1.771 0.046 43.726 42.225
-5.400 -20.049 -0.174 -20.035 -0.094 -20.033 -0.092 -20.008 -0.084 -19.958 -0.076 -19.937 -0.073 -19.917 -0.071 -19.895 -0.073 -19.803 -0.127 -19.774 -0.147 -19.583 -0.247 12.404 0.266 1.782 0.048 43.729 42.246
-5.000 -20.059 -0.174 -20.045 -0.095 -20.042 -0.093 -20.017 -0.084 -19.967 -0.075 -19.946 -0.071 -19.926 -0.069 -19.905 -0.071 -19.817 -0.125 -19.788 -0.144 -19.600 -0.243 12.382 0.275 1.795 0.050 43.732 42.266
-4.600 -20.070 -0.173 -20.055 -0.096 -20.052 -0.094 -20.027 -0.085 -19.976 -0.073 -19.955 -0.069 -19.936 -0.067 -19.916 -0.069 -19.830 -0.123 -19.801 -0.142 -19.616 -0.239 12.356 0.285 1.808 0.052 43.735 42.285
-4.200 -20.080 -0.173 -20.065 -0.097 -20.062 -0.095 -20.036 -0.084 -19.986 -0.071 -19.965 -0.067 -19.947 -0.064 -19.927 -0.066 -19.843 -0.120 -19.815 -0.139 -19.631 -0.234 12.325 0.293 1.822 0.054 43.737 42.302
-3.800 -20.089 -0.172 -20.075 -0.097 -20.072 -0.095 -20.046 -0.084 -19.996 -0.069 -19.975 -0.064 -19.957 -0.061 -19.938 -0.063 -19.856 -0.118 -19.829 -0.137 -19.646 -0.230 12.291 0.301 1.838 0.056 43.740 42.318
-3.400 -20.099 -0.170 -20.085 -0.096 -20.082 -0.095 -20.056 -0.083 -20.006 -0.067 -19.986 -0.061 -19.968 -0.058 -19.949 -0.060 -19.870 -0.115 -19.843 -0.134 -19.661 -0.226 12.254 0.308 1.854 0.058 43.742 42.331
-3.000 -20.108 -0.169 -20.095 -0.096 -20.092 -0.094 -20.066 -0.081 -20.016 -0.064 -19.997 -0.058 -19.979 -0.055 -19.961 -0.057 -19.883 -0.113 -19.856 -0.131 -19.675 -0.221 12.212 0.314 1.871 0.060 43.744 42.343
-2.600 -20.117 -0.167 -20.105 -0.095 -20.102 -0.093 -20.076 -0.080 -20.027 -0.061 -20.008 -0.055 -19.991 -0.051 -19.973 -0.054 -19.896 -0.110 -19.870 -0.128 -19.690 -0.216 12.168 0.318 1.889 0.062 43.746 42.353
-2.200 -20.126 -0.165 -20.115 -0.094 -20.112 -0.092 -20.086 -0.077 -20.037 -0.057 -20.019 -0.051 -20.003 -0.048 -19.986 -0.051 -19.910 -0.108 -19.883 -0.125 -19.703 -0.211 12.120 0.322 1.908 0.063 43.748 42.361
-1.800 -20.134 -0.163 -20.125 -0.092 -20.122 -0.090 -20.096 -0.075 -20.048 -0.053 -20.030 -0.047 -20.015 -0.045 -19.999 -0.048 -19.923 -0.106 -19.896 -0.123 -19.716 -0.206 12.069 0.325 1.927 0.065 43.749 42.367
-1.400 -20.142 -0.160 -20.135 -0.090 -20.132 -0.088 -20.106 -0.073 -20.059 -0.049 -20.042 -0.043 -20.027 -0.041 -20.012 -0.046 -19.936 -0.103 -19.909 -0.120 -19.729 -0.200 12.017 0.328 1.948 0.066 43.751 42.373
-1.000 -20.149 -0.157 -20.145 -0.088 -20.142 -0.086 -20.116 -0.070 -20.070 -0.045 -20.054 -0.040 -20.040 -0.038 -20.025 -0.043 -19.949 -0.101 -19.922 -0.117 -19.741 -0.195 11.964 0.329 1.968 0.068 43.753 42.377
-0.600 -20.156 -0.154 -20.155 -0.086 -20.152 -0.084 -20.127 -0.067 -20.081 -0.041 -20.065 -0.036 -20.052 -0.036 -20.037 -0.042 -19.962 -0.098 -19.934 -0.114 -19.753 -0.189 11.914 0.330 1.989 0.069 43.754 42.380
-0.200 -20.163 -0.151 -20.164 -0.084 -20.162 -0.082 -20.137 -0.064 -20.092 -0.037 -20.077 -0.033 -20.064 -0.034 -20.050 -0.041 -19.974 -0.096 -19.946 -0.111 -19.764 -0.183 11.867 0.330 2.008 0.070 43.756 42.381
0.200 -20.169 -0.147 -20.174 -0.081 -20.171 -0.079 -20.147 -0.062 -20.103 -0.034 -20.088 -0.031 -20.076 -0.033 -20.062 -0.040 -19.985 -0.094 -19.958 -0.108 -19.775 -0.177 11.827 0.329 2.027 0.071 43.758 42.381
0.600 -20.174 -0.143 -20.184 -0.079 -20.181 -0.077 -20.158 -0.060 -20.114 -0.031 -20.099 -0.029 -20.087 -0.032 -20.074 -0.040 -19.997 -0.091 -19.969 -0.105 -19.785 -0.171 11.798 0.326 2.043 0.071 43.760 42.377
1.000 -20.179 -0.139 -20.193 -0.076 -20.190 -0.074 -20.168 -0.058 -20.125 -0.030 -20.110 -0.029 -20.098 -0.033 -20.085 -0.041 -20.007 -0.089 -19.979 -0.101 -19.794 -0.165 11.781 0.319 2.056 0.071 43.764 42.370
1.400 -20.183 -0.135 -20.202 -0.074 -20.200 -0.072 -20.178 -0.056 -20.135 -0.030 -20.121 -0.030 -20.109 -0.035 -20.095 -0.042 -20.017 -0.087 -19.989 -0.098 -19.803 -0.159 11.772 0.308 2.068 0.069 43.767 42.357
1.800 -20.186 -0.131 -20.211 -0.072 -20.209 -0.070 -20.187 -0.055 -20.146 -0.032 -20.131 -0.032 -20.119 -0.037 -20.105 -0.044 -20.026 -0.084 -19.998 -0.095 -19.811 -0.152 11.768 0.294 2.079 0.066 43.771 42.339
2.200 -20.188 -0.126 -20.219 -0.070 -20.217 -0.068 -20.197 -0.055 -20.156 -0.034 -20.141 -0.034 -20.128 -0.038 -20.114 -0.045 -20.035 -0.081 -20.006 -0.091 -19.818 -0.145 11.765 0.279 2.090 0.064 43.775 42.319
2.600 -20.189 -0.121 -20.227 -0.068 -20.225 -0.066 -20.206 -0.054 -20.165 -0.037 -20.150 -0.037 -20.137 -0.040 -20.122 -0.046 -20.042 -0.079 -20.013 -0.088 -19.824 -0.139 11.761 0.263 2.100 0.061 43.779 42.297
3.000 -20.189 -0.116 -20.234 -0.066 -20.232 -0.065 -20.214 -0.054 -20.174 -0.039 -20.159 -0.039 -20.145 -0.042 -20.129 -0.047 -20.049 -0.076 -20.020 -0.084 -19.830 -0.132 11.756 0.248 2.109 0.057 43.782 42.273
3.400 -20.188 -0.111 -20.240 -0.064 -20.239 -0.063 -20.222 -0.054 -20.182 -0.041 -20.166 -0.040 -20.151 -0.043 -20.135 -0.047 -20.054 -0.073 -20.025 -0.080 -19.834 -0.125 11.749 0.232 2.118 0.054 43.785 42.247
3.800 -20.186 -0.106 -20.245 -0.062 -20.244 -0.061 -20.228 -0.054 -20.189 -0.043 -20.173 -0.042 -20.157 -0.043 -20.140 -0.047 -20.059 -0.070 -20.030 -0.077 -19.838 -0.119 11.741 0.216 2.127 0.051 43.787 42.219
4.200 -20.182 -0.101 -20.250 -0.061 -20.249 -0.060 -20.234 -0.053 -20.195 -0.044 -20.178 -0.042 -20.162 -0.043 -20.145 -0.046 -20.063 -0.066 -20.033 -0.073 -19.841 -0.112 11.729 0.201 2.135 0.048 43.789 42.189
4.600 -20.176 -0.096 -20.253 -0.059 -20.252 -0.058 -20.238 -0.053 -20.200 -0.044 -20.183 -0.042 -20.166 -0.043 -20.148 -0.046 -20.065 -0.063 -20.036 -0.069 -19.843 -0.106 11.714 0.186 2.142 0.044 43.789 42.156
5.000 -20.169 -0.092 -20.254 -0.057 -20.254 -0.057 -20.242 -0.053 -20.204 -0.045 -20.186 -0.042 -20.169 -0.042 -20.149 -0.045 -20.066 -0.060 -20.037 -0.065 -19.844 -0.100 11.696 0.171 2.149 0.041 43.790 42.121
5.400 -20.159 -0.087 -20.255 -0.056 -20.254 -0.056 -20.244 -0.053 -20.206 -0.045 -20.188 -0.041 -20.170 -0.041 -20.150 -0.043 -20.066 -0.056 -20.037 -0.061 -19.845 -0.094 11.673 0.156 2.156 0.038 43.789 42.084
5.800 -20.148 -0.083 -20.253 -0.055 -20.253 -0.055 -20.244 -0.053 -20.207 -0.045 -20.188 -0.041 -20.170 -0.040 -20.149 -0.042 -20.065 -0.053 -20.035 -0.058 -19.844 -0.088 11.647 0.142 2.162 0.034 43.787 42.043
6.200 -20.135 -0.079 -20.250 -0.054 -20.250 -0.054 -20.243 -0.053 -20.206 -0.044 -20.187 -0.040 -20.168 -0.039 -20.147 -0.041 -20.062 -0.051 -20.033 -0.055 -19.842 -0.083 11.614 0.128 2.168 0.031 43.785 41.998
6.600 -20.119 -0.076 -20.245 -0.054 -20.246 -0.054 -20.240 -0.053 -20.204 -0.044 -20.185 -0.039 -20.165 -0.038 -20.143 -0.040 -20.058 -0.049 -20.029 -0.053 -19.840 -0.079 11.576 0.115 2.174 0.028 43.782 41.948
7.000 -20.102 -0.073 -20.239 -0.054 -20.239 -0.053 -20.235 -0.053 -20.200 -0.044 -20.181 -0.039 -20.161 -0.037 -20.138 -0.039 -20.053 -0.047 -20.023 -0.052 -19.836 -0.076 11.532 0.101 2.179 0.025 43.777 41.891
7.400 -20.081 -0.071 -20.230 -0.053 -20.231 -0.053 -20.229 -0.053 -20.195 -0.044 -20.175 -0.039 -20.154 -0.037 -20.132 -0.039 -20.045 -0.047 -20.016 -0.051 -19.832 -0.074 11.481 0.088 2.185 0.022 43.772 41.825
7.800 -20.058 -0.069 -20.220 -0.053 -20.221 -0.053 -20.221 -0.053 -20.188 -0.045 -20.167 -0.040 -20.147 -0.038 -20.124 -0.039 -20.037 -0.047 -20.008 -0.051 -19.827 -0.072 11.422 0.076 2.191 0.019 43.765 41.753
8.200 -20.033 -0.068 -20.207 -0.053 -20.209 -0.053 -20.211 -0.053 -20.179 -0.046 -20.159 -0.041 -20.138 -0.039 -20.115 -0.040 -20.027 -0.047 -19.999 -0.051 -19.821 -0.071 11.354 0.065 2.198 0.017 43.757 41.676
8.600 -20.006 -0.067 -20.193 -0.052 -20.195 -0.052 -20.199 -0.052 -20.168 -0.046 -20.148 -0.042 -20.128 -0.040 -20.104 -0.041 -20.016 -0.048 -19.988 -0.051 -19.814 -0.070 11.278 0.056 2.205 0.015 43.749 41.599
9.000 -19.977 -0.066 -20.177 -0.052 -20.179 -0.051 -20.185 -0.052 -20.156 -0.047 -20.136 -0.043 -20.116 -0.041 -20.093 -0.042 -20.004 -0.049 -19.977 -0.052 -19.807 -0.070 11.195 0.049 2.213 0.013 43.739 41.531
9.400 -19.946 -0.065 -20.159 -0.050 -20.161 -0.050 -20.170 -0.051 -20.143 -0.048 -20.123 -0.044 -20.103 -0.042 -20.080 -0.042 -19.991 -0.049 -19.964 -0.052 -19.798 -0.069 11.104 0.045 2.222 0.012 43.728 41.478
9.800 -19.912 -0.064 -20.139 -0.049 -20.142 -0.049 -20.153 -0.050 -20.128 -0.048 -20.109 -0.045 -20.089 -0.043 -20.066 -0.043 -19.977 -0.049 -19.951 -0.052 -19.790 -0.069 11.007 0.043 2.232 0.012 43.717 41.441
10.200 -19.878 -0.062 -20.117 -0.047 -20.121 -0.047 -20.134 -0.049 -20.112 -0.048 -20.093 -0.045 -20.074 -0.043 -20.052 -0.043 -19.963 -0.049 -19.937 -0.052 -19.780 -0.068 10.905 0.042 2.243 0.012 43.705 41.416
10.600 -19.841 -0.061 -20.094 -0.044 -20.098 -0.044 -20.114 -0.047 -20.095 -0.048 -20.077 -0.045 -20.058 -0.044 -20.036 -0.043 -19.948 -0.049 -19.922 -0.052 -19.770 -0.068 10.798 0.042 2.255 0.012 43.692 41.396
11.000 -19.804 -0.059 -20.069 -0.042 -20.073 -0.042 -20.092 -0.045 -20.076 -0.048 -20.059 -0.045 -20.041 -0.044 -20.020 -0.043 -19.932 -0.048 -19.907 -0.051 -19.760 -0.067 10.686 0.041 2.267 0.013 43.679 41.374
11.400 -19.765 -0.057 -20.042 -0.039 -20.047 -0.039 -20.069 -0.043 -20.057 -0.047 -20.041 -0.045 -20.024 -0.043 -20.003 -0.043 -19.916 -0.047 -19.892 -0.050 -19.749 -0.066 10.569 0.041 2.281 0.013 43.665 41.348
11.800 -19.725 -0.056 -20.014 -0.036 -20.019 -0.036 -20.045 -0.041 -20.037 -0.046 -20.022 -0.044 -20.006 -0.043 -19.986 -0.043 -19.900 -0.045 -19.877 -0.049 -19.738 -0.065 10.450 0.040 2.295 0.013 43.651 41.315
12.200 -19.684 -0.054 -19.985 -0.033 -19.990 -0.033 -20.020 -0.039 -20.016 -0.046 -20.003 -0.044 -19.988 -0.043 -19.969 -0.043 -19.884 -0.044 -19.861 -0.047 -19.727 -0.064 10.327 0.039 2.311 0.013 43.636 41.279
12.600 -19.643 -0.053 -19.955 -0.030 -19.961 -0.030 -19.994 -0.037 -19.995 -0.045 -19.984 -0.043 -19.970 -0.043 -19.951 -0.043 -19.868 -0.043 -19.846 -0.046 -19.715 -0.064 10.203 0.038 2.328 0.013 43.622 41.245
13.000 -19.601 -0.052 -19.924 -0.028 -19.931 -0.028 -19.967 -0.036 -19.974 -0.044 -19.964 -0.043 -19.951 -0.042 -19.934 -0.043 -19.853 -0.041 -19.831 -0.045 -19.703 -0.063 10.077 0.038 2.346 0.014 43.607 41.220
13.400 -19.559 -0.052 -19.893 -0.027 -19.900 -0.027 -19.940 -0.035 -19.953 -0.044 -19.945 -0.042 -19.933 -0.042 -19.917 -0.043 -19.837 -0.041 -19.816 -0.045 -19.691 -0.063 9.950 0.039 2.365 0.015 43.592 41.213
13.800 -19.517 -0.052 -19.862 -0.028 -19.869 -0.027 -19.914 -0.035 -19.932 -0.044 -19.926 -0.042 -19.916 -0.042 -19.900 -0.042 -19.823 -0.041 -19.801 -0.045 -19.678 -0.064 9.825 0.042 2.385 0.016 43.577 41.226
14.200 -19.475 -0.054 -19.831 -0.029 -19.839 -0.029 -19.887 -0.035 -19.912 -0.044 -19.907 -0.042 -19.898 -0.042 -19.884 -0.042 -19.808 -0.042 -19.787 -0.046 -19.666 -0.065 9.702 0.046 2.407 0.018 43.563 41.254
14.600 -19.433 -0.056 -19.800 -0.031 -19.808 -0.031 -19.860 -0.036 -19.892 -0.044 -19.889 -0.043 -19.882 -0.042 -19.869 -0.042 -19.794 -0.043 -19.773 -0.047 -19.654 -0.066 9.582 0.052 2.429 0.021 43.549 41.289
15.000 -19.392 -0.058 -19.770 -0.033 -19.779 -0.033 -19.834 -0.037 -19.872 -0.044 -19.872 -0.043 -19.866 -0.042 -19.854 -0.042 -19.781 -0.044 -19.760 -0.048 -19.641 -0.067 9.464 0.057 2.451 0.024 43.536 41.324
15.400 -19.351 -0.061 -19.740 -0.035 -19.750 -0.034 -19.809 -0.037 -19.853 -0.044 -19.855 -0.043 -19.850 -0.041 -19.839 -0.042 -19.768 -0.045 -19.747 -0.049 -19.629 -0.068 9.350 0.064 2.475 0.027 43.523 41.356
15.800 -19.310 -0.064 -19.712 -0.036 -19.722 -0.036 -19.784 -0.038 -19.835 -0.044 -19.839 -0.042 -19.835 -0.041 -19.826 -0.041 -19.756 -0.046 -19.735 -0.049 -19.616 -0.070 9.240 0.070 2.498 0.031 43.511 41.384
16.200 -19.270 -0.066 -19.684 -0.037 -19.695 -0.036 -19.761 -0.038 -19.817 -0.043 -19.823 -0.042 -19.821 -0.040 -19.812 -0.040 -19.744 -0.046 -19.723 -0.050 -19.604 -0.071 9.134 0.076 2.522 0.035 43.499 41.407
16.600 -19.231 -0.069 -19.658 -0.037 -19.669 -0.037 -19.738 -0.038 -19.800 -0.043 -19.808 -0.041 -19.807 -0.039 -19.800 -0.039 -19.732 -0.047 -19.711 -0.050 -19.592 -0.072 9.033 0.082 2.547 0.038 43.488 41.424
17.000 -19.193 -0.071 -19.633 -0.037 -19.644 -0.037 -19.717 -0.038 -19.783 -0.042 -19.793 -0.040 -19.794 -0.038 -19.787 -0.038 -19.721 -0.046 -19.699 -0.050 -19.580 -0.073 8.937 0.087 2.570 0.042 43.478 41.437
17.400 -19.156 -0.073 -19.609 -0.036 -19.621 -0.036 -19.697 -0.038 -19.767 -0.042 -19.779 -0.039 -19.781 -0.037 -19.775 -0.037 -19.710 -0.045 -19.688 -0.049 -19.569 -0.074 8.847 0.092 2.593 0.045 43.468 41.444
17.800 -19.120 -0.075 -19.586 -0.035 -19.598 -0.035 -19.678 -0.037 -19.752 -0.041 -19.765 -0.038 -19.768 -0.035 -19.764 -0.036 -19.699 -0.044 -19.678 -0.048 -19.557 -0.075 8.761 0.095 2.615 0.048 43.458 41.447
18.200 -19.085 -0.077 -19.564 -0.034 -19.576 -0.034 -19.660 -0.037 -19.737 -0.040 -19.751 -0.037 -19.756 -0.035 -19.752 -0.036 -19.689 -0.043 -19.667 -0.048 -19.546 -0.076 8.683 0.098 2.635 0.050 43.449 41.444
18.600 -19.051 -0.080 -19.542 -0.033 -19.555 -0.033 -19.642 -0.037 -19.722 -0.040 -19.737 -0.037 -19.743 -0.034 -19.740 -0.036 -19.679 -0.042 -19.657 -0.047 -19.535 -0.077 8.610 0.100 2.653 0.052 43.440 41.437
19.000 -19.019 -0.082 -19.521 -0.033 -19.535 -0.032 -19.625 -0.037 -19.708 -0.040 -19.724 -0.037 -19.731 -0.035 -19.729 -0.037 -19.669 -0.042 -19.647 -0.046 -19.524 -0.078 8.545 0.101 2.668 0.054 43.432 41.428
19.400 -18.989 -0.085 -19.501 -0.033 -19.515 -0.032 -19.608 -0.038 -19.694 -0.041 -19.711 -0.038 -19.718 -0.037 -19.718 -0.038 -19.660 -0.042 -19.638 -0.047 -19.514 -0.079 8.485 0.102 2.680 0.056 43.424 41.421
19.800 -18.961 -0.087 -19.480 -0.034 -19.495 -0.034 -19.591 -0.039 -19.681 -0.043 -19.698 -0.040 -19.706 -0.039 -19.707 -0.040 -19.651 -0.043 -19.629 -0.048 -19.503 -0.080 8.431 0.104 2.691 0.058 43.416 41.419
20.200 -18.935 -0.091 -19.460 -0.036 -19.475 -0.036 -19.574 -0.041 -19.668 -0.045 -19.686 -0.042 -19.695 -0.042 -19.696 -0.043 -19.642 -0.044 -19.620 -0.049 -19.493 -0.082 8.381 0.106 2.700 0.060 43.409 41.424
20.600 -18.910 -0.094 -19.441 -0.040 -19.456 -0.039 -19.558 -0.043 -19.656 -0.047 -19.675 -0.045 -19.684 -0.045 -19.686 -0.046 -19.634 -0.047 -19.612 -0.052 -19.484 -0.085 8.335 0.109 2.708 0.062 43.402 41.433
21.000 -18.887 -0.098 -19.421 -0.043 -19.437 -0.043 -19.542 -0.046 -19.644 -0.050 -19.664 -0.048 -19.673 -0.048 -19.676 -0.049 -19.625 -0.050 -19.603 -0.054 -19.474 -0.087 8.293 0.113 2.715 0.065 43.395 41.444
21.400 -18.866 -0.102 -19.403 -0.048 -19.419 -0.047 -19.527 -0.050 -19.632 -0.053 -19.653 -0.052 -19.663 -0.052 -19.666 -0.052 -19.617 -0.054 -19.595 -0.057 -19.465 -0.090 8.255 0.116 2.721 0.067 43.389 41.456
21.800 -18.845 -0.106 -19.385 -0.052 -19.401 -0.051 -19.512 -0.053 -19.621 -0.056 -19.643 -0.055 -19.654 -0.055 -19.657 -0.055 -19.610 -0.057 -19.588 -0.061 -19.456 -0.092 8.219 0.120 2.726 0.070 43.383 41.467
22.200 -18.827 -0.110 -19.369 -0.056 -19.385 -0.056 -19.497 -0.057 -19.611 -0.059 -19.633 -0.058 -19.644 -0.058 -19.648 -0.058 -19.602 -0.060 -19.580 -0.064 -19.447 -0.095 8.187 0.123 2.731 0.073 43.378 41.478
22.600 -18.809 -0.114 -19.353 -0.060 -19.369 -0.060 -19.484 -0.060 -19.600 -0.062 -19.624 -0.061 -19.635 -0.060 -19.639 -0.061 -19.595 -0.064 -19.573 -0.067 -19.439 -0.097 8.157 0.127 2.734 0.075 43.373 41.488
23.000 -18.792 -0.118 -19.338 -0.065 -19.354 -0.064 -19.471 -0.063 -19.590 -0.065 -19.615 -0.063 -19.627 -0.063 -19.631 -0.063 -19.589 -0.066 -19.566 -0.070 -19.430 -0.100 8.130 0.130 2.737 0.077 43.368 41.497
23.400 -18.777 -0.122 -19.323 -0.068 -19.340 -0.068 -19.458 -0.067 -19.581 -0.067 -19.606 -0.066 -19.619 -0.065 -19.624 -0.065 -19.582 -0.069 -19.560 -0.072 -19.422 -0.102 8.105 0.134 2.739 0.080 43.363 41.505
23.800 -18.762 -0.126 -19.310 -0.072 -19.327 -0.071 -19.446 -0.069 -19.572 -0.069 -19.597 -0.067 -19.611 -0.066 -19.616 -0.066 -19.576 -0.071 -19.553 -0.074 -19.414 -0.104 8.082 0.137 2.741 0.082 43.359 41.513
24.200 -18.748 -0.130 -19.297 -0.075 -19.314 -0.074 -19.435 -0.072 -19.563 -0.070 -19.589 -0.069 -19.603 -0.068 -19.609 -0.067 -19.570 -0.073 -19.547 -0.076 -19.406 -0.105 8.060 0.140 2.743 0.084 43.355 41.520
24.600 -18.735 -0.133 -19.285 -0.077 -19.302 -0.077 -19.424 -0.074 -19.555 -0.071 -19.582 -0.070 -19.596 -0.068 -19.602 -0.068 -19.564 -0.074 -19.541 -0.077 -19.399 -0.106 8.039 0.143 2.745 0.086 43.351 41.526
25.000 -18.722 -0.137 -19.274 -0.080 -19.291 -0.079 -19.414 -0.075 -19.546 -0.072 -19.574 -0.070 -19.589 -0.069 -19.595 -0.068 -19.558 -0.075 -19.535 -0.078 -19.392 -0.107 8.019 0.146 2.747 0.088 43.347 41.532
25.400 -18.710 -0.140 -19.262 -0.081 -19.280 -0.081 -19.404 -0.077 -19.539 -0.073 -19.567 -0.071 -19.582 -0.069 -19.589 -0.068 -19.552 -0.075 -19.529 -0.078 -19.384 -0.108 8.000 0.149 2.748 0.090 43.343 41.538
25.800 -18.698 -0.143 -19.252 -0.083 -19.269 -0.082 -19.394 -0.077 -19.531 -0.073 -19.560 -0.071 -19.575 -0.069 -19.582 -0.068 -19.547 -0.075 -19.524 -0.078 -19.377 -0.108 7.982 0.151 2.750 0.092 43.340 41.543
26.200 -18.687 -0.145 -19.241 -0.084 -19.258 -0.083 -19.384 -0.078 -19.523 -0.073 -19.553 -0.070 -19.569 -0.069 -19.576 -0.068 -19.541 -0.074 -19.518 -0.078 -19.371 -0.108 7.963 0.154 2.751 0.094 43.336 41.547
26.600 -18.676 -0.148 -19.231 -0.084 -19.248 -0.083 -19.374 -0.078 -19.515 -0.072 -19.546 -0.070 -19.562 -0.068 -19.570 -0.068 -19.536 -0.074 -19.512 -0.077 -19.364 -0.108 7.945 0.157 2.753 0.096 43.333 41.550
27.000 -18.665 -0.150 -19.220 -0.084 -19.238 -0.083 -19.364 -0.078 -19.507 -0.072 -19.538 -0.069 -19.555 -0.067 -19.564 -0.067 -19.530 -0.073 -19.507 -0.076 -19.358 -0.107 7.927 0.159 2.754 0.097 43.329 41.552
27.400 -18.654 -0.152 -19.210 -0.084 -19.227 -0.083 -19.355 -0.078 -19.499 -0.071 -19.531 -0.068 -19.548 -0.067 -19.557 -0.066 -19.524 -0.071 -19.501 -0.075 -19.352 -0.106 7.908 0.160 2.756 0.099 43.326 41.553
27.800 -18.644 -0.154 -19.199 -0.084 -19.217 -0.083 -19.344 -0.077 -19.490 -0.070 -19.523 -0.067 -19.541 -0.065 -19.550 -0.065 -19.518 -0.070 -19.494 -0.074 -19.346 -0.105 7.889 0.162 2.757 0.100 43.322 41.551
28.200 -18.634 -0.155 -19.188 -0.083 -19.206 -0.082 -19.334 -0.076 -19.481 -0.069 -19.515 -0.066 -19.533 -0.064 -19.542 -0.064 -19.511 -0.068 -19.488 -0.072 -19.340 -0.104 7.870 0.162 2.759 0.100 43.318 41.548
28.600 -18.623 -0.156 -19.177 -0.082 -19.194 -0.081 -19.323 -0.075 -19.472 -0.068 -19.506 -0.064 -19.525 -0.063 -19.534 -0.063 -19.504 -0.067 -19.481 -0.071 -19.335 -0.103 7.850 0.162 2.760 0.101 43.314 41.542
29.000 -18.613 -0.157 -19.165 -0.081 -19.183 -0.080 -19.311 -0.074 -19.462 -0.066 -19.496 -0.063 -19.515 -0.062 -19.525 -0.062 -19.497 -0.065 -19.474 -0.069 -19.330 -0.102 7.829 0.161 2.761 0.101 43.310 41.534
29.400 -18.603 -0.158 -19.153 -0.080 -19.170 -0.079 -19.299 -0.073 -19.451 -0.065 -19.486 -0.062 -19.505 -0.061 -19.515 -0.061 -19.488 -0.064 -19.466 -0.068 -19.325 -0.101 7.807 0.160 2.762 0.100 43.305 41.524
29.800 -18.593 -0.159 -19.140 -0.079 -19.158 -0.078 -19.287 -0.072 -19.439 -0.065 -19.475 -0.061 -19.495 -0.060 -19.505 -0.060 -19.479 -0.063 -19.458 -0.067 -19.321 -0.100 7.784 0.157 2.763 0.099 43.300 41.510
30.200 -18.583 -0.159 -19.127 -0.078 -19.144 -0.077 -19.274 -0.071 -19.427 -0.064 -19.463 -0.061 -19.483 -0.059 -19.494 -0.060 -19.470 -0.063 -19.449 -0.067 -19.318 -0.099 7.761 0.154 2.763 0.098 43.295 41.494
30.600 -18.573 -0.159 -19.113 -0.077 -19.131 -0.075 -19.260 -0.070 -19.415 -0.063 -19.451 -0.060 -19.471 -0.059 -19.482 -0.059 -19.459 -0.063 -19.439 -0.066 -19.315 -0.098 7.738 0.150 2.763 0.096 43.290 41.475
31.000 -18.563 -0.160 -19.099 -0.075 -19.117 -0.074 -19.247 -0.069 -19.402 -0.062 -19.438 -0.059 -19.459 -0.058 -19.470 -0.058 -19.449 -0.062 -19.430 -0.066 -19.312 -0.097 7.713 0.146 2.763 0.094 43.285 41.454
31.400 -18.553 -0.160 -19.086 -0.073 -19.103 -0.072 -19.233 -0.067 -19.389 -0.062 -19.425 -0.059 -19.446 -0.057 -19.458 -0.057 -19.438 -0.062 -19.420 -0.066 -19.310 -0.096 7.688 0.142 2.764 0.092 43.279 41.433
31.800 -18.544 -0.159 -19.072 -0.072 -19.089 -0.070 -19.219 -0.066 -19.376 -0.061 -19.412 -0.058 -19.433 -0.057 -19.445 -0.056 -19.426 -0.062 -19.410 -0.066 -19.308 -0.096 7.663 0.138 2.764 0.090 43.274 41.411
32.200 -18.534 -0.159 -19.058 -0.069 -19.075 -0.068 -19.205 -0.064 -19.363 -0.060 -19.400 -0.058 -19.421 -0.056 -19.432 -0.055 -19.415 -0.062 -19.400 -0.065 -19.306 -0.095 7.636 0.135 2.766 0.088 43.268 41.389
32.600 -18.525 -0.159 -19.044 -0.067 -19.062 -0.066 -19.192 -0.062 -19.350 -0.059 -19.387 -0.057 -19.408 -0.055 -19.420 -0.054 -19.404 -0.061 -19.390 -0.065 -19.305 -0.094 7.609 0.131 2.768 0.087 43.263 41.368
33.000 -18.517 -0.158 -19.031 -0.064 -19.048 -0.063 -19.179 -0.060 -19.338 -0.058 -19.375 -0.056 -19.396 -0.054 -19.408 -0.054 -19.394 -0.060 -19.381 -0.064 -19.304 -0.093 7.582 0.128 2.771 0.086 43.257 41.349
33.400 -18.508 -0.158 -19.019 -0.061 -19.036 -0.060 -19.166 -0.058 -19.326 -0.057 -19.364 -0.054 -19.385 -0.053 -19.397 -0.053 -19.383 -0.059 -19.372 -0.063 -19.303 -0.091 7.554 0.126 2.775 0.085 43.252 41.330
33.800 -18.500 -0.157 -19.007 -0.058 -19.024 -0.057 -19.154 -0.056 -19.315 -0.055 -19.353 -0.053 -19.375 -0.052 -19.387 -0.052 -19.373 -0.058 -19.363 -0.062 -19.302 -0.090 7.526 0.123 2.780 0.085 43.247 41.313
34.200 -18.493 -0.157 -18.995 -0.055 -19.012 -0.054 -19.143 -0.053 -19.305 -0.054 -19.344 -0.051 -19.365 -0.050 -19.377 -0.051 -19.364 -0.057 -19.355 -0.061 -19.302 -0.089 7.502 0.122 2.784 0.084 43.243 41.298
34.600 -18.486 -0.156 -18.985 -0.052 -19.002 -0.051 -19.133 -0.051 -19.296 -0.052 -19.335 -0.050 -19.357 -0.049 -19.369 -0.050 -19.355 -0.056 -19.347 -0.059 -19.302 -0.087 7.475 0.120 2.790 0.084 43.239 41.283
35.000 -18.480 -0.156 -18.975 -0.049 -18.992 -0.048 -19.124 -0.049 -19.288 -0.050 -19.327 -0.048 -19.349 -0.047 -19.361 -0.049 -19.348 -0.054 -19.340 -0.058 -19.302 -0.086 7.449 0.119 2.797 0.085 43.235 41.269
35.400 -18.474 -0.155 -18.967 -0.046 -18.984 -0.045 -19.116 -0.047 -19.281 -0.048 -19.320 -0.046 -19.342 -0.046 -19.354 -0.048 -19.341 -0.053 -19.334 -0.057 -19.303 -0.085 7.425 0.118 2.805 0.085 43.231 41.258
35.800 -18.469 -0.155 -18.959 -0.044 -18.976 -0.043 -19.109 -0.045 -19.275 -0.047 -19.314 -0.045 -19.336 -0.045 -19.348 -0.047 -19.335 -0.052 -19.329 -0.056 -19.304 -0.084 7.403 0.117 2.812 0.085 43.229 41.248
36.200 -18.465 -0.154 -18.953 -0.043 -18.970 -0.042 -19.103 -0.044 -19.270 -0.045 -19.310 -0.043 -19.331 -0.043 -19.343 -0.046 -19.330 -0.052 -19.325 -0.056 -19.304 -0.083 7.384 0.117 2.819 0.086 43.226 41.240
36.600 -18.461 -0.154 -18.948 -0.042 -18.965 -0.041 -19.098 -0.043 -19.267 -0.044 -19.306 -0.042 -19.328 -0.042 -19.339 -0.045 -19.326 -0.052 -19.321 -0.056 -19.305 -0.083 7.370 0.117 2.825 0.087 43.225 41.235
37.000 -18.458 -0.153 -18.944 -0.042 -18.961 -0.041 -19.095 -0.042 -19.264 -0.042 -19.303 -0.040 -19.325 -0.041 -19.336 -0.044 -19.323 -0.052 -19.319 -0.056 -19.306 -0.083 7.358 0.117 2.830 0.087 43.224 41.232
37.400 -18.456 -0.153 -18.942 -0.042 -18.959 -0.041 -19.092 -0.041 -19.262 -0.040 -19.301 -0.039 -19.322 -0.040 -19.334 -0.044 -19.321 -0.053 -19.317 -0.057 -19.307 -0.083 7.349 0.118 2.835 0.088 43.223 41.229
37.800 -18.454 -0.153 -18.940 -0.042 -18.957 -0.041 -19.091 -0.041 -19.261 -0.039 -19.300 -0.038 -19.321 -0.039 -19.332 -0.043 -19.320 -0.054 -19.316 -0.057 -19.308 -0.083 7.342 0.119 2.839 0.089 43.223 41.227
38.200 -18.453 -0.153 -18.939 -0.041 -18.956 -0.040 -19.090 -0.040 -19.260 -0.037 -19.299 -0.036 -19.320 -0.038 -19.332 -0.043 -19.320 -0.054 -19.316 -0.058 -19.309 -0.083 7.335 0.120 2.844 0.090 43.223 41.223
38.600 -18.452 -0.153 -18.939 -0.041 -18.956 -0.040 -19.090 -0.040 -19.260 -0.035 -19.299 -0.035 -19.320 -0.037 -19.331 -0.042 -19.320 -0.054 -19.316 -0.058 -19.311 -0.083 7.329 0.120 2.850 0.090 43.223 41.219
39.000 -18.453 -0.153 -18.939 -0.041 -18.956 -0.040 -19.091 -0.039 -19.261 -0.034 -19.300 -0.033 -19.321 -0.036 -19.332 -0.041 -19.320 -0.055 -19.316 -0.058 -19.312 -0.083 7.324 0.120 2.855 0.091 43.223 41.214
39.400 -18.454 -0.153 -18.941 -0.040 -18.958 -0.039 -19.092 -0.039 -19.262 -0.032 -19.301 -0.032 -19.321 -0.035 -19.333 -0.040 -19.321 -0.054 -19.317 -0.058 -19.314 -0.083 7.320 0.120 2.861 0.091 43.224 41.207
39.800 -18.455 -0.153 -18.943 -0.039 -18.960 -0.038 -19.094 -0.038 -19.264 -0.031 -19.302 -0.030 -19.322 -0.034 -19.334 -0.039 -19.322 -0.054 -19.318 -0.058 -19.316 -0.083 7.318 0.119 2.865 0.090 43.225 41.201
40.200 -18.457 -0.153 -18.945 -0.039 -18.962 -0.038 -19.096 -0.038 -19.265 -0.030 -19.303 -0.030 -19.324 -0.033 -19.335 -0.039 -19.323 -0.054 -19.319 -0.057 -19.318 -0.082 7.318 0.118 2.867 0.089 43.225 41.195
40.600 -18.459 -0.153 -18.948 -0.038 -18.965 -0.037 -19.098 -0.038 -19.267 -0.031 -19.304 -0.029 -19.325 -0.032 -19.337 -0.038 -19.325 -0.053 -19.321 -0.057 -19.320 -0.082 7.322 0.116 2.866 0.088 43.226 41.190
41.000 -18.462 -0.154 -18.951 -0.038 -18.968 -0.037 -19.101 -0.038 -19.268 -0.032 -19.306 -0.029 -19.327 -0.032 -19.338 -0.038 -19.326 -0.052 -19.322 -0.056 -19.322 -0.082 7.330 0.115 2.862 0.087 43.227 41.190
41.400 -18.465 -0.154 -18.954 -0.039 -18.971 -0.038 -19.104 -0.039 -19.270 -0.033 -19.308 -0.030 -19.329 -0.032 -19.340 -0.038 -19.328 -0.052 -19.323 -0.056 -19.323 -0.081 7.343 0.115 2.855 0.086 43.228 41.193
41.800 -18.469 -0.155 -18.958 -0.040 -18.975 -0.039 -19.107 -0.040 -19.272 -0.034 -19.310 -0.031 -19.331 -0.033 -19.343 -0.039 -19.329 -0.051 -19.325 -0.055 -19.325 -0.081 7.360 0.115 2.846 0.085 43.229 41.201
42.200 -18.473 -0.155 -18.962 -0.041 -18.979 -0.040 -19.110 -0.041 -19.274 -0.036 -19.312 -0.033 -19.334 -0.035 -19.345 -0.040 -19.331 -0.051 -19.326 -0.055 -19.327 -0.081 7.380 0.115 2.834 0.084 43.230 41.212
42.600 -18.477 -0.156 -18.966 -0.044 -18.983 -0.042 -19.113 -0.043 -19.277 -0.038 -19.315 -0.035 -19.336 -0.037 -19.348 -0.041 -19.332 -0.052 -19.327 -0.055 -19.329 -0.081 7.402 0.116 2.822 0.084 43.231 41.225
43.000 -18.481 -0.157 -18.970 -0.046 -18.987 -0.045 -19.117 -0.045 -19.279 -0.041 -19.317 -0.038 -19.339 -0.039 -19.350 -0.043 -19.334 -0.052 -19.328 -0.056 -19.330 -0.082 7.424 0.117 2.809 0.084 43.232 41.239
43.400 -18.486 -0.158 -18.974 -0.048 -18.991 -0.047 -19.120 -0.046 -19.282 -0.043 -19.320 -0.040 -19.342 -0.041 -19.353 -0.044 -19.335 -0.053 -19.329 -0.057 -19.331 -0.082 7.447 0.119 2.796 0.084 43.234 41.252
43.800 -18.491 -0.159 -18.978 -0.051 -18.995 -0.050 -19.124 -0.048 -19.285 -0.045 -19.323 -0.043 -19.344 -0.043 -19.355 -0.046 -19.336 -0.054 -19.330 -0.057 -19.333 -0.083 7.469 0.120 2.784 0.084 43.235 41.266
44.200 -18.496 -0.159 -18.982 -0.053 -18.999 -0.052 -19.128 -0.050 -19.288 -0.047 -19.326 -0.045 -19.347 -0.045 -19.357 -0.047 -19.337 -0.055 -19.331 -0.058 -19.334 -0.083 7.490 0.121 2.773 0.084 43.237 41.278
44.600 -18.501 -0.160 -18.986 -0.054 -19.003 -0.053 -19.131 -0.051 -19.291 -0.048 -19.329 -0.046 -19.349 -0.046 -19.359 -0.048 -19.337 -0.055 -19.331 -0.058 -19.335 -0.084 7.510 0.123 2.762 0.084 43.238 41.288
45.000 -18.506 -0.161 -18.990 -0.056 -19.007 -0.055 -19.135 -0.052 -19.294 -0.049 -19.331 -0.047 -19.352 -0.047 -19.361 -0.049 -19.338 -0.055 -19.331 -0.058 -19.336 -0.084 7.530 0.124 2.752 0.084 43.239 41.298
45.400 -18.511 -0.162 -18.994 -0.057 -19.011 -0.055 -19.138 -0.052 -19.297 -0.049 -19.334 -0.048 -19.354 -0.048 -19.363 -0.050 -19.338 -0.055 -19.331 -0.058 -19.337 -0.084 7.548 0.126 2.743 0.084 43.241 41.307
45.800 -18.516 -0.163 -18.998 -0.057 -19.015 -0.056 -19.142 -0.052 -19.300 -0.049 -19.337 -0.047 -19.356 -0.048 -19.365 -0.050 -19.338 -0.055 -19.331 -0.057 -19.337 -0.085 7.566 0.127 2.734 0.084 43.242 41.315
46.200 -18.521 -0.164 -19.002 -0.057 -19.018 -0.056 -19.145 -0.052 -19.303 -0.048 -19.340 -0.047 -19.359 -0.048 -19.366 -0.050 -19.337 -0.054 -19.330 -0.056 -19.338 -0.085 7.582 0.129 2.726 0.085 43.243 41.322
46.600 -18.527 -0.165 -19.006 -0.057 -19.022 -0.055 -19.149 -0.051 -19.306 -0.047 -19.342 -0.046 -19.361 -0.047 -19.368 -0.049 -19.337 -0.053 -19.330 -0.056 -19.338 -0.085 7.598 0.131 2.718 0.086 43.244 41.329
47.000 -18.532 -0.166 -19.009 -0.056 -19.026 -0.055 -19.152 -0.050 -19.309 -0.045 -19.345 -0.044 -19.363 -0.046 -19.369 -0.049 -19.336 -0.052 -19.329 -0.055 -19.339 -0.085 7.614 0.133 2.711 0.086 43.246 41.335
47.400 -18.537 -0.167 -19.013 -0.056 -19.029 -0.054 -19.155 -0.048 -19.312 -0.042 -19.347 -0.042 -19.364 -0.044 -19.370 -0.048 -19.336 -0.051 -19.328 -0.054 -19.339 -0.086 7.629 0.135 2.704 0.087 43.247 41.341
47.800 -18.542 -0.169 -19.016 -0.055 -19.032 -0.054 -19.158 -0.047 -19.314 -0.040 -19.349 -0.040 -19.366 -0.043 -19.371 -0.047 -19.335 -0.051 -19.327 -0.053 -19.339 -0.087 7.643 0.138 2.698 0.089 43.248 41.346
48.200 -18.547 -0.170 -19.019 -0.055 -19.036 -0.053 -19.161 -0.046 -19.316 -0.037 -19.350 -0.037 -19.367 -0.041 -19.372 -0.047 -19.335 -0.050 -19.327 -0.053 -19.339 -0.088 7.658 0.141 2.692 0.090 43.250 41.349
48.600 -18.552 -0.171 -19.023 -0.056 -19.039 -0.054 -19.163 -0.045 -19.318 -0.034 -19.351 -0.035 -19.367 -0.040 -19.372 -0.046 -19.334 -0.051 -19.326 -0.053 -19.339 -0.090 7.672 0.144 2.687 0.091 43.251 41.351
49.000 -18.557 -0.172 -19.026 -0.057 -19.042 -0.055 -19.165 -0.045 -19.319 -0.031 -19.352 -0.033 -19.368 -0.039 -19.372 -0.046 -19.334 -0.052 -19.326 -0.054 -19.338 -0.092 7.686 0.146 2.681 0.092 43.252 41.350
49.400 -18.562 -0.174 -19.028 -0.059 -19.044 -0.057 -19.167 -0.045 -19.319 -0.029 -19.352 -0.032 -19.367 -0.039 -19.371 -0.046 -19.334 -0.054 -19.326 -0.056 -19.338 -0.095 7.700 0.147 2.675 0.092 43.254 41.347
49.800 -18.567 -0.175 -19.031 -0.061 -19.047 -0.059 -19.168 -0.046 -19.319 -0.028 -19.351 -0.032 -19.366 -0.039 -19.371 -0.047 -19.334 -0.056 -19.326 -0.058 -19.337 -0.098 7.715 0.146 2.668 0.091 43.254 41.341
50.200 -18.571 -0.177 -19.033 -0.064 -19.049 -0.062 -19.169 -0.048 -19.318 -0.029 -19.350 -0.033 -19.365 -0.040 -19.369 -0.048 -19.334 -0.058 -19.326 -0.061 -19.336 -0.101 7.730 0.144 2.659 0.089 43.255 41.335
50.600 -18.575 -0.178 -19.035 -0.067 -19.051 -0.065 -19.170 -0.050 -19.317 -0.031 -19.348 -0.034 -19.363 -0.041 -19.368 -0.049 -19.334 -0.061 -19.327 -0.064 -19.335 -0.104 7.745 0.141 2.648 0.086 43.255 41.329
51.000 -18.580 -0.180 -19.036 -0.070 -19.052 -0.068 -19.169 -0.053 -19.314 -0.035 -19.345 -0.037 -19.361 -0.043 -19.365 -0.050 -19.334 -0.064 -19.327 -0.067 -19.334 -0.108 7.761 0.137 2.636 0.083 43.254 41.324
51.400 -18.583 -0.182 -19.037 -0.073 -19.053 -0.071 -19.169 -0.057 -19.311 -0.039 -19.342 -0.040 -19.358 -0.046 -19.363 -0.052 -19.334 -0.066 -19.327 -0.069 -19.332 -0.111 7.777 0.133 2.624 0.080 43.254 41.320
51.800 -18.587 -0.183 -19.038 -0.077 -19.053 -0.074 -19.167 -0.060 -19.308 -0.043 -19.338 -0.044 -19.354 -0.048 -19.360 -0.054 -19.333 -0.069 -19.326 -0.072 -19.331 -0.115 7.793 0.130 2.611 0.077 43.253 41.316
52.200 -18.591 -0.185 -19.038 -0.080 -19.053 -0.078 -19.166 -0.064 -19.303 -0.048 -19.334 -0.048 -19.350 -0.051 -19.356 -0.056 -19.332 -0.071 -19.326 -0.074 -19.329 -0.118 7.809 0.127 2.598 0.075 43.252 41.314
52.600 -18.594 -0.186 -19.037 -0.083 -19.052 -0.081 -19.163 -0.067 -19.299 -0.052 -19.329 -0.051 -19.345 -0.054 -19.352 -0.058 -19.331 -0.072 -19.325 -0.076 -19.327 -0.121 7.824 0.125 2.585 0.073 43.251 41.313
53.000 -18.597 -0.188 -19.036 -0.086 -19.051 -0.084 -19.160 -0.070 -19.293 -0.056 -19.324 -0.055 -19.340 -0.056 -19.348 -0.060 -19.329 -0.074 -19.323 -0.078 -19.325 -0.124 7.838 0.124 2.572 0.072 43.250 41.314
53.400 -18.599 -0.189 -19.035 -0.089 -19.049 -0.087 -19.157 -0.074 -19.288 -0.060 -19.318 -0.058 -19.335 -0.059 -19.343 -0.062 -19.327 -0.075 -19.322 -0.079 -19.323 -0.127 7.852 0.123 2.560 0.071 43.249 41.317
53.800 -18.602 -0.190 -19.033 -0.091 -19.047 -0.089 -19.153 -0.077 -19.282 -0.063 -19.312 -0.061 -19.329 -0.061 -19.337 -0.064 -19.324 -0.076 -19.319 -0.080 -19.321 -0.129 7.865 0.123 2.547 0.070 43.248 41.321
54.200 -18.604 -0.192 -19.031 -0.094 -19.045 -0.092 -19.149 -0.079 -19.276 -0.066 -19.305 -0.064 -19.323 -0.063 -19.332 -0.065 -19.321 -0.076 -19.317 -0.080 -19.318 -0.131 7.877 0.124 2.535 0.070 43.246 41.327
54.600 -18.605 -0.193 -19.029 -0.095 -19.042 -0.094 -19.145 -0.081 -19.269 -0.069 -19.299 -0.066 -19.316 -0.065 -19.326 -0.066 -19.318 -0.076 -19.314 -0.080 -19.316 -0.133 7.888 0.125 2.523 0.070 43.245 41.334
55.000 -18.607 -0.194 -19.026 -0.097 -19.039 -0.095 -19.140 -0.083 -19.262 -0.071 -19.292 -0.068 -19.309 -0.067 -19.319 -0.067 -19.314 -0.075 -19.310 -0.079 -19.313 -0.135 7.899 0.127 2.511 0.070 43.243 41.342
55.400 -18.608 -0.194 -19.023 -0.098 -19.036 -0.096 -19.135 -0.085 -19.255 -0.073 -19.284 -0.069 -19.302 -0.068 -19.312 -0.068 -19.309 -0.075 -19.306 -0.078 -19.309 -0.137 7.909 0.128 2.499 0.070 43.241 41.350
55.800 -18.609 -0.195 -19.019 -0.099 -19.032 -0.097 -19.130 -0.086 -19.248 -0.074 -19.277 -0.071 -19.294 -0.069 -19.305 -0.069 -19.304 -0.073 -19.301 -0.077 -19.306 -0.138 7.918 0.130 2.488 0.071 43.239 41.358
56.200 -18.610 -0.195 -19.015 -0.100 -19.028 -0.098 -19.124 -0.087 -19.240 -0.075 -19.269 -0.071 -19.286 -0.069 -19.297 -0.069 -19.299 -0.072 -19.296 -0.075 -19.302 -0.139 7.927 0.132 2.476 0.071 43.237 41.366
56.600 -18.611 -0.196 -19.011 -0.100 -19.024 -0.098 -19.118 -0.088 -19.232 -0.076 -19.261 -0.072 -19.278 -0.070 -19.289 -0.069 -19.293 -0.070 -19.291 -0.073 -19.298 -0.141 7.936 0.134 2.463 0.072 43.234 41.374
57.000 -18.611 -0.196 -19.007 -0.100 -19.020 -0.098 -19.112 -0.088 -19.225 -0.076 -19.252 -0.072 -19.270 -0.070 -19.281 -0.068 -19.286 -0.068 -19.285 -0.072 -19.293 -0.142 7.945 0.136 2.451 0.072 43.232 41.382
57.400 -18.611 -0.196 -19.003 -0.100 -19.015 -0.098 -19.106 -0.088 -19.216 -0.076 -19.244 -0.072 -19.261 -0.069 -19.272 -0.068 -19.279 -0.067 -19.279 -0.070 -19.289 -0.142 7.955 0.138 2.438 0.072 43.229 41.389
57.800 -18.611 -0.196 -18.999 -0.099 -19.011 -0.097 -19.100 -0.088 -19.208 -0.076 -19.235 -0.072 -19.252 -0.069 -19.263 -0.067 -19.272 -0.065 -19.272 -0.068 -19.284 -0.143 7.965 0.140 2.425 0.073 43.227 41.396
58.200 -18.611 -0.196 -18.994 -0.098 -19.006 -0.096 -19.094 -0.087 -19.200 -0.076 -19.226 -0.071 -19.243 -0.068 -19.254 -0.066 -19.264 -0.063 -19.264 -0.066 -19.279 -0.144 7.977 0.142 2.410 0.073 43.224 41.402
58.600 -18.610 -0.195 -18.989 -0.097 -19.001 -0.095 -19.087 -0.087 -19.192 -0.076 -19.218 -0.071 -19.234 -0.067 -19.245 -0.066 -19.256 -0.062 -19.257 -0.065 -19.274 -0.145 7.990 0.145 2.395 0.074 43.222 41.408
59.000 -18.610 -0.195 -18.984 -0.096 -18.996 -0.094 -19.081 -0.086 -19.183 -0.075 -19.209 -0.070 -19.225 -0.067 -19.235 -0.065 -19.247 -0.061 -19.249 -0.064 -19.269 -0.146 8.005 0.147 2.379 0.074 43.219 41.413
59.400 -18.609 -0.194 -18.980 -0.095 -18.991 -0.093 -19.075 -0.085 -19.175 -0.075 -19.200 -0.070 -19.215 -0.066 -19.226 -0.064 -19.238 -0.061 -19.240 -0.064 -19.263 -0.146 8.023 0.150 2.361 0.075 43.216 41.418
59.800 -18.608 -0.194 -18.975 -0.093 -18.986 -0.092 -19.069 -0.084 -19.167 -0.075 -19.191 -0.070 -19.206 -0.066 -19.216 -0.063 -19.229 -0.061 -19.232 -0.065 -19.257 -0.147 8.042 0.153 2.342 0.075 43.214 41.423
60.200 -18.607 -0.193 -18.970 -0.092 -18.981 -0.090 -19.063 -0.083 -19.159 -0.074 -19.183 -0.069 -19.197 -0.065 -19.207 -0.063 -19.220 -0.062 -19.223 -0.066 -19.252 -0.148 8.064 0.156 2.323 0.076 43.211 41.426
60.600 -18.606 -0.192 -18.966 -0.091 -18.976 -0.089 -19.057 -0.082 -19.151 -0.074 -19.174 -0.069 -19.188 -0.065 -19.197 -0.063 -19.211 -0.063 -19.214 -0.067 -19.246 -0.149 8.087 0.159 2.303 0.076 43.209 41.429
61.000 -18.605 -0.191 -18.961 -0.089 -18.972 -0.087 -19.051 -0.080 -19.144 -0.073 -19.166 -0.068 -19.179 -0.065 -19.188 -0.062 -19.202 -0.063 -19.205 -0.068 -19.240 -0.149 8.112 0.161 2.283 0.077 43.206 41.431
61.400 -18.604 -0.191 -18.957 -0.087 -18.967 -0.086 -19.046 -0.079 -19.137 -0.072 -19.159 -0.068 -19.171 -0.064 -19.180 -0.062 -19.192 -0.064 -19.196 -0.069 -19.234 -0.150 8.136 0.163 2.264 0.077 43.204 41.431
61.800 -18.602 -0.190 -18.953 -0.085 -18.963 -0.084 -19.041 -0.077 -19.131 -0.072 -19.152 -0.068 -19.164 -0.064 -19.172 -0.062 -19.183 -0.066 -19.187 -0.071 -19.228 -0.151 8.161 0.164 2.245 0.077 43.202 41.429
62.200 -18.601 -0.189 -18.949 -0.083 -18.959 -0.082 -19.036 -0.076 -19.125 -0.071 -19.145 -0.068 -19.157 -0.064 -19.164 -0.062 -19.175 -0.067 -19.179 -0.072 -19.223 -0.151 8.185 0.165 2.227 0.076 43.200 41.426
62.600 -18.600 -0.188 -18.945 -0.081 -18.955 -0.079 -19.031 -0.074 -19.119 -0.071 -19.139 -0.067 -19.150 -0.064 -19.157 -0.062 -19.167 -0.068 -19.170 -0.073 -19.217 -0.152 8.209 0.166 2.210 0.076 43.199 41.422
63.000 -18.599 -0.187 -18.941 -0.079 -18.952 -0.077 -19.027 -0.072 -19.114 -0.070 -19.134 -0.067 -19.145 -0.064 -19.151 -0.062 -19.159 -0.069 -19.162 -0.075 -19.212 -0.152 8.231 0.165 2.194 0.075 43.197 41.416
63.400 -18.598 -0.186 -18.938 -0.077 -18.948 -0.075 -19.024 -0.071 -19.110 -0.070 -19.129 -0.067 -19.140 -0.064 -19.145 -0.062 -19.151 -0.071 -19.155 -0.076 -19.207 -0.153 8.251 0.165 2.179 0.074 43.196 41.409
63.800 -18.597 -0.186 -18.935 -0.074 -18.946 -0.073 -19.020 -0.069 -19.107 -0.069 -19.126 -0.067 -19.136 -0.064 -19.141 -0.063 -19.144 -0.072 -19.148 -0.078 -19.202 -0.153 8.270 0.164 2.167 0.074 43.194 41.401
64.200 -18.595 -0.185 -18.933 -0.073 -18.943 -0.071 -19.018 -0.067 -19.104 -0.069 -19.122 -0.067 -19.132 -0.065 -19.137 -0.064 -19.138 -0.073 -19.141 -0.079 -19.197 -0.153 8.287 0.163 2.155 0.073 43.193 41.394
64.600 -18.594 -0.184 -18.931 -0.071 -18.941 -0.070 -19.015 -0.066 -19.101 -0.069 -19.120 -0.067 -19.130 -0.065 -19.134 -0.064 -19.132 -0.074 -19.135 -0.080 -19.193 -0.153 8.302 0.162 2.145 0.072 43.193 41.386
65.000 -18.593 -0.183 -18.929 -0.070 -18.939 -0.069 -19.013 -0.065 -19.099 -0.068 -19.118 -0.067 -19.128 -0.066 -19.131 -0.065 -19.126 -0.076 -19.129 -0.081 -19.189 -0.152 8.316 0.161 2.136 0.071 43.192 41.380
65.400 -18.592 -0.183 -18.927 -0.069 -18.937 -0.068 -19.012 -0.064 -19.098 -0.068 -19.117 -0.067 -19.126 -0.066 -19.129 -0.066 -19.121 -0.076 -19.123 -0.082 -19.185 -0.152 8.329 0.161 2.129 0.071 43.191 41.376
65.800 -18.591 -0.182 -18.926 -0.069 -18.936 -0.067 -19.011 -0.063 -19.098 -0.068 -19.116 -0.068 -19.125 -0.067 -19.128 -0.067 -19.116 -0.077 -19.118 -0.083 -19.181 -0.151 8.341 0.160 2.122 0.070 43.191 41.372
66.200 -18.591 -0.182 -18.925 -0.069 -18.935 -0.067 -19.010 -0.063 -19.098 -0.068 -19.117 -0.068 -19.125 -0.067 -19.127 -0.067 -19.112 -0.077 -19.113 -0.083 -19.178 -0.150 8.352 0.159 2.116 0.070 43.191 41.370
66.600 -18.590 -0.181 -18.925 -0.069 -18.935 -0.067 -19.010 -0.063 -19.099 -0.068 -19.117 -0.068 -19.126 -0.067 -19.127 -0.067 -19.108 -0.077 -19.109 -0.082 -19.175 -0.149 8.363 0.158 2.111 0.069 43.191 41.369
67.000 -18.589 -0.181 -18.925 -0.069 -18.935 -0.067 -19.011 -0.062 -19.100 -0.067 -19.118 -0.067 -19.127 -0.067 -19.128 -0.067 -19.105 -0.076 -19.105 -0.082 -19.172 -0.148 8.373 0.158 2.106 0.068 43.191 41.369
67.400 -18.588 -0.180 -18.925 -0.068 -18.935 -0.067 -19.011 -0.062 -19.101 -0.067 -19.120 -0.067 -19.128 -0.067 -19.128 -0.067 -19.101 -0.076 -19.101 -0.081 -19.170 -0.146 8.383 0.157 2.102 0.068 43.192 41.369
67.800 -18.588 -0.179 -18.925 -0.068 -18.935 -0.067 -19.012 -0.062 -19.104 -0.067 -19.123 -0.067 -19.130 -0.066 -19.130 -0.066 -19.098 -0.074 -19.097 -0.079 -19.168 -0.144 8.392 0.156 2.099 0.067 43.192 41.371
68.200 -18.587 -0.179 -18.926 -0.068 -18.936 -0.066 -19.013 -0.062 -19.106 -0.066 -19.125 -0.066 -19.133 -0.065 -19.132 -0.065 -19.096 -0.073 -19.094 -0.077 -19.167 -0.142 8.402 0.156 2.095 0.066 43.193 41.374
68.600 -18.586 -0.178 -18.927 -0.067 -18.937 -0.066 -19.015 -0.061 -19.109 -0.065 -19.128 -0.065 -19.136 -0.064 -19.134 -0.064 -19.093 -0.071 -19.091 -0.075 -19.165 -0.140 8.411 0.155 2.092 0.066 43.194 41.377
69.000 -18.585 -0.178 -18.928 -0.066 -18.938 -0.065 -19.017 -0.061 -19.112 -0.064 -19.132 -0.064 -19.139 -0.063 -19.136 -0.063 -19.091 -0.069 -19.088 -0.073 -19.164 -0.137 8.421 0.156 2.089 0.066 43.194 41.382
69.400 -18.585 -0.177 -18.929 -0.065 -18.940 -0.064 -19.019 -0.060 -19.116 -0.064 -19.135 -0.063 -19.142 -0.062 -19.139 -0.062 -19.089 -0.066 -19.085 -0.070 -19.164 -0.135 8.432 0.156 2.086 0.065 43.195 41.387
69.800 -18.584 -0.176 -18.931 -0.064 -18.941 -0.063 -19.022 -0.059 -19.119 -0.062 -19.139 -0.062 -19.145 -0.060 -19.141 -0.060 -19.087 -0.064 -19.083 -0.067 -19.163 -0.132 8.443 0.157 2.083 0.065 43.196 41.394
70.200 -18.582 -0.176 -18.932 -0.062 -18.943 -0.061 -19.024 -0.058 -19.123 -0.061 -19.143 -0.060 -19.149 -0.059 -19.144 -0.059 -19.086 -0.061 -19.081 -0.064 -19.163 -0.129 8.446 0.158 2.083 0.066 43.197 41.400
70.600 -18.581 -0.175 -18.934 -0.061 -18.945 -0.059 -19.027 -0.056 -19.127 -0.060 -19.146 -0.059 -19.152 -0.057 -19.146 -0.057 -19.085 -0.059 -19.079 -0.061 -19.163 -0.127 8.466 0.159 2.077 0.066 43.198 41.409
71.000 -18.580 -0.174 -18.936 -0.059 -18.947 -0.057 -19.030 -0.055 -19.130 -0.059 -19.150 -0.057 -19.155 -0.056 -19.149 -0.056 -19.084 -0.056 -19.078 -0.058 -19.163 -0.124 8.477 0.160 2.073 0.066 43.199 41.416
71.400 -18.578 -0.174 -18.938 -0.056 -18.949 -0.055 -19.033 -0.054 -19.133 -0.057 -19.153 -0.056 -19.158 -0.054 -19.151 -0.054 -19.083 -0.054 -19.077 -0.056 -19.163 -0.121 8.487 0.161 2.070 0.066 43.200 41.420
71.800 -18.576 -0.173 -18.940 -0.054 -18.951 -0.053 -19.035 -0.052 -19.136 -0.056 -19.155 -0.054 -19.160 -0.053 -19.152 -0.053 -19.082 -0.052 -19.076 -0.053 -19.163 -0.119 8.496 0.161 2.068 0.066 43.201 41.422
72.200 -18.574 -0.173 -18.941 -0.052 -18.953 -0.051 -19.038 -0.051 -19.138 -0.055 -19.157 -0.053 -19.161 -0.052 -19.153 -0.052 -19.082 -0.050 -19.075 -0.052 -19.163 -0.116 8.502 0.160 2.066 0.065 43.201 41.420
72.600 -18.571 -0.172 -18.942 -0.050 -18.954 -0.049 -19.039 -0.049 -19.139 -0.054 -19.157 -0.052 -19.161 -0.051 -19.152 -0.051 -19.082 -0.049 -19.075 -0.050 -19.163 -0.114 8.507 0.158 2.064 0.064 43.201 41.414
73.000 -18.568 -0.172 -18.943 -0.048 -18.954 -0.047 -19.040 -0.048 -19.140 -0.053 -19.157 -0.051 -19.160 -0.050 -19.151 -0.051 -19.081 -0.048 -19.074 -0.049 -19.162 -0.112 8.509 0.156 2.062 0.063 43.201 41.405
73.400 -18.564 -0.172 -18.942 -0.046 -18.954 -0.045 -19.040 -0.047 -19.139 -0.052 -19.156 -0.050 -19.158 -0.050 -19.149 -0.051 -19.080 -0.047 -19.073 -0.048 -19.161 -0.111 8.511 0.153 2.061 0.062 43.201 41.393
73.800 -18.560 -0.172 -18.941 -0.045 -18.953 -0.043 -19.040 -0.046 -19.137 -0.052 -19.154 -0.050 -19.155 -0.050 -19.146 -0.051 -19.078 -0.047 -19.072 -0.048 -19.159 -0.110 8.511 0.149 2.059 0.061 43.200 41.380
74.200 -18.555 -0.172 -18.939 -0.044 -18.951 -0.043 -19.038 -0.046 -19.134 -0.052 -19.150 -0.050 -19.151 -0.050 -19.141 -0.052 -19.076 -0.047 -19.070 -0.048 -19.157 -0.110 8.510 0.146 2.056 0.060 43.199 41.367
74.600 -18.550 -0.173 -18.936 -0.044 -18.948 -0.043 -19.034 -0.047 -19.130 -0.053 -19.145 -0.051 -19.146 -0.051 -19.136 -0.053 -19.072 -0.048 -19.067 -0.049 -19.153 -0.110 8.510 0.144 2.053 0.059 43.197 41.356
75.000 -18.544 -0.173 -18.931 -0.046 -18.943 -0.044 -19.030 -0.048 -19.125 -0.054 -19.139 -0.052 -19.139 -0.052 -19.129 -0.054 -19.069 -0.049 -19.063 -0.051 -19.148 -0.111 8.509 0.143 2.049 0.058 43.195 41.350
75.400 -18.537 -0.174 -18.926 -0.048 -18.938 -0.047 -19.024 -0.050 -19.118 -0.056 -19.132 -0.054 -19.132 -0.054 -19.122 -0.056 -19.064 -0.052 -19.059 -0.053 -19.142 -0.112 8.508 0.142 2.044 0.058 43.193 41.347
75.800 -18.530 -0.175 -18.919 -0.052 -18.931 -0.051 -19.018 -0.052 -19.110 -0.058 -19.123 -0.057 -19.123 -0.057 -19.113 -0.058 -19.058 -0.055 -19.054 -0.057 -19.135 -0.114 8.507 0.142 2.038 0.057 43.191 41.346
76.200 -18.523 -0.176 -18.911 -0.056 -18.923 -0.055 -19.010 -0.056 -19.101 -0.060 -19.113 -0.059 -19.113 -0.059 -19.104 -0.060 -19.052 -0.058 -19.049 -0.060 -19.127 -0.117 8.507 0.142 2.032 0.057 43.188 41.346
76.600 -18.514 -0.177 -18.903 -0.060 -18.915 -0.059 -19.001 -0.059 -19.091 -0.063 -19.103 -0.062 -19.103 -0.062 -19.094 -0.063 -19.045 -0.062 -19.043 -0.064 -19.118 -0.120 8.507 0.142 2.024 0.057 43.184 41.346
77.000 -18.505 -0.179 -18.894 -0.065 -18.905 -0.063 -18.992 -0.062 -19.080 -0.065 -19.092 -0.065 -19.092 -0.064 -19.083 -0.065 -19.038 -0.066 -19.035 -0.068 -19.108 -0.123 8.507 0.143 2.016 0.057 43.181 41.347
77.400 -18.496 -0.180 -18.883 -0.069 -18.895 -0.068 -18.981 -0.066 -19.069 -0.068 -19.080 -0.067 -19.080 -0.067 -19.072 -0.068 -19.029 -0.069 -19.027 -0.072 -19.098 -0.126 8.508 0.144 2.006 0.057 43.177 41.347
77.800 -18.486 -0.182 -18.873 -0.073 -18.884 -0.072 -18.970 -0.069 -19.057 -0.071 -19.068 -0.070 -19.068 -0.070 -19.060 -0.070 -19.020 -0.073 -19.019 -0.075 -19.086 -0.129 8.509 0.145 1.996 0.057 43.173 41.347
78.200 -18.475 -0.184 -18.861 -0.077 -18.873 -0.076 -18.959 -0.072 -19.044 -0.073 -19.055 -0.072 -19.055 -0.072 -19.048 -0.072 -19.010 -0.076 -19.009 -0.079 -19.075 -0.133 8.510 0.146 1.985 0.057 43.168 41.347
78.600 -18.464 -0.185 -18.849 -0.081 -18.861 -0.079 -18.947 -0.075 -19.032 -0.075 -19.043 -0.075 -19.043 -0.074 -19.035 -0.075 -18.999 -0.079 -18.999 -0.082 -19.062 -0.136 8.512 0.146 1.974 0.057 43.164 41.345
79.000 -18.453 -0.187 -18.837 -0.084 -18.849 -0.082 -18.934 -0.078 -19.019 -0.077 -19.030 -0.076 -19.030 -0.076 -19.023 -0.076 -18.988 -0.081 -18.988 -0.085 -19.049 -0.139 8.515 0.147 1.962 0.057 43.159 41.343
79.400 -18.441 -0.189 -18.824 -0.087 -18.836 -0.085 -18.922 -0.080 -19.006 -0.079 -19.016 -0.078 -19.016 -0.078 -19.010 -0.078 -18.976 -0.083 -18.976 -0.087 -19.035 -0.142 8.518 0.147 1.950 0.056 43.154 41.339
79.800 -18.429 -0.190 -18.811 -0.089 -18.823 -0.088 -18.909 -0.082 -18.993 -0.080 -19.003 -0.079 -19.003 -0.079 -18.996 -0.079 -18.964 -0.085 -18.964 -0.089 -19.021 -0.145 8.521 0.147 1.937 0.056 43.149 41.335
80.200 -18.416 -0.192 -18.798 -0.091 -18.810 -0.090 -18.896 -0.083 -18.980 -0.081 -18.990 -0.080 -18.990 -0.080 -18.983 -0.080 -18.951 -0.086 -18.951 -0.090 -19.007 -0.148 8.526 0.147 1.924 0.055 43.144 41.330
80.600 -18.403 -0.193 -18.785 -0.093 -18.796 -0.091 -18.883 -0.084 -18.967 -0.081 -18.977 -0.080 -18.977 -0.080 -18.970 -0.081 -18.938 -0.087 -18.937 -0.092 -18.992 -0.151 8.531 0.146 1.910 0.055 43.139 41.324
81.000 -18.390 -0.195 -18.771 -0.094 -18.783 -0.093 -18.870 -0.085 -18.954 -0.081 -18.964 -0.080 -18.963 -0.080 -18.956 -0.081 -18.924 -0.088 -18.924 -0.092 -18.977 -0.153 8.536 0.146 1.896 0.054 43.134 41.317
81.400 -18.376 -0.196 -18.757 -0.095 -18.769 -0.094 -18.857 -0.085 -18.942 -0.081 -18.951 -0.080 -18.950 -0.079 -18.942 -0.080 -18.910 -0.088 -18.909 -0.093 -18.962 -0.156 8.542 0.145 1.882 0.053 43.128 41.310
81.800 -18.362 -0.197 -18.744 -0.096 -18.756 -0.094 -18.844 -0.085 -18.929 -0.080 -18.938 -0.079 -18.936 -0.079 -18.928 -0.080 -18.895 -0.088 -18.895 -0.093 -18.946 -0.158 8.549 0.144 1.868 0.052 43.123 41.302
82.200 -18.348 -0.198 -18.730 -0.096 -18.742 -0.094 -18.831 -0.085 -18.917 -0.078 -18.925 -0.077 -18.923 -0.077 -18.914 -0.078 -18.881 -0.088 -18.880 -0.093 -18.930 -0.160 8.557 0.143 1.854 0.051 43.118 41.294
82.600 -18.334 -0.199 -18.716 -0.096 -18.729 -0.094 -18.818 -0.084 -18.905 -0.076 -18.913 -0.075 -18.910 -0.076 -18.900 -0.077 -18.866 -0.087 -18.865 -0.092 -18.915 -0.162 8.565 0.142 1.839 0.051 43.113 41.287
83.000 -18.320 -0.200 -18.703 -0.096 -18.715 -0.094 -18.806 -0.083 -18.893 -0.074 -18.900 -0.073 -18.897 -0.073 -18.886 -0.075 -18.851 -0.086 -18.850 -0.092 -18.899 -0.164 8.573 0.142 1.825 0.050 43.108 41.281
83.400 -18.306 -0.201 -18.689 -0.095 -18.701 -0.093 -18.794 -0.081 -18.881 -0.071 -18.888 -0.070 -18.883 -0.071 -18.872 -0.073 -18.835 -0.085 -18.835 -0.091 -18.883 -0.165 8.582 0.142 1.811 0.049 43.103 41.276
83.800 -18.292 -0.201 -18.675 -0.095 -18.688 -0.092 -18.781 -0.079 -18.870 -0.068 -18.876 -0.067 -18.870 -0.068 -18.858 -0.071 -18.820 -0.084 -18.820 -0.091 -18.867 -0.167 8.590 0.143 1.797 0.049 43.098 41.272
84.200 -18.277 -0.202 -18.661 -0.094 -18.674 -0.091 -18.769 -0.077 -18.858 -0.065 -18.863 -0.064 -18.857 -0.065 -18.844 -0.069 -18.805 -0.084 -18.805 -0.090 -18.852 -0.168 8.598 0.145 1.784 0.049 43.093 41.271
84.600 -18.263 -0.202 -18.648 -0.093 -18.661 -0.090 -18.757 -0.075 -18.847 -0.061 -18.851 -0.060 -18.843 -0.062 -18.829 -0.066 -18.790 -0.083 -18.790 -0.090 -18.837 -0.170 8.605 0.148 1.771 0.050 43.088 41.272
85.000 -18.248 -0.203 -18.634 -0.092 -18.647 -0.089 -18.744 -0.073 -18.836 -0.057 -18.839 -0.056 -18.830 -0.059 -18.815 -0.063 -18.775 -0.083 -18.775 -0.090 -18.821 -0.171 8.611 0.151 1.759 0.051 43.083 41.276
85.400 -18.234 -0.203 -18.620 -0.090 -18.633 -0.088 -18.732 -0.070 -18.825 -0.053 -18.826 -0.052 -18.816 -0.055 -18.800 -0.061 -18.761 -0.082 -18.761 -0.090 -18.807 -0.173 8.615 0.156 1.747 0.052 43.078 41.282
85.800 -18.220 -0.204 -18.606 -0.089 -18.619 -0.087 -18.719 -0.068 -18.813 -0.048 -18.814 -0.048 -18.802 -0.052 -18.785 -0.059 -18.747 -0.083 -18.747 -0.090 -18.792 -0.174 8.618 0.162 1.736 0.053 43.074 41.290
86.200 -18.205 -0.204 -18.591 -0.088 -18.605 -0.086 -18.706 -0.066 -18.802 -0.044 -18.801 -0.044 -18.788 -0.049 -18.771 -0.056 -18.733 -0.083 -18.733 -0.091 -18.778 -0.175 8.620 0.169 1.726 0.055 43.069 41.299
86.600 -18.191 -0.205 -18.577 -0.088 -18.591 -0.085 -18.693 -0.065 -18.789 -0.040 -18.788 -0.041 -18.774 -0.046 -18.756 -0.055 -18.720 -0.084 -18.720 -0.092 -18.764 -0.177 8.622 0.176 1.715 0.057 43.064 41.308
87.000 -18.177 -0.205 -18.563 -0.087 -18.576 -0.084 -18.679 -0.063 -18.776 -0.037 -18.774 -0.038 -18.759 -0.044 -18.741 -0.053 -18.707 -0.084 -18.707 -0.093 -18.750 -0.178 8.622 0.182 1.705 0.059 43.059 41.314
87.400 -18.163 -0.205 -18.548 -0.087 -18.562 -0.084 -18.665 -0.063 -18.763 -0.035 -18.759 -0.036 -18.744 -0.043 -18.727 -0.053 -18.694 -0.085 -18.695 -0.094 -18.737 -0.179 8.619 0.185 1.696 0.059 43.053 41.314
87.800 -18.149 -0.206 -18.534 -0.087 -18.547 -0.084 -18.650 -0.063 -18.748 -0.035 -18.744 -0.036 -18.729 -0.042 -18.712 -0.052 -18.683 -0.086 -18.684 -0.095 -18.725 -0.180 8.611 0.184 1.687 0.059 43.047 41.302
88.200 -18.136 -0.206 -18.519 -0.088 -18.533 -0.085 -18.635 -0.063 -18.732 -0.036 -18.729 -0.037 -18.714 -0.043 -18.699 -0.053 -18.672 -0.086 -18.673 -0.096 -18.713 -0.181 8.597 0.177 1.680 0.056 43.041 41.279
88.600 -18.122 -0.206 -18.505 -0.088 -18.518 -0.085 -18.620 -0.064 -18.715 -0.039 -18.713 -0.039 -18.700 -0.044 -18.686 -0.053 -18.661 -0.087 -18.662 -0.096 -18.701 -0.181 8.576 0.168 1.674 0.054 43.034 41.249
89.000 -18.109 -0.207 -18.490 -0.089 -18.503 -0.086 -18.604 -0.066 -18.698 -0.042 -18.698 -0.041 -18.687 -0.046 -18.674 -0.055 -18.651 -0.087 -18.652 -0.096 -18.690 -0.182 8.550 0.158 1.671 0.051 43.027 41.216
89.400 -18.096 -0.207 -18.475 -0.090 -18.489 -0.087 -18.588 -0.067 -18.682 -0.046 -18.683 -0.045 -18.674 -0.049 -18.663 -0.056 -18.642 -0.087 -18.643 -0.097 -18.679 -0.183 8.520 0.149 1.669 0.048 43.020 41.185
89.800 -18.083 -0.207 -18.461 -0.091 -18.474 -0.088 -18.572 -0.069 -18.665 -0.049 -18.669 -0.048 -18.662 -0.051 -18.652 -0.058 -18.634 -0.087 -18.635 -0.096 -18.669 -0.183 8.487 0.143 1.670 0.046 43.013 41.159
90.200 -18.070 -0.208 -18.446 -0.092 -18.459 -0.090 -18.556 -0.071 -18.650 -0.053 -18.655 -0.052 -18.651 -0.054 -18.643 -0.060 -18.626 -0.087 -18.627 -0.096 -18.659 -0.184 8.450 0.138 1.671 0.045 43.006 41.138
90.600 -18.057 -0.208 -18.431 -0.094 -18.444 -0.091 -18.540 -0.073 -18.634 -0.056 -18.642 -0.055 -18.640 -0.057 -18.634 -0.062 -18.619 -0.087 -18.620 -0.095 -18.650 -0.184 8.411 0.136 1.675 0.045 43.000 41.124
91.000 -18.045 -0.208 -18.417 -0.095 -18.430 -0.092 -18.525 -0.075 -18.620 -0.059 -18.630 -0.058 -18.630 -0.060 -18.625 -0.064 -18.613 -0.086 -18.613 -0.094 -18.641 -0.184 8.369 0.135 1.679 0.045 42.994 41.115
91.400 -18.033 -0.209 -18.402 -0.095 -18.415 -0.093 -18.509 -0.076 -18.606 -0.062 -18.618 -0.061 -18.620 -0.062 -18.618 -0.065 -18.607 -0.085 -18.608 -0.093 -18.633 -0.184 8.326 0.135 1.686 0.046 42.988 41.110
91.800 -18.021 -0.209 -18.388 -0.096 -18.401 -0.094 -18.494 -0.078 -18.592 -0.065 -18.607 -0.063 -18.611 -0.064 -18.611 -0.067 -18.602 -0.084 -18.602 -0.092 -18.626 -0.185 8.280 0.136 1.693 0.047 42.982 41.107
92.200 -18.009 -0.209 -18.374 -0.097 -18.386 -0.095 -18.479 -0.079 -18.580 -0.067 -18.597 -0.065 -18.603 -0.065 -18.604 -0.067 -18.597 -0.083 -18.598 -0.091 -18.619 -0.185 8.233 0.138 1.701 0.048 42.977 41.107
92.600 -17.998 -0.209 -18.360 -0.098 -18.373 -0.095 -18.465 -0.080 -18.568 -0.069 -18.587 -0.066 -18.595 -0.066 -18.598 -0.068 -18.593 -0.082 -18.594 -0.089 -18.612 -0.185 8.184 0.140 1.711 0.050 42.971 41.109
93.000 -17.987 -0.209 -18.347 -0.098 -18.359 -0.096 -18.451 -0.081 -18.556 -0.070 -18.577 -0.068 -18.588 -0.067 -18.593 -0.069 -18.590 -0.080 -18.590 -0.088 -18.606 -0.186 8.135 0.142 1.722 0.052 42.966 41.111
93.400 -17.976 -0.209 -18.334 -0.098 -18.346 -0.096 -18.438 -0.082 -18.545 -0.071 -18.569 -0.069 -18.581 -0.068 -18.588 -0.069 -18.587 -0.079 -18.587 -0.087 -18.600 -0.186 8.085 0.145 1.733 0.054 42.961 41.113
93.800 -17.966 -0.209 -18.321 -0.098 -18.333 -0.096 -18.425 -0.083 -18.535 -0.072 -18.560 -0.070 -18.575 -0.069 -18.583 -0.070 -18.585 -0.079 -18.585 -0.086 -18.595 -0.187 8.035 0.148 1.746 0.056 42.957 41.116
94.200 -17.956 -0.209 -18.309 -0.098 -18.321 -0.096 -18.413 -0.084 -18.526 -0.073 -18.553 -0.070 -18.569 -0.069 -18.579 -0.070 -18.583 -0.078 -18.583 -0.085 -18.590 -0.188 7.986 0.151 1.758 0.058 42.952 41.118
94.600 -17.946 -0.209 -18.297 -0.098 -18.309 -0.096 -18.401 -0.084 -18.517 -0.074 -18.546 -0.071 -18.564 -0.070 -18.575 -0.070 -18.582 -0.078 -18.581 -0.085 -18.585 -0.188 7.938 0.155 1.771 0.060 42.948 41.121
95.000 -17.937 -0.209 -18.286 -0.098 -18.298 -0.096 -18.390 -0.084 -18.508 -0.075 -18.539 -0.072 -18.559 -0.070 -18.572 -0.071 -18.581 -0.079 -18.580 -0.086 -18.581 -0.190 7.891 0.158 1.784 0.063 42.944 41.123
95.400 -17.929 -0.209 -18.275 -0.098 -18.287 -0.096 -18.379 -0.085 -18.501 -0.076 -18.533 -0.073 -18.554 -0.071 -18.569 -0.072 -18.581 -0.080 -18.580 -0.087 -18.577 -0.191 7.847 0.162 1.797 0.066 42.941 41.125
95.800 -17.921 -0.209 -18.265 -0.098 -18.277 -0.096 -18.370 -0.085 -18.493 -0.076 -18.527 -0.073 -18.550 -0.072 -18.567 -0.073 -18.581 -0.082 -18.580 -0.089 -18.574 -0.192 7.806 0.166 1.809 0.069 42.937 41.128
96.200 -17.913 -0.209 -18.256 -0.098 -18.268 -0.095 -18.361 -0.085 -18.487 -0.077 -18.522 -0.074 -18.547 -0.073 -18.564 -0.073 -18.582 -0.084 -18.580 -0.092 -18.570 -0.194 7.773 0.171 1.818 0.072 42.935 41.131
96.600 -17.906 -0.209 -18.247 -0.097 -18.259 -0.095 -18.353 -0.085 -18.481 -0.077 -18.518 -0.075 -18.543 -0.074 -18.563 -0.074 -18.582 -0.086 -18.581 -0.095 -18.567 -0.196 7.738 0.175 1.829 0.074 42.932 41.132
97.000 -17.899 -0.209 -18.240 -0.097 -18.252 -0.095 -18.345 -0.085 -18.476 -0.078 -18.514 -0.075 -18.541 -0.074 -18.561 -0.075 -18.583 -0.089 -18.581 -0.098 -18.564 -0.198 7.704 0.178 1.840 0.077 42.930 41.134
97.400 -17.893 -0.209 -18.233 -0.097 -18.245 -0.095 -18.339 -0.085 -18.472 -0.078 -18.511 -0.076 -18.539 -0.075 -18.561 -0.076 -18.584 -0.092 -18.582 -0.101 -18.562 -0.200 7.674 0.182 1.851 0.080 42.927 41.135
97.800 -17.888 -0.209 -18.227 -0.097 -18.239 -0.095 -18.333 -0.085 -18.468 -0.079 -18.508 -0.077 -18.537 -0.076 -18.560 -0.077 -18.586 -0.094 -18.583 -0.104 -18.559 -0.202 7.646 0.185 1.860 0.083 42.926 41.136
98.200 -17.883 -0.209 -18.221 -0.097 -18.233 -0.095 -18.328 -0.085 -18.465 -0.079 -18.507 -0.077 -18.536 -0.076 -18.560 -0.078 -18.587 -0.097 -18.585 -0.107 -18.556 -0.204 7.622 0.188 1.869 0.085 42.924 41.137
98.600 -17.879 -0.210 -18.217 -0.097 -18.229 -0.095 -18.325 -0.085 -18.463 -0.080 -18.505 -0.078 -18.536 -0.077 -18.560 -0.079 -18.589 -0.100 -18.586 -0.110 -18.554 -0.206 7.602 0.191 1.876 0.087 42.923 41.137
99.000 -17.875 -0.210 -18.214 -0.097 -18.226 -0.095 -18.322 -0.085 -18.461 -0.080 -18.504 -0.078 -18.536 -0.078 -18.561 -0.080 -18.590 -0.102 -18.587 -0.113 -18.551 -0.208 7.586 0.193 1.883 0.089 42.922 41.138
99.400 -17.872 -0.210 -18.211 -0.097 -18.223 -0.095 -18.320 -0.086 -18.461 -0.081 -18.504 -0.079 -18.536 -0.078 -18.562 -0.081 -18.592 -0.105 -18.588 -0.115 -18.549 -0.210 7.573 0.195 1.888 0.091 42.922 41.140
99.800 -17.869 -0.211 -18.210 -0.098 -18.222 -0.096 -18.319 -0.086 -18.461 -0.081 -18.505 -0.079 -18.537 -0.079 -18.564 -0.081 -18.594 -0.107 -18.589 -0.118 -18.546 -0.212 7.566 0.196 1.891 0.092 42.922 41.141
100.200 -17.867 -0.211 -18.209 -0.098 -18.221 -0.096 -18.318 -0.087 -18.461 -0.082 -18.506 -0.080 -18.539 -0.080 -18.565 -0.082 -18.595 -0.109 -18.590 -0.120 -18.543 -0.213 7.562 0.197 1.893 0.092 42.922 41.142
100.600 -17.865 -0.212 -18.210 -0.099 -18.222 -0.097 -18.319 -0.088 -18.462 -0.082 -18.507 -0.081 -18.540 -0.081 -18.567 -0.083 -18.596 -0.111 -18.591 -0.122 -18.540 -0.215 7.562 0.197 1.894 0.093 42.922 41.143
101.000 -17.864 -0.212 -18.210 -0.100 -18.223 -0.098 -18.320 -0.088 -18.463 -0.083 -18.508 -0.081 -18.542 -0.081 -18.569 -0.084 -18.597 -0.112 -18.592 -0.123 -18.536 -0.216 7.566 0.197 1.893 0.092 42.923 41.143
101.400 -17.863 -0.213 -18.212 -0.101 -18.224 -0.099 -18.322 -0.089 -18.465 -0.083 -18.510 -0.082 -18.543 -0.082 -18.571 -0.084 -18.598 -0.113 -18.592 -0.125 -18.533 -0.218 7.573 0.197 1.891 0.092 42.923 41.143
101.800 -17.863 -0.213 -18.214 -0.102 -18.227 -0.100 -18.325 -0.090 -18.467 -0.083 -18.512 -0.082 -18.545 -0.082 -18.572 -0.085 -18.598 -0.114 -18.592 -0.126 -18.529 -0.219 7.583 0.195 1.888 0.091 42.924 41.142
102.200 -17.863 -0.214 -18.217 -0.103 -18.229 -0.101 -18.328 -0.090 -18.470 -0.084 -18.514 -0.082 -18.547 -0.082 -18.574 -0.085 -18.598 -0.114 -18.591 -0.126 -18.524 -0.220 7.595 0.194 1.884 0.090 42.925 41.141
102.600 -17.863 -0.215 -18.220 -0.103 -18.232 -0.101 -18.331 -0.090 -18.472 -0.084 -18.516 -0.082 -18.549 -0.083 -18.575 -0.085 -18.598 -0.115 -18.590 -0.127 -18.520 -0.220 7.610 0.192 1.879 0.088 42.926 41.138
103.000 -17.863 -0.215 -18.223 -0.104 -18.236 -0.102 -18.334 -0.091 -18.475 -0.083 -18.518 -0.082 -18.550 -0.082 -18.576 -0.085 -18.597 -0.115 -18.589 -0.127 -18.515 -0.221 7.627 0.189 1.873 0.086 42.927 41.134
103.400 -17.863 -0.216 -18.227 -0.104 -18.239 -0.102 -18.338 -0.090 -18.477 -0.083 -18.520 -0.082 -18.552 -0.082 -18.577 -0.085 -18.596 -0.114 -18.586 -0.126 -18.509 -0.221 7.646 0.186 1.866 0.084 42.928 41.130
103.800 -17.864 -0.217 -18.230 -0.104 -18.243 -0.102 -18.341 -0.090 -18.480 -0.082 -18.522 -0.081 -18.553 -0.082 -18.577 -0.085 -18.594 -0.114 -18.584 -0.126 -18.503 -0.221 7.667 0.183 1.858 0.082 42.929 41.124
104.200 -17.864 -0.217 -18.234 -0.104 -18.246 -0.102 -18.345 -0.090 -18.482 -0.081 -18.523 -0.080 -18.554 -0.081 -18.577 -0.084 -18.591 -0.113 -18.580 -0.125 -18.497 -0.221 7.690 0.179 1.849 0.079 42.930 41.118
104.600 -17.865 -0.218 -18.237 -0.104 -18.250 -0.102 -18.348 -0.089 -18.484 -0.080 -18.524 -0.079 -18.554 -0.080 -18.577 -0.083 -18.588 -0.111 -18.576 -0.123 -18.490 -0.221 7.714 0.175 1.839 0.077 42.931 41.110
105.000 -17.865 -0.219 -18.240 -0.104 -18.253 -0.102 -18.352 -0.088 -18.486 -0.078 -18.525 -0.078 -18.553 -0.079 -18.575 -0.082 -18.583 -0.110 -18.572 -0.122 -18.483 -0.221 7.740 0.171 1.828 0.074 42.932 41.101
105.400 -17.865 -0.220 -18.243 -0.104 -18.256 -0.101 -18.354 -0.086 -18.487 -0.076 -18.525 -0.076 -18.552 -0.078 -18.573 -0.081 -18.579 -0.108 -18.566 -0.120 -18.475 -0.221 7.768 0.166 1.816 0.071 42.932 41.091
105.800 -17.865 -0.220 -18.245 -0.103 -18.258 -0.100 -18.357 -0.085 -18.487 -0.074 -18.524 -0.074 -18.550 -0.076 -18.570 -0.080 -18.573 -0.106 -18.560 -0.118 -18.466 -0.220 7.797 0.162 1.803 0.068 42.933 41.080
106.200 -17.865 -0.221 -18.247 -0.102 -18.260 -0.100 -18.359 -0.083 -18.487 -0.071 -18.523 -0.071 -18.548 -0.074 -18.566 -0.078 -18.566 -0.104 -18.553 -0.116 -18.457 -0.219 7.827 0.157 1.790 0.065 42.933 41.067
106.600 -17.864 -0.222 -18.249 -0.101 -18.262 -0.098 -18.360 -0.081 -18.487 -0.068 -18.521 -0.068 -18.544 -0.072 -18.562 -0.076 -18.559 -0.102 -18.545 -0.114 -18.447 -0.219 7.858 0.152 1.775 0.062 42.933 41.054
107.000 -17.863 -0.223 -18.249 -0.100 -18.262 -0.097 -18.361 -0.079 -18.485 -0.064 -18.518 -0.065 -18.540 -0.069 -18.556 -0.074 -18.551 -0.099 -18.536 -0.112 -18.437 -0.218 7.890 0.147 1.760 0.059 42.932 41.041
107.400 -17.862 -0.224 -18.249 -0.099 -18.262 -0.096 -18.360 -0.077 -18.483 -0.061 -18.514 -0.062 -18.535 -0.066 -18.550 -0.072 -18.542 -0.097 -18.527 -0.109 -18.427 -0.217 7.924 0.143 1.744 0.056 42.932 41.027
107.800 -17.860 -0.225 -18.248 -0.099 -18.261 -0.095 -18.359 -0.074 -18.480 -0.057 -18.510 -0.059 -18.529 -0.064 -18.543 -0.070 -18.532 -0.095 -18.516 -0.107 -18.416 -0.217 7.958 0.139 1.728 0.053 42.931 41.014
108.200 -17.857 -0.226 -18.247 -0.098 -18.259 -0.095 -18.357 -0.072 -18.476 -0.053 -18.504 -0.055 -18.523 -0.061 -18.535 -0.068 -18.521 -0.093 -18.505 -0.105 -18.404 -0.216 7.993 0.135 1.710 0.051 42.930 41.002
108.600 -17.854 -0.228 -18.244 -0.098 -18.256 -0.094 -18.354 -0.071 -18.471 -0.049 -18.498 -0.052 -18.515 -0.059 -18.526 -0.067 -18.509 -0.091 -18.493 -0.104 -18.392 -0.215 8.030 0.133 1.692 0.049 42.928 40.993
109.000 -17.850 -0.229 -18.240 -0.098 -18.252 -0.094 -18.349 -0.070 -18.466 -0.046 -18.491 -0.049 -18.507 -0.057 -18.516 -0.065 -18.496 -0.089 -18.480 -0.102 -18.379 -0.215 8.067 0.131 1.673 0.047 42.927 40.988
109.400 -17.846 -0.231 -18.235 -0.098 -18.247 -0.095 -18.344 -0.069 -18.459 -0.043 -18.483 -0.047 -18.497 -0.055 -18.505 -0.064 -18.482 -0.088 -18.466 -0.101 -18.366 -0.214 8.106 0.131 1.653 0.046 42.925 40.987
109.800 -17.841 -0.233 -18.228 -0.099 -18.241 -0.096 -18.337 -0.070 -18.451 -0.042 -18.474 -0.045 -18.487 -0.054 -18.494 -0.063 -18.468 -0.088 -18.451 -0.100 -18.353 -0.214 8.146 0.131 1.633 0.045 42.922 40.990
110.200 -17.836 -0.235 -18.221 -0.101 -18.234 -0.097 -18.329 -0.071 -18.442 -0.042 -18.464 -0.045 -18.476 -0.053 -18.482 -0.062 -18.452 -0.088 -18.435 -0.100 -18.340 -0.213 8.186 0.132 1.612 0.044 42.920 40.995
110.600 -17.830 -0.237 -18.213 -0.103 -18.225 -0.099 -18.320 -0.073 -18.431 -0.043 -18.453 -0.046 -18.464 -0.054 -18.469 -0.062 -18.437 -0.088 -18.419 -0.100 -18.326 -0.213 8.226 0.133 1.590 0.043 42.916 41.002
111.000 -17.824 -0.240 -18.203 -0.106 -18.216 -0.102 -18.309 -0.075 -18.419 -0.046 -18.440 -0.048 -18.451 -0.054 -18.455 -0.063 -18.420 -0.088 -18.403 -0.100 -18.312 -0.213 8.266 0.133 1.568 0.043 42.913 41.009
111.400 -17.817 -0.242 -18.193 -0.109 -18.206 -0.105 -18.298 -0.078 -18.406 -0.050 -18.427 -0.050 -18.437 -0.056 -18.440 -0.063 -18.403 -0.089 -18.386 -0.100 -18.298 -0.213 8.304 0.133 1.546 0.042 42.909 41.016
111.800 -17.809 -0.245 -18.182 -0.112 -18.194 -0.108 -18.286 -0.082 -18.392 -0.054 -18.412 -0.053 -18.422 -0.057 -18.425 -0.064 -18.386 -0.090 -18.369 -0.101 -18.284 -0.213 8.342 0.134 1.524 0.041 42.904 41.020
112.200 -17.801 -0.248 -18.170 -0.116 -18.182 -0.112 -18.273 -0.086 -18.377 -0.059 -18.397 -0.057 -18.407 -0.060 -18.409 -0.066 -18.369 -0.091 -18.352 -0.102 -18.270 -0.213 8.377 0.133 1.503 0.040 42.899 41.023
112.600 -17.793 -0.252 -18.158 -0.120 -18.170 -0.116 -18.259 -0.091 -18.361 -0.064 -18.382 -0.061 -18.391 -0.062 -18.393 -0.068 -18.352 -0.092 -18.335 -0.103 -18.256 -0.214 8.410 0.133 1.483 0.039 42.894 41.024
113.000 -17.784 -0.255 -18.145 -0.125 -18.157 -0.121 -18.244 -0.096 -18.345 -0.069 -18.365 -0.065 -18.374 -0.066 -18.376 -0.070 -18.335 -0.093 -18.319 -0.104 -18.242 -0.214 8.440 0.132 1.464 0.038 42.889 41.024
113.400 -17.775 -0.259 -18.132 -0.130 -18.143 -0.126 -18.230 -0.102 -18.329 -0.074 -18.349 -0.069 -18.358 -0.069 -18.360 -0.073 -18.319 -0.095 -18.302 -0.105 -18.228 -0.214 8.467 0.131 1.445 0.037 42.884 41.023
113.800 -17.765 -0.263 -18.118 -0.135 -18.130 -0.132 -18.215 -0.108 -18.312 -0.080 -18.332 -0.074 -18.341 -0.073 -18.343 -0.076 -18.302 -0.097 -18.286 -0.107 -18.215 -0.215 8.491 0.131 1.428 0.036 42.878 41.021
114.200 -17.755 -0.267 -18.104 -0.141 -18.116 -0.137 -18.199 -0.114 -18.295 -0.086 -18.315 -0.080 -18.324 -0.078 -18.326 -0.079 -18.287 -0.099 -18.271 -0.109 -18.202 -0.216 8.511 0.130 1.412 0.035 42.872 41.019
114.600 -17.745 -0.271 -18.090 -0.147 -18.101 -0.143 -18.184 -0.120 -18.278 -0.092 -18.298 -0.085 -18.307 -0.083 -18.310 -0.083 -18.271 -0.101 -18.256 -0.111 -18.189 -0.216 8.527 0.130 1.398 0.034 42.867 41.018
115.000 -17.734 -0.276 -18.076 -0.153 -18.087 -0.150 -18.168 -0.126 -18.261 -0.098 -18.281 -0.091 -18.291 -0.088 -18.293 -0.088 -18.256 -0.103 -18.242 -0.113 -18.176 -0.217 8.539 0.130 1.384 0.034 42.861 41.017
115.400 -17.724 -0.280 -18.062 -0.160 -18.073 -0.156 -18.152 -0.133 -18.245 -0.105 -18.264 -0.097 -18.274 -0.093 -18.277 -0.092 -18.242 -0.105 -18.228 -0.115 -18.164 -0.218 8.548 0.131 1.372 0.034 42.855 41.019
115.800 -17.713 -0.285 -18.048 -0.166 -18.058 -0.163 -18.137 -0.140 -18.228 -0.111 -18.248 -0.104 -18.257 -0.099 -18.261 -0.097 -18.228 -0.108 -18.215 -0.117 -18.152 -0.218 8.553 0.132 1.361 0.034 42.849 41.022
116.200 -17.702 -0.290 -18.033 -0.173 -18.044 -0.170 -18.121 -0.147 -18.211 -0.118 -18.231 -0.110 -18.241 -0.105 -18.245 -0.102 -18.215 -0.110 -18.202 -0.119 -18.141 -0.219 8.555 0.134 1.351 0.034 42.843 41.027
116.600 -17.690 -0.295 -18.019 -0.180 -18.029 -0.177 -18.106 -0.154 -18.195 -0.125 -18.215 -0.116 -18.225 -0.111 -18.230 -0.107 -18.202 -0.112 -18.189 -0.121 -18.130 -0.220 8.554 0.137 1.343 0.034 42.837 41.033
117.000 -17.679 -0.300 -18.005 -0.187 -18.015 -0.184 -18.090 -0.161 -18.179 -0.131 -18.199 -0.122 -18.210 -0.116 -18.215 -0.112 -18.189 -0.114 -18.177 -0.122 -18.119 -0.220 8.549 0.140 1.335 0.035 42.831 41.040
117.400 -17.668 -0.305 -17.991 -0.194 -18.001 -0.191 -18.075 -0.168 -18.163 -0.138 -18.183 -0.129 -18.195 -0.122 -18.200 -0.117 -18.177 -0.116 -18.166 -0.124 -18.109 -0.221 8.542 0.144 1.328 0.036 42.826 41.048
117.800 -17.656 -0.311 -17.976 -0.201 -17.986 -0.198 -18.060 -0.175 -18.148 -0.144 -18.168 -0.135 -18.180 -0.127 -18.185 -0.121 -18.165 -0.118 -18.154 -0.125 -18.099 -0.221 8.533 0.147 1.322 0.036 42.820 41.057
118.200 -17.644 -0.316 -17.962 -0.208 -17.972 -0.205 -18.045 -0.182 -18.132 -0.151 -18.153 -0.141 -18.165 -0.133 -18.171 -0.126 -18.154 -0.120 -18.144 -0.126 -18.090 -0.222 8.521 0.151 1.317 0.037 42.814 41.066
118.600 -17.633 -0.321 -17.948 -0.215 -17.958 -0.212 -18.031 -0.189 -18.118 -0.157 -18.138 -0.147 -18.151 -0.138 -18.158 -0.131 -18.143 -0.121 -18.133 -0.127 -18.080 -0.222 8.507 0.156 1.313 0.038 42.809 41.075
119.000 -17.621 -0.326 -17.935 -0.221 -17.944 -0.218 -18.016 -0.196 -18.103 -0.163 -18.124 -0.152 -18.137 -0.143 -18.145 -0.135 -18.132 -0.122 -18.123 -0.128 -18.072 -0.222 8.491 0.160 1.310 0.039 42.803 41.084
119.400 -17.609 -0.331 -17.921 -0.228 -17.931 -0.225 -18.002 -0.202 -18.089 -0.170 -18.110 -0.158 -18.124 -0.149 -18.132 -0.139 -18.122 -0.123 -18.114 -0.129 -18.063 -0.223 8.473 0.164 1.307 0.040 42.797 41.092
119.800 -17.597 -0.336 -17.908 -0.235 -17.917 -0.232 -17.988 -0.209 -18.075 -0.175 -18.097 -0.164 -18.111 -0.153 -18.119 -0.143 -18.112 -0.124 -18.104 -0.129 -18.055 -0.223 8.454 0.168 1.305 0.041 42.792 41.100
120.200 -17.586 -0.341 -17.894 -0.241 -17.904 -0.238 -17.975 -0.215 -18.062 -0.181 -18.084 -0.169 -18.098 -0.158 -18.107 -0.147 -18.103 -0.125 -18.095 -0.129 -18.047 -0.223 8.434 0.172 1.303 0.042 42.787 41.107
120.600 -17.574 -0.346 -17.881 -0.247 -17.891 -0.244 -17.961 -0.221 -18.048 -0.187 -18.071 -0.174 -18.086 -0.163 -18.096 -0.151 -18.094 -0.126 -18.087 -0.129 -18.039 -0.223 8.413 0.176 1.302 0.043 42.782 41.114
121.000 -17.562 -0.351 -17.868 -0.253 -17.878 -0.250 -17.948 -0.227 -18.036 -0.192 -18.059 -0.179 -18.074 -0.167 -18.084 -0.155 -18.085 -0.126 -18.078 -0.130 -18.032 -0.223 8.391 0.180 1.301 0.044 42.776 41.120
121.400 -17.551 -0.355 -17.856 -0.259 -17.865 -0.256 -17.936 -0.233 -18.023 -0.198 -18.047 -0.184 -18.062 -0.172 -18.074 -0.159 -18.076 -0.127 -18.070 -0.130 -18.025 -0.223 8.368 0.183 1.300 0.045 42.771 41.125
121.800 -17.539 -0.360 -17.843 -0.265 -17.853 -0.262 -17.923 -0.239 -18.011 -0.203 -18.035 -0.189 -18.051 -0.176 -18.063 -0.162 -18.068 -0.128 -18.063 -0.130 -18.018 -0.223 8.345 0.186 1.300 0.046 42.767 41.130
122.200 -17.528 -0.364 -17.831 -0.270 -17.841 -0.268 -17.911 -0.244 -18.000 -0.208 -18.024 -0.193 -18.040 -0.180 -18.053 -0.166 -18.060 -0.128 -18.055 -0.130 -18.012 -0.224 8.322 0.190 1.300 0.047 42.762 41.134
122.600 -17.516 -0.368 -17.819 -0.276 -17.829 -0.273 -17.899 -0.250 -17.988 -0.212 -18.013 -0.198 -18.030 -0.184 -18.043 -0.169 -18.052 -0.129 -18.048 -0.130 -18.006 -0.224 8.300 0.193 1.300 0.048 42.757 41.137
123.000 -17.505 -0.372 -17.808 -0.281 -17.817 -0.278 -17.888 -0.255 -17.977 -0.217 -18.002 -0.202 -18.020 -0.188 -18.033 -0.173 -18.045 -0.131 -18.041 -0.131 -18.000 -0.224 8.278 0.196 1.301 0.049 42.753 41.140
123.400 -17.494 -0.376 -17.797 -0.286 -17.806 -0.283 -17.876 -0.259 -17.967 -0.221 -17.992 -0.206 -18.010 -0.192 -18.024 -0.176 -18.038 -0.132 -18.034 -0.132 -17.994 -0.224 8.256 0.198 1.301 0.050 42.748 41.142
123.800 -17.483 -0.379 -17.785 -0.290 -17.795 -0.287 -17.866 -0.264 -17.957 -0.226 -17.983 -0.210 -18.001 -0.195 -18.015 -0.179 -18.031 -0.134 -18.027 -0.134 -17.988 -0.225 8.235 0.201 1.301 0.051 42.744 41.144
124.200 -17.472 -0.383 -17.775 -0.295 -17.784 -0.292 -17.855 -0.268 -17.947 -0.230 -17.973 -0.214 -17.992 -0.199 -18.007 -0.183 -18.024 -0.136 -18.021 -0.136 -17.983 -0.225 8.216 0.203 1.301 0.051 42.740 41.145
124.600 -17.461 -0.386 -17.764 -0.299 -17.774 -0.296 -17.845 -0.272 -17.937 -0.233 -17.964 -0.217 -17.983 -0.202 -17.999 -0.186 -18.017 -0.138 -18.015 -0.138 -17.978 -0.226 8.197 0.206 1.301 0.052 42.736 41.146
125.000 -17.450 -0.389 -17.754 -0.302 -17.763 -0.300 -17.835 -0.276 -17.928 -0.237 -17.955 -0.221 -17.975 -0.205 -17.991 -0.189 -18.011 -0.141 -18.009 -0.140 -17.973 -0.227 8.178 0.208 1.301 0.053 42.732 41.146
125.400 -17.440 -0.391 -17.744 -0.306 -17.753 -0.303 -17.825 -0.280 -17.919 -0.240 -17.947 -0.224 -17.967 -0.208 -17.983 -0.192 -18.005 -0.144 -18.003 -0.143 -17.968 -0.227 8.161 0.210 1.301 0.054 42.729 41.146
125.800 -17.429 -0.393 -17.734 -0.309 -17.744 -0.306 -17.816 -0.283 -17.911 -0.244 -17.939 -0.227 -17.959 -0.211 -17.976 -0.195 -17.999 -0.147 -17.997 -0.146 -17.963 -0.228 8.144 0.212 1.301 0.055 42.725 41.145
126.200 -17.419 -0.395 -17.725 -0.312 -17.734 -0.309 -17.807 -0.286 -17.903 -0.247 -17.931 -0.230 -17.952 -0.214 -17.969 -0.198 -17.994 -0.150 -17.992 -0.148 -17.959 -0.229 8.128 0.214 1.301 0.055 42.722 41.144
126.600 -17.409 -0.397 -17.716 -0.315 -17.725 -0.312 -17.798 -0.289 -17.895 -0.249 -17.923 -0.233 -17.945 -0.217 -17.962 -0.200 -17.988 -0.153 -17.987 -0.151 -17.954 -0.230 8.113 0.216 1.301 0.056 42.718 41.143
127.000 -17.399 -0.399 -17.707 -0.317 -17.717 -0.315 -17.790 -0.292 -17.887 -0.252 -17.916 -0.235 -17.938 -0.219 -17.956 -0.203 -17.983 -0.156 -17.982 -0.154 -17.950 -0.231 8.098 0.217 1.301 0.057 42.715 41.141
127.400 -17.389 -0.400 -17.698 -0.320 -17.708 -0.317 -17.782 -0.294 -17.880 -0.254 -17.910 -0.237 -17.931 -0.222 -17.950 -0.205 -17.978 -0.158 -17.977 -0.157 -17.946 -0.231 8.083 0.218 1.301 0.057 42.712 41.140
127.800 -17.380 -0.401 -17.690 -0.321 -17.700 -0.319 -17.774 -0.296 -17.874 -0.256 -17.903 -0.239 -17.925 -0.224 -17.944 -0.207 -17.973 -0.161 -17.973 -0.159 -17.942 -0.232 8.069 0.219 1.302 0.058 42.709 41.138
128.200 -17.370 -0.401 -17.682 -0.323 -17.692 -0.320 -17.767 -0.298 -17.867 -0.258 -17.897 -0.241 -17.919 -0.226 -17.938 -0.209 -17.969 -0.163 -17.968 -0.162 -17.939 -0.233 8.055 0.220 1.302 0.058 42.706 41.135
128.600 -17.361 -0.402 -17.674 -0.324 -17.684 -0.322 -17.760 -0.299 -17.861 -0.260 -17.891 -0.243 -17.914 -0.227 -17.933 -0.211 -17.965 -0.165 -17.964 -0.164 -17.935 -0.233 8.041 0.221 1.302 0.059 42.704 41.133
129.000 -17.352 -0.402 -17.667 -0.325 -17.677 -0.323 -17.753 -0.300 -17.855 -0.261 -17.886 -0.244 -17.909 -0.229 -17.928 -0.212 -17.960 -0.167 -17.961 -0.166 -17.932 -0.233 8.028 0.221 1.303 0.059 42.701 41.130
129.400 -17.343 -0.401 -17.660 -0.326 -17.670 -0.323 -17.747 -0.301 -17.850 -0.262 -17.881 -0.246 -17.904 -0.230 -17.924 -0.214 -17.957 -0.169 -17.957 -0.167 -17.929 -0.234 8.015 0.221 1.303 0.059 42.699 41.127
129.800 -17.334 -0.401 -17.653 -0.326 -17.663 -0.324 -17.741 -0.302 -17.845 -0.263 -17.876 -0.246 -17.899 -0.231 -17.919 -0.215 -17.953 -0.171 -17.953 -0.169 -17.926 -0.234 8.002 0.221 1.304 0.060 42.696 41.124
130.200 -17.325 -0.400 -17.647 -0.326 -17.657 -0.324 -17.735 -0.302 -17.840 -0.263 -17.871 -0.247 -17.895 -0.232 -17.915 -0.216 -17.950 -0.172 -17.950 -0.170 -17.923 -0.234 7.990 0.221 1.305 0.060 42.694 41.121
130.600 -17.317 -0.398 -17.641 -0.326 -17.651 -0.323 -17.729 -0.302 -17.835 -0.264 -17.867 -0.248 -17.891 -0.232 -17.912 -0.216 -17.947 -0.173 -17.947 -0.171 -17.921 -0.234 7.979 0.221 1.305 0.060 42.692 41.118
131.000 -17.309 -0.397 -17.635 -0.325 -17.645 -0.323 -17.724 -0.302 -17.831 -0.264 -17.863 -0.248 -17.888 -0.233 -17.908 -0.217 -17.944 -0.173 -17.945 -0.171 -17.918 -0.233 7.967 0.220 1.306 0.060 42.690 41.114
131.400 -17.301 -0.395 -17.629 -0.324 -17.640 -0.322 -17.720 -0.301 -17.827 -0.264 -17.860 -0.248 -17.884 -0.233 -17.905 -0.217 -17.941 -0.174 -17.942 -0.172 -17.916 -0.233 7.956 0.220 1.307 0.060 42.688 41.110
131.800 -17.293 -0.392 -17.624 -0.323 -17.634 -0.321 -17.715 -0.300 -17.824 -0.263 -17.857 -0.247 -17.881 -0.233 -17.902 -0.217 -17.939 -0.174 -17.940 -0.172 -17.914 -0.232 7.944 0.219 1.308 0.060 42.686 41.106
132.200 -17.285 -0.390 -17.619 -0.322 -17.629 -0.319 -17.711 -0.299 -17.820 -0.262 -17.854 -0.247 -17.879 -0.232 -17.900 -0.216 -17.937 -0.173 -17.937 -0.171 -17.912 -0.231 7.933 0.218 1.310 0.060 42.685 41.102
132.600 -17.277 -0.387 -17.614 -0.320 -17.625 -0.317 -17.707 -0.297 -17.818 -0.261 -17.851 -0.246 -17.876 -0.231 -17.898 -0.216 -17.935 -0.173 -17.936 -0.171 -17.910 -0.230 7.922 0.217 1.311 0.060 42.683 41.098
133.000 -17.270 -0.384 -17.609 -0.318 -17.620 -0.315 -17.703 -0.296 -17.815 -0.260 -17.849 -0.245 -17.874 -0.230 -17.896 -0.215 -17.933 -0.172 -17.934 -0.170 -17.909 -0.229 7.911 0.215 1.313 0.060 42.682 41.093
133.400 -17.263 -0.380 -17.605 -0.315 -17.616 -0.313 -17.700 -0.293 -17.813 -0.258 -17.847 -0.243 -17.872 -0.229 -17.894 -0.214 -17.931 -0.171 -17.932 -0.169 -17.907 -0.227 7.901 0.214 1.314 0.060 42.681 41.089
133.800 -17.256 -0.376 -17.601 -0.312 -17.613 -0.310 -17.697 -0.291 -17.811 -0.256 -17.845 -0.242 -17.871 -0.228 -17.893 -0.213 -17.930 -0.170 -17.931 -0.168 -17.906 -0.226 7.890 0.212 1.316 0.060 42.680 41.084
134.200 -17.249 -0.372 -17.598 -0.309 -17.609 -0.307 -17.695 -0.288 -17.809 -0.254 -17.844 -0.240 -17.870 -0.226 -17.891 -0.211 -17.929 -0.169 -17.930 -0.167 -17.905 -0.224 7.881 0.210 1.317 0.059 42.679 41.079
134.600 -17.242 -0.367 -17.594 -0.305 -17.606 -0.303 -17.692 -0.285 -17.808 -0.252 -17.843 -0.237 -17.869 -0.224 -17.891 -0.209 -17.928 -0.167 -17.929 -0.165 -17.904 -0.222 7.871 0.208 1.319 0.059 42.678 41.074
135.000 -17.235 -0.362 -17.591 -0.301 -17.603 -0.299 -17.690 -0.282 -17.807 -0.249 -17.842 -0.235 -17.868 -0.222 -17.890 -0.207 -17.927 -0.166 -17.928 -0.163 -17.903 -0.220 7.862 0.206 1.321 0.059 42.677 41.068
135.400 -17.229 -0.356 -17.589 -0.297 -17.600 -0.295 -17.688 -0.278 -17.806 -0.246 -17.841 -0.232 -17.868 -0.219 -17.890 -0.205 -17.927 -0.164 -17.928 -0.162 -17.902 -0.217 7.853 0.204 1.323 0.058 42.676 41.063
135.800 -17.223 -0.351 -17.586 -0.292 -17.598 -0.290 -17.687 -0.274 -17.806 -0.243 -17.841 -0.229 -17.867 -0.217 -17.890 -0.203 -17.927 -0.162 -17.927 -0.160 -17.902 -0.215 7.844 0.202 1.325 0.058 42.675 41.057
136.200 -17.217 -0.345 -17.584 -0.287 -17.596 -0.285 -17.686 -0.269 -17.806 -0.239 -17.841 -0.226 -17.868 -0.214 -17.890 -0.200 -17.927 -0.160 -17.927 -0.158 -17.901 -0.212 7.836 0.200 1.327 0.058 42.675 41.051
136.600 -17.210 -0.338 -17.582 -0.282 -17.594 -0.280 -17.685 -0.264 -17.806 -0.235 -17.842 -0.222 -17.868 -0.210 -17.890 -0.197 -17.927 -0.158 -17.927 -0.156 -17.901 -0.210 7.828 0.197 1.329 0.057 42.674 41.045
137.000 -17.205 -0.331 -17.580 -0.276 -17.592 -0.274 -17.684 -0.259 -17.806 -0.231 -17.842 -0.219 -17.869 -0.207 -17.891 -0.194 -17.927 -0.156 -17.928 -0.154 -17.901 -0.207 7.820 0.195 1.331 0.057 42.674 41.038
137.400 -17.199 -0.324 -17.578 -0.270 -17.591 -0.268 -17.684 -0.254 -17.807 -0.227 -17.843 -0.215 -17.870 -0.203 -17.892 -0.191 -17.928 -0.154 -17.928 -0.152 -17.901 -0.203 7.811 0.192 1.334 0.056 42.674 41.032
137.800 -17.193 -0.317 -17.577 -0.264 -17.589 -0.262 -17.684 -0.248 -17.808 -0.222 -17.844 -0.210 -17.871 -0.199 -17.893 -0.187 -17.928 -0.151 -17.929 -0.149 -17.902 -0.200 7.803 0.190 1.336 0.056 42.674 41.025
138.200 -17.188 -0.309 -17.576 -0.257 -17.588 -0.255 -17.684 -0.242 -17.809 -0.217 -17.845 -0.206 -17.872 -0.195 -17.895 -0.183 -17.929 -0.149 -17.929 -0.146 -17.902 -0.197 7.795 0.187 1.339 0.055 42.674 41.018
138.600 -17.182 -0.301 -17.575 -0.250 -17.588 -0.248 -17.684 -0.235 -17.810 -0.211 -17.847 -0.201 -17.874 -0.190 -17.896 -0.179 -17.931 -0.146 -17.930 -0.144 -17.903 -0.193 7.787 0.185 1.342 0.055 42.674 41.011
139.000 -17.177 -0.292 -17.574 -0.242 -17.587 -0.241 -17.685 -0.228 -17.812 -0.205 -17.849 -0.195 -17.876 -0.185 -17.898 -0.175 -17.932 -0.142 -17.932 -0.140 -17.904 -0.189 7.779 0.182 1.345 0.054 42.674 41.004
139.400 -17.172 -0.284 -17.574 -0.234 -17.587 -0.233 -17.685 -0.221 -17.813 -0.199 -17.850 -0.190 -17.878 -0.180 -17.900 -0.170 -17.934 -0.139 -17.933 -0.137 -17.905 -0.185 7.770 0.179 1.348 0.054 42.674 40.996
139.800 -17.167 -0.275 -17.574 -0.226 -17.587 -0.225 -17.686 -0.213 -17.815 -0.193 -17.852 -0.184 -17.880 -0.175 -17.902 -0.165 -17.935 -0.135 -17.935 -0.133 -17.906 -0.181 7.761 0.176 1.351 0.053 42.674 40.988
140.200 -17.161 -0.265 -17.573 -0.217 -17.587 -0.216 -17.687 -0.205 -17.817 -0.186 -17.855 -0.177 -17.882 -0.169 -17.904 -0.160 -17.937 -0.131 -17.937 -0.130 -17.907 -0.177 7.751 0.174 1.355 0.053 42.674 40.981
140.600 -17.156 -0.256 -17.573 -0.208 -17.587 -0.207 -17.688 -0.197 -17.819 -0.179 -17.857 -0.171 -17.884 -0.163 -17.907 -0.154 -17.940 -0.127 -17.939 -0.126 -17.909 -0.172 7.740 0.171 1.359 0.052 42.674 40.973
141.000 -17.152 -0.246 -17.573 -0.199 -17.587 -0.198 -17.690 -0.188 -17.821 -0.171 -17.859 -0.164 -17.887 -0.156 -17.909 -0.148 -17.942 -0.123 -17.941 -0.121 -17.910 -0.167 7.729 0.168 1.363 0.052 42.674 40.964
141.400 -17.147 -0.236 -17.574 -0.189 -17.587 -0.188 -17.691 -0.179 -17.824 -0.163 -17.862 -0.156 -17.889 -0.150 -17.912 -0.142 -17.945 -0.118 -17.943 -0.117 -17.912 -0.162 7.716 0.166 1.368 0.052 42.675 40.956
141.800 -17.142 -0.226 -17.574 -0.179 -17.588 -0.178 -17.693 -0.169 -17.826 -0.155 -17.864 -0.149 -17.892 -0.143 -17.915 -0.136 -17.947 -0.113 -17.946 -0.112 -17.914 -0.158 7.703 0.163 1.373 0.051 42.675 40.947
142.200 -17.137 -0.216 -17.574 -0.168 -17.588 -0.167 -17.694 -0.160 -17.828 -0.146 -17.866 -0.141 -17.894 -0.135 -17.917 -0.129 -17.950 -0.108 -17.949 -0.107 -17.916 -0.152 7.688 0.161 1.379 0.051 42.675 40.938
142.600 -17.133 -0.206 -17.575 -0.157 -17.589 -0.156 -17.696 -0.149 -17.830 -0.137 -17.869 -0.132 -17.897 -0.127 -17.920 -0.122 -17.953 -0.103 -17.952 -0.102 -17.918 -0.147 7.671 0.159 1.385 0.051 42.675 40.928
143.000 -17.128 -0.195 -17.575 -0.146 -17.589 -0.145 -17.697 -0.139 -17.832 -0.128 -17.871 -0.123 -17.899 -0.119 -17.923 -0.114 -17.957 -0.098 -17.955 -0.097 -17.920 -0.142 7.653 0.156 1.392 0.051 42.675 40.917
143.400 -17.124 -0.186 -17.575 -0.135 -17.590 -0.134 -17.699 -0.128 -17.834 -0.118 -17.873 -0.114 -17.901 -0.110 -17.925 -0.106 -17.960 -0.092 -17.959 -0.092 -17.922 -0.137 7.632 0.154 1.399 0.050 42.675 40.905
143.800 -17.119 -0.176 -17.576 -0.123 -17.590 -0.122 -17.700 -0.117 -17.836 -0.109 -17.875 -0.105 -17.904 -0.102 -17.928 -0.098 -17.963 -0.086 -17.962 -0.086 -17.924 -0.132 7.609 0.151 1.407 0.050 42.675 40.891
144.200 -17.115 -0.167 -17.576 -0.112 -17.591 -0.111 -17.701 -0.106 -17.838 -0.098 -17.877 -0.095 -17.906 -0.093 -17.930 -0.090 -17.966 -0.080 -17.965 -0.080 -17.927 -0.128 7.582 0.148 1.417 0.050 42.675 40.875
144.600 -17.111 -0.158 -17.576 -0.100 -17.591 -0.099 -17.702 -0.094 -17.839 -0.088 -17.878 -0.086 -17.907 -0.084 -17.932 -0.082 -17.970 -0.073 -17.968 -0.074 -17.929 -0.123 7.552 0.145 1.427 0.050 42.674 40.855
145.000 -17.106 -0.151 -17.576 -0.089 -17.591 -0.088 -17.703 -0.083 -17.840 -0.078 -17.879 -0.076 -17.909 -0.075 -17.934 -0.074 -17.972 -0.067 -17.971 -0.069 -17.931 -0.120 7.519 0.141 1.439 0.049 42.673 40.831
145.400 -17.103 -0.144 -17.575 -0.078 -17.591 -0.077 -17.703 -0.073 -17.841 -0.069 -17.880 -0.067 -17.910 -0.066 -17.936 -0.066 -17.975 -0.061 -17.974 -0.064 -17.933 -0.117 7.484 0.136 1.450 0.049 42.672 40.802
145.800 -17.099 -0.140 -17.575 -0.068 -17.590 -0.067 -17.703 -0.064 -17.841 -0.060 -17.881 -0.058 -17.911 -0.058 -17.937 -0.059 -17.978 -0.057 -17.977 -0.059 -17.935 -0.115 7.448 0.131 1.463 0.048 42.671 40.769
146.200 -17.095 -0.137 -17.573 -0.061 -17.589 -0.060 -17.702 -0.057 -17.841 -0.054 -17.881 -0.052 -17.912 -0.053 -17.938 -0.054 -17.980 -0.053 -17.979 -0.057 -17.937 -0.114 7.415 0.126 1.474 0.047 42.670 40.738
146.600 -17.092 -0.136 -17.572 -0.057 -17.587 -0.056 -17.701 -0.053 -17.841 -0.050 -17.881 -0.049 -17.912 -0.050 -17.939 -0.052 -17.982 -0.052 -17.981 -0.056 -17.939 -0.115 7.390 0.123 1.483 0.047 42.670 40.717
147.000 -17.089 -0.137 -17.570 -0.058 -17.585 -0.057 -17.700 -0.053 -17.840 -0.050 -17.881 -0.049 -17.912 -0.050 -17.939 -0.053 -17.983 -0.054 -17.983 -0.058 -17.941 -0.117 7.378 0.125 1.487 0.048 42.669 40.719
147.400 -17.086 -0.140 -17.567 -0.063 -17.583 -0.062 -17.698 -0.058 -17.839 -0.055 -17.880 -0.054 -17.911 -0.055 -17.939 -0.057 -17.985 -0.059 -17.984 -0.063 -17.943 -0.121 7.379 0.131 1.487 0.050 42.669 40.743
147.800 -17.084 -0.146 -17.564 -0.071 -17.580 -0.070 -17.695 -0.066 -17.837 -0.063 -17.879 -0.062 -17.911 -0.062 -17.938 -0.064 -17.985 -0.066 -17.985 -0.070 -17.945 -0.127 7.389 0.139 1.483 0.053 42.669 40.778
