"Time (MJD)" B-4369.53 B-4369.53_err G-5850.88 G-5850.88_err V-5467.57 V-5467.57_err cyan-5182.42 cyan-5182.42_err g-4671.78 g-4671.78_err g-4735.89 g-4735.89_err g-4746.48 g-4746.48_err i-7457.89 i-7457.89_err i-7645.77 i-7645.77_err orange-6629.82 orange-6629.82_err r-6141.12 r-6141.12_err r-6198.96 r-6198.96_err r-6366.38 r-6366.38_err "Temp./1e3 (K)" "Temp. Err." "Radius/1e15 (cm)" "Radius Err." "Log10(Bol. Lum)" "Log10(Bol. Err)"
-14.000 -18.470 -0.103 -18.429 -0.067 -18.420 -0.065 -18.419 -0.064 -18.369 -0.079 -18.327 -0.086 -18.243 -0.081 -18.161 -0.071 -18.144 -0.070 -18.094 -0.068 -18.021 -0.076 -17.837 -0.133 -17.801 -0.155 18.130 0.669 0.530 0.019 43.335 42.208
-13.600 -18.693 -0.091 -18.661 -0.048 -18.655 -0.044 -18.654 -0.044 -18.620 -0.062 -18.585 -0.070 -18.502 -0.064 -18.412 -0.053 -18.393 -0.051 -18.335 -0.049 -18.250 -0.060 -18.036 -0.120 -17.994 -0.143 17.868 0.942 0.600 0.032 43.418 42.440
-13.200 -18.913 -0.106 -18.896 -0.068 -18.893 -0.064 -18.892 -0.063 -18.873 -0.062 -18.846 -0.062 -18.766 -0.054 -18.669 -0.048 -18.647 -0.047 -18.582 -0.049 -18.483 -0.061 -18.233 -0.126 -18.185 -0.149 18.096 1.599 0.666 0.057 43.530 42.790
-12.800 -19.127 -0.133 -19.125 -0.099 -19.125 -0.093 -19.124 -0.093 -19.120 -0.071 -19.101 -0.058 -19.025 -0.042 -18.922 -0.045 -18.898 -0.047 -18.826 -0.055 -18.713 -0.071 -18.427 -0.144 -18.372 -0.167 18.590 2.571 0.731 0.096 43.657 43.123
-12.400 -19.329 -0.163 -19.340 -0.128 -19.342 -0.122 -19.343 -0.121 -19.351 -0.084 -19.339 -0.057 -19.268 -0.023 -19.160 -0.042 -19.135 -0.047 -19.058 -0.062 -18.935 -0.084 -18.615 -0.168 -18.553 -0.192 18.944 3.754 0.810 0.150 43.780 43.408
-12.000 -19.516 -0.190 -19.536 -0.154 -19.540 -0.147 -19.541 -0.146 -19.558 -0.099 -19.548 -0.065 -19.480 -0.025 -19.373 -0.051 -19.347 -0.058 -19.269 -0.076 -19.141 -0.103 -18.794 -0.195 -18.726 -0.219 18.865 4.102 0.897 0.182 43.861 43.529
-11.600 -19.682 -0.215 -19.708 -0.177 -19.713 -0.170 -19.714 -0.168 -19.735 -0.118 -19.725 -0.084 -19.656 -0.057 -19.553 -0.075 -19.529 -0.081 -19.452 -0.099 -19.326 -0.127 -18.961 -0.222 -18.889 -0.247 18.697 3.718 0.968 0.182 43.911 43.536
-11.200 -19.826 -0.236 -19.855 -0.198 -19.860 -0.190 -19.861 -0.189 -19.881 -0.138 -19.868 -0.109 -19.799 -0.091 -19.703 -0.105 -19.679 -0.110 -19.608 -0.125 -19.486 -0.153 -19.115 -0.250 -19.039 -0.275 18.509 3.431 1.037 0.184 43.954 43.544
-10.800 -19.948 -0.254 -19.977 -0.215 -19.981 -0.208 -19.982 -0.206 -19.998 -0.158 -19.982 -0.134 -19.914 -0.122 -19.823 -0.135 -19.802 -0.139 -19.735 -0.153 -19.619 -0.180 -19.253 -0.277 -19.175 -0.302 18.177 3.068 1.111 0.182 43.982 43.526
-10.400 -20.048 -0.268 -20.073 -0.229 -20.078 -0.222 -20.078 -0.220 -20.088 -0.176 -20.069 -0.156 -20.002 -0.149 -19.918 -0.162 -19.898 -0.166 -19.836 -0.180 -19.729 -0.205 -19.373 -0.302 -19.297 -0.327 17.700 2.638 1.188 0.176 43.995 43.476
-10.000 -20.127 -0.278 -20.148 -0.239 -20.151 -0.232 -20.151 -0.230 -20.154 -0.189 -20.133 -0.173 -20.068 -0.172 -19.990 -0.186 -19.972 -0.190 -19.915 -0.203 -19.816 -0.229 -19.478 -0.326 -19.403 -0.350 17.124 2.187 1.270 0.165 43.995 43.399
-9.600 -20.187 -0.283 -20.202 -0.244 -20.204 -0.237 -20.204 -0.236 -20.200 -0.197 -20.177 -0.185 -20.114 -0.188 -20.042 -0.204 -20.026 -0.209 -19.974 -0.223 -19.883 -0.249 -19.566 -0.346 -19.494 -0.371 16.507 1.754 1.352 0.150 43.985 43.298
-9.200 -20.230 -0.284 -20.238 -0.244 -20.239 -0.237 -20.239 -0.236 -20.228 -0.200 -20.203 -0.191 -20.143 -0.199 -20.077 -0.218 -20.062 -0.223 -20.015 -0.238 -19.933 -0.265 -19.640 -0.364 -19.571 -0.389 15.896 1.362 1.431 0.132 43.969 43.175
-8.800 -20.259 -0.280 -20.260 -0.239 -20.259 -0.232 -20.259 -0.230 -20.240 -0.196 -20.214 -0.190 -20.157 -0.204 -20.097 -0.227 -20.083 -0.232 -20.041 -0.248 -19.968 -0.277 -19.700 -0.379 -19.636 -0.404 15.327 1.021 1.505 0.111 43.950 43.032
-8.400 -20.276 -0.272 -20.269 -0.229 -20.267 -0.221 -20.267 -0.220 -20.241 -0.185 -20.213 -0.183 -20.159 -0.203 -20.105 -0.230 -20.093 -0.236 -20.056 -0.254 -19.990 -0.285 -19.749 -0.390 -19.690 -0.416 14.822 0.730 1.571 0.088 43.929 42.865
-8.000 -20.284 -0.260 -20.269 -0.214 -20.266 -0.205 -20.265 -0.204 -20.232 -0.168 -20.203 -0.170 -20.152 -0.198 -20.104 -0.229 -20.093 -0.236 -20.061 -0.256 -20.003 -0.289 -19.789 -0.398 -19.735 -0.424 14.397 0.486 1.625 0.064 43.908 42.665
-7.600 -20.285 -0.246 -20.263 -0.195 -20.258 -0.186 -20.257 -0.184 -20.216 -0.146 -20.186 -0.151 -20.139 -0.188 -20.096 -0.225 -20.087 -0.233 -20.059 -0.255 -20.009 -0.291 -19.821 -0.403 -19.772 -0.429 14.060 0.286 1.666 0.040 43.888 42.413
-7.200 -20.282 -0.232 -20.252 -0.174 -20.245 -0.163 -20.244 -0.162 -20.197 -0.117 -20.165 -0.129 -20.121 -0.176 -20.084 -0.219 -20.077 -0.227 -20.052 -0.251 -20.010 -0.289 -19.847 -0.405 -19.804 -0.431 13.821 0.154 1.691 0.023 43.871 42.122
-6.800 -20.277 -0.217 -20.240 -0.154 -20.232 -0.141 -20.231 -0.139 -20.176 -0.085 -20.144 -0.105 -20.103 -0.164 -20.071 -0.211 -20.065 -0.220 -20.044 -0.246 -20.009 -0.285 -19.869 -0.404 -19.831 -0.430 13.689 0.187 1.698 0.028 43.858 42.190
-6.400 -20.274 -0.206 -20.230 -0.137 -20.220 -0.123 -20.219 -0.121 -20.157 -0.052 -20.124 -0.084 -20.086 -0.154 -20.059 -0.204 -20.053 -0.213 -20.036 -0.240 -20.007 -0.280 -19.888 -0.400 -19.855 -0.427 13.659 0.335 1.688 0.051 43.849 42.429
-6.000 -20.272 -0.198 -20.222 -0.128 -20.212 -0.114 -20.210 -0.111 -20.142 -0.029 -20.108 -0.073 -20.073 -0.148 -20.049 -0.198 -20.044 -0.207 -20.030 -0.234 -20.006 -0.274 -19.906 -0.393 -19.877 -0.421 13.673 0.498 1.672 0.075 43.843 42.592
-5.600 -20.275 -0.195 -20.220 -0.128 -20.208 -0.114 -20.206 -0.111 -20.135 -0.043 -20.099 -0.078 -20.065 -0.146 -20.044 -0.193 -20.040 -0.202 -20.028 -0.228 -20.008 -0.267 -19.924 -0.385 -19.899 -0.412 13.682 0.558 1.669 0.084 43.843 42.643
-5.200 -20.284 -0.193 -20.224 -0.131 -20.212 -0.119 -20.209 -0.117 -20.134 -0.064 -20.098 -0.088 -20.063 -0.146 -20.044 -0.190 -20.040 -0.198 -20.030 -0.222 -20.014 -0.259 -19.943 -0.374 -19.921 -0.401 13.662 0.585 1.677 0.088 43.844 42.667
-4.800 -20.298 -0.192 -20.235 -0.134 -20.222 -0.123 -20.220 -0.121 -20.141 -0.077 -20.103 -0.095 -20.068 -0.146 -20.049 -0.186 -20.046 -0.193 -20.037 -0.215 -20.024 -0.250 -19.964 -0.361 -19.945 -0.388 13.671 0.621 1.685 0.094 43.849 42.701
-4.400 -20.320 -0.189 -20.253 -0.135 -20.239 -0.124 -20.237 -0.122 -20.155 -0.081 -20.116 -0.097 -20.079 -0.144 -20.061 -0.180 -20.058 -0.188 -20.050 -0.208 -20.038 -0.240 -19.987 -0.346 -19.970 -0.372 13.739 0.669 1.687 0.100 43.859 42.744
-4.000 -20.348 -0.185 -20.279 -0.131 -20.265 -0.121 -20.262 -0.119 -20.177 -0.077 -20.135 -0.093 -20.097 -0.139 -20.079 -0.173 -20.076 -0.180 -20.068 -0.199 -20.057 -0.229 -20.012 -0.329 -19.997 -0.354 13.870 0.725 1.684 0.107 43.874 42.795
-3.600 -20.384 -0.178 -20.312 -0.126 -20.297 -0.116 -20.295 -0.114 -20.205 -0.069 -20.162 -0.087 -20.122 -0.132 -20.103 -0.165 -20.100 -0.171 -20.092 -0.188 -20.081 -0.215 -20.040 -0.309 -20.026 -0.333 14.055 0.784 1.679 0.112 43.894 42.850
-3.200 -20.427 -0.171 -20.353 -0.122 -20.337 -0.112 -20.335 -0.111 -20.242 -0.067 -20.196 -0.085 -20.154 -0.127 -20.133 -0.156 -20.129 -0.161 -20.121 -0.176 -20.110 -0.200 -20.071 -0.287 -20.057 -0.311 14.275 0.824 1.676 0.115 43.920 42.898
-2.800 -20.475 -0.164 -20.400 -0.121 -20.384 -0.112 -20.382 -0.111 -20.285 -0.077 -20.236 -0.090 -20.190 -0.123 -20.167 -0.147 -20.163 -0.151 -20.154 -0.164 -20.142 -0.184 -20.103 -0.264 -20.090 -0.286 14.522 0.836 1.677 0.113 43.950 42.937
-2.400 -20.528 -0.156 -20.452 -0.121 -20.436 -0.115 -20.433 -0.114 -20.334 -0.091 -20.282 -0.099 -20.231 -0.122 -20.205 -0.138 -20.201 -0.141 -20.190 -0.151 -20.177 -0.166 -20.137 -0.238 -20.124 -0.259 14.799 0.846 1.679 0.110 43.984 42.979
-2.000 -20.583 -0.145 -20.507 -0.120 -20.490 -0.116 -20.488 -0.115 -20.385 -0.103 -20.329 -0.107 -20.273 -0.120 -20.244 -0.130 -20.240 -0.132 -20.228 -0.138 -20.214 -0.149 -20.172 -0.210 -20.158 -0.230 15.111 0.873 1.679 0.109 44.020 43.031
-1.600 -20.638 -0.132 -20.561 -0.115 -20.545 -0.112 -20.542 -0.112 -20.435 -0.108 -20.376 -0.111 -20.316 -0.118 -20.284 -0.122 -20.279 -0.123 -20.267 -0.126 -20.251 -0.133 -20.206 -0.181 -20.192 -0.199 15.446 0.914 1.677 0.109 44.057 43.088
-1.200 -20.692 -0.113 -20.614 -0.104 -20.597 -0.103 -20.594 -0.103 -20.484 -0.107 -20.422 -0.110 -20.358 -0.111 -20.323 -0.112 -20.318 -0.112 -20.304 -0.113 -20.287 -0.117 -20.240 -0.150 -20.225 -0.166 15.769 0.960 1.676 0.111 44.093 43.144
-0.800 -20.741 -0.089 -20.662 -0.086 -20.645 -0.087 -20.642 -0.087 -20.528 -0.098 -20.464 -0.102 -20.397 -0.100 -20.360 -0.098 -20.354 -0.098 -20.339 -0.098 -20.321 -0.101 -20.273 -0.116 -20.257 -0.130 16.028 0.992 1.683 0.112 44.124 43.188
-0.400 -20.783 -0.063 -20.704 -0.062 -20.686 -0.065 -20.683 -0.065 -20.568 -0.085 -20.502 -0.091 -20.433 -0.086 -20.394 -0.081 -20.388 -0.081 -20.372 -0.081 -20.353 -0.085 -20.302 -0.080 -20.286 -0.092 16.113 0.976 1.707 0.112 44.146 43.199
0.000 -20.816 -0.043 -20.737 -0.036 -20.719 -0.040 -20.716 -0.040 -20.601 -0.070 -20.536 -0.079 -20.465 -0.073 -20.426 -0.064 -20.419 -0.064 -20.403 -0.066 -20.383 -0.072 -20.329 -0.046 -20.311 -0.057 15.680 0.834 1.793 0.106 44.142 43.125
0.400 -20.838 -0.056 -20.760 -0.033 -20.743 -0.034 -20.740 -0.034 -20.629 -0.065 -20.565 -0.076 -20.495 -0.070 -20.454 -0.062 -20.447 -0.062 -20.430 -0.065 -20.409 -0.073 -20.350 -0.041 -20.331 -0.048 15.275 0.725 1.868 0.100 44.131 43.059
0.800 -20.852 -0.088 -20.778 -0.066 -20.762 -0.064 -20.759 -0.064 -20.653 -0.078 -20.591 -0.087 -20.521 -0.085 -20.480 -0.081 -20.473 -0.082 -20.455 -0.085 -20.432 -0.091 -20.367 -0.075 -20.348 -0.079 15.492 0.793 1.846 0.103 44.146 43.120
1.200 -20.860 -0.125 -20.791 -0.103 -20.776 -0.101 -20.773 -0.101 -20.672 -0.103 -20.613 -0.109 -20.545 -0.110 -20.503 -0.110 -20.496 -0.111 -20.477 -0.114 -20.452 -0.119 -20.380 -0.116 -20.360 -0.120 15.483 0.740 1.858 0.097 44.150 43.097
1.600 -20.863 -0.160 -20.799 -0.140 -20.785 -0.137 -20.783 -0.137 -20.688 -0.133 -20.631 -0.136 -20.564 -0.138 -20.523 -0.141 -20.516 -0.142 -20.496 -0.144 -20.468 -0.149 -20.389 -0.155 -20.368 -0.160 15.362 0.647 1.885 0.087 44.149 43.040
2.000 -20.862 -0.193 -20.803 -0.172 -20.790 -0.169 -20.788 -0.169 -20.699 -0.161 -20.645 -0.162 -20.580 -0.165 -20.538 -0.169 -20.531 -0.170 -20.510 -0.173 -20.481 -0.179 -20.395 -0.192 -20.373 -0.199 15.193 0.549 1.916 0.076 44.144 42.965
2.400 -20.856 -0.222 -20.802 -0.201 -20.790 -0.197 -20.788 -0.197 -20.706 -0.186 -20.654 -0.186 -20.591 -0.189 -20.550 -0.194 -20.542 -0.196 -20.521 -0.199 -20.490 -0.205 -20.399 -0.225 -20.376 -0.233 14.998 0.456 1.948 0.066 44.136 42.878
2.800 -20.846 -0.246 -20.797 -0.224 -20.786 -0.220 -20.784 -0.220 -20.708 -0.206 -20.659 -0.205 -20.598 -0.209 -20.557 -0.215 -20.549 -0.216 -20.528 -0.221 -20.496 -0.228 -20.399 -0.255 -20.375 -0.264 14.786 0.373 1.981 0.056 44.126 42.781
3.200 -20.832 -0.265 -20.788 -0.241 -20.778 -0.237 -20.776 -0.237 -20.706 -0.221 -20.660 -0.219 -20.601 -0.223 -20.560 -0.231 -20.553 -0.232 -20.531 -0.238 -20.498 -0.247 -20.396 -0.280 -20.372 -0.290 14.602 0.303 2.006 0.047 44.115 42.681
3.600 -20.815 -0.280 -20.775 -0.253 -20.766 -0.249 -20.764 -0.248 -20.699 -0.229 -20.656 -0.226 -20.600 -0.232 -20.560 -0.241 -20.552 -0.243 -20.530 -0.249 -20.496 -0.261 -20.391 -0.300 -20.366 -0.312 14.417 0.244 2.030 0.039 44.103 42.575
4.000 -20.794 -0.289 -20.758 -0.259 -20.749 -0.254 -20.748 -0.254 -20.689 -0.231 -20.648 -0.228 -20.594 -0.234 -20.555 -0.245 -20.547 -0.248 -20.525 -0.256 -20.491 -0.269 -20.383 -0.316 -20.357 -0.329 14.224 0.196 2.051 0.033 44.089 42.466
4.400 -20.769 -0.293 -20.737 -0.260 -20.730 -0.254 -20.728 -0.253 -20.674 -0.227 -20.636 -0.223 -20.585 -0.231 -20.546 -0.244 -20.539 -0.247 -20.517 -0.257 -20.482 -0.273 -20.372 -0.327 -20.346 -0.341 14.022 0.160 2.072 0.027 44.073 42.360
4.800 -20.741 -0.293 -20.713 -0.255 -20.706 -0.249 -20.705 -0.248 -20.656 -0.216 -20.621 -0.211 -20.572 -0.221 -20.534 -0.238 -20.527 -0.242 -20.505 -0.253 -20.471 -0.272 -20.360 -0.334 -20.333 -0.349 13.599 0.112 2.132 0.021 44.044 42.178
5.200 -20.710 -0.289 -20.686 -0.246 -20.680 -0.238 -20.679 -0.237 -20.635 -0.199 -20.602 -0.193 -20.556 -0.206 -20.519 -0.226 -20.512 -0.231 -20.490 -0.245 -20.456 -0.267 -20.345 -0.336 -20.318 -0.353 13.469 0.094 2.136 0.018 44.029 42.088
5.600 -20.676 -0.282 -20.656 -0.234 -20.651 -0.225 -20.650 -0.223 -20.610 -0.177 -20.580 -0.168 -20.536 -0.185 -20.501 -0.211 -20.494 -0.217 -20.473 -0.233 -20.439 -0.259 -20.328 -0.334 -20.301 -0.352 13.097 0.065 2.186 0.013 44.001 41.898
6.000 -20.640 -0.274 -20.623 -0.220 -20.618 -0.209 -20.618 -0.207 -20.583 -0.150 -20.555 -0.138 -20.514 -0.161 -20.480 -0.193 -20.473 -0.199 -20.453 -0.219 -20.420 -0.248 -20.309 -0.329 -20.282 -0.348 12.847 0.051 2.212 0.011 43.978 41.766
6.400 -20.601 -0.266 -20.587 -0.206 -20.583 -0.193 -20.583 -0.191 -20.552 -0.120 -20.528 -0.104 -20.489 -0.134 -20.457 -0.173 -20.450 -0.181 -20.430 -0.203 -20.398 -0.235 -20.288 -0.320 -20.262 -0.340 12.593 0.042 2.238 0.009 43.953 41.656
6.800 -20.560 -0.259 -20.549 -0.194 -20.546 -0.181 -20.546 -0.178 -20.520 -0.092 -20.498 -0.065 -20.462 -0.109 -20.431 -0.155 -20.425 -0.164 -20.406 -0.188 -20.374 -0.221 -20.267 -0.309 -20.241 -0.329 12.339 0.038 2.265 0.009 43.928 41.583
7.200 -20.516 -0.255 -20.509 -0.188 -20.507 -0.174 -20.506 -0.171 -20.485 -0.074 -20.466 -0.029 -20.433 -0.090 -20.404 -0.141 -20.398 -0.150 -20.379 -0.174 -20.349 -0.208 -20.244 -0.295 -20.219 -0.315 12.071 0.038 2.294 0.009 43.901 41.545
7.600 -20.471 -0.255 -20.467 -0.188 -20.466 -0.174 -20.465 -0.171 -20.448 -0.077 -20.431 -0.035 -20.402 -0.086 -20.375 -0.133 -20.369 -0.141 -20.352 -0.164 -20.323 -0.195 -20.221 -0.279 -20.196 -0.300 11.837 0.037 2.318 0.010 43.876 41.514
8.000 -20.425 -0.257 -20.424 -0.193 -20.423 -0.180 -20.423 -0.178 -20.410 -0.097 -20.396 -0.068 -20.370 -0.094 -20.345 -0.130 -20.339 -0.137 -20.323 -0.157 -20.295 -0.184 -20.197 -0.262 -20.173 -0.284 11.588 0.036 2.346 0.010 43.850 41.474
8.400 -20.378 -0.262 -20.379 -0.202 -20.379 -0.190 -20.379 -0.188 -20.371 -0.120 -20.359 -0.097 -20.337 -0.106 -20.314 -0.131 -20.309 -0.136 -20.294 -0.151 -20.268 -0.174 -20.173 -0.246 -20.150 -0.268 11.346 0.035 2.375 0.010 43.823 41.451
8.800 -20.330 -0.268 -20.334 -0.212 -20.335 -0.202 -20.335 -0.200 -20.331 -0.141 -20.322 -0.120 -20.303 -0.118 -20.283 -0.132 -20.279 -0.136 -20.265 -0.147 -20.240 -0.165 -20.149 -0.231 -20.127 -0.253 11.107 0.036 2.405 0.010 43.797 41.434
9.200 -20.281 -0.277 -20.289 -0.224 -20.290 -0.214 -20.291 -0.213 -20.291 -0.160 -20.286 -0.139 -20.270 -0.128 -20.252 -0.133 -20.248 -0.135 -20.236 -0.143 -20.213 -0.157 -20.127 -0.220 -20.105 -0.243 10.870 0.036 2.438 0.011 43.772 41.418
9.600 -20.233 -0.287 -20.245 -0.237 -20.246 -0.228 -20.247 -0.226 -20.252 -0.176 -20.250 -0.154 -20.238 -0.136 -20.223 -0.134 -20.219 -0.135 -20.208 -0.140 -20.187 -0.152 -20.105 -0.214 -20.084 -0.237 10.637 0.037 2.474 0.012 43.747 41.401
10.000 -20.185 -0.299 -20.200 -0.251 -20.203 -0.242 -20.203 -0.241 -20.214 -0.192 -20.214 -0.168 -20.206 -0.144 -20.194 -0.137 -20.190 -0.137 -20.180 -0.140 -20.162 -0.151 -20.084 -0.213 -20.064 -0.236 10.409 0.037 2.512 0.013 43.722 41.383
10.400 -20.138 -0.312 -20.157 -0.266 -20.160 -0.257 -20.161 -0.256 -20.176 -0.207 -20.180 -0.182 -20.175 -0.155 -20.166 -0.144 -20.163 -0.143 -20.154 -0.144 -20.138 -0.153 -20.065 -0.216 -20.046 -0.238 10.185 0.038 2.553 0.013 43.699 41.360
10.800 -20.091 -0.324 -20.114 -0.280 -20.118 -0.272 -20.119 -0.271 -20.140 -0.222 -20.146 -0.196 -20.146 -0.167 -20.139 -0.154 -20.137 -0.153 -20.130 -0.152 -20.115 -0.160 -20.047 -0.220 -20.029 -0.241 9.965 0.038 2.598 0.014 43.676 41.332
11.200 -20.043 -0.336 -20.071 -0.294 -20.076 -0.285 -20.077 -0.284 -20.104 -0.236 -20.113 -0.209 -20.117 -0.180 -20.113 -0.167 -20.111 -0.165 -20.106 -0.163 -20.093 -0.169 -20.030 -0.224 -20.012 -0.244 9.752 0.037 2.646 0.015 43.654 41.297
11.600 -19.996 -0.347 -20.028 -0.305 -20.034 -0.297 -20.035 -0.296 -20.068 -0.248 -20.081 -0.221 -20.090 -0.193 -20.088 -0.179 -20.087 -0.178 -20.083 -0.175 -20.072 -0.178 -20.014 -0.227 -19.997 -0.246 9.540 0.036 2.698 0.015 43.633 41.258
12.000 -19.948 -0.355 -19.985 -0.314 -19.992 -0.306 -19.993 -0.305 -20.033 -0.257 -20.050 -0.231 -20.062 -0.204 -20.064 -0.190 -20.063 -0.189 -20.060 -0.186 -20.052 -0.187 -19.999 -0.228 -19.983 -0.245 9.330 0.035 2.755 0.016 43.613 41.215
12.400 -19.900 -0.360 -19.942 -0.320 -19.950 -0.312 -19.951 -0.311 -19.997 -0.264 -20.019 -0.238 -20.036 -0.211 -20.040 -0.198 -20.040 -0.196 -20.039 -0.193 -20.032 -0.192 -19.985 -0.226 -19.970 -0.242 9.119 0.034 2.818 0.016 43.592 41.172
12.800 -19.850 -0.363 -19.898 -0.323 -19.907 -0.315 -19.909 -0.314 -19.962 -0.267 -19.988 -0.242 -20.010 -0.215 -20.018 -0.202 -20.018 -0.200 -20.018 -0.196 -20.014 -0.194 -19.972 -0.221 -19.958 -0.235 8.906 0.033 2.888 0.017 43.573 41.131
13.200 -19.799 -0.363 -19.853 -0.323 -19.863 -0.315 -19.865 -0.314 -19.926 -0.266 -19.956 -0.241 -19.984 -0.214 -19.995 -0.201 -19.997 -0.199 -19.998 -0.195 -19.997 -0.192 -19.960 -0.212 -19.947 -0.226 8.690 0.032 2.967 0.018 43.554 41.095
13.600 -19.746 -0.359 -19.806 -0.319 -19.818 -0.311 -19.820 -0.310 -19.889 -0.262 -19.925 -0.236 -19.958 -0.209 -19.973 -0.195 -19.975 -0.193 -19.979 -0.189 -19.980 -0.186 -19.949 -0.201 -19.938 -0.214 8.470 0.032 3.056 0.019 43.535 41.064
14.000 -19.691 -0.353 -19.757 -0.312 -19.770 -0.304 -19.772 -0.303 -19.851 -0.254 -19.892 -0.228 -19.932 -0.200 -19.951 -0.186 -19.954 -0.184 -19.960 -0.180 -19.964 -0.177 -19.940 -0.189 -19.929 -0.202 8.243 0.033 3.157 0.021 43.516 41.040
14.400 -19.633 -0.344 -19.706 -0.302 -19.720 -0.294 -19.722 -0.292 -19.811 -0.242 -19.858 -0.215 -19.905 -0.187 -19.929 -0.173 -19.933 -0.172 -19.941 -0.168 -19.948 -0.167 -19.931 -0.179 -19.921 -0.192 8.010 0.034 3.274 0.024 43.498 41.020
14.800 -19.571 -0.332 -19.651 -0.289 -19.667 -0.281 -19.669 -0.279 -19.768 -0.228 -19.822 -0.200 -19.877 -0.171 -19.906 -0.159 -19.911 -0.157 -19.922 -0.155 -19.932 -0.156 -19.923 -0.173 -19.915 -0.187 7.766 0.036 3.411 0.027 43.479 40.997
15.200 -19.505 -0.319 -19.592 -0.275 -19.609 -0.266 -19.612 -0.264 -19.722 -0.211 -19.783 -0.182 -19.848 -0.154 -19.882 -0.143 -19.888 -0.143 -19.902 -0.143 -19.916 -0.147 -19.917 -0.174 -19.910 -0.190 7.511 0.038 3.573 0.032 43.462 40.966
15.600 -19.434 -0.306 -19.527 -0.259 -19.547 -0.250 -19.550 -0.248 -19.672 -0.192 -19.740 -0.161 -19.815 -0.133 -19.856 -0.127 -19.863 -0.127 -19.880 -0.130 -19.899 -0.140 -19.911 -0.182 -19.906 -0.200 7.246 0.040 3.761 0.039 43.444 40.927
16.000 -19.357 -0.292 -19.457 -0.243 -19.478 -0.234 -19.482 -0.232 -19.615 -0.172 -19.692 -0.138 -19.778 -0.109 -19.827 -0.108 -19.835 -0.110 -19.855 -0.118 -19.880 -0.134 -19.904 -0.195 -19.901 -0.214 6.977 0.043 3.977 0.048 43.427 40.893
16.400 -19.274 -0.281 -19.380 -0.229 -19.403 -0.219 -19.406 -0.217 -19.552 -0.152 -19.638 -0.114 -19.735 -0.081 -19.792 -0.087 -19.802 -0.091 -19.826 -0.106 -19.856 -0.131 -19.896 -0.209 -19.895 -0.231 6.707 0.048 4.219 0.060 43.409 40.886
16.800 -19.184 -0.272 -19.296 -0.219 -19.320 -0.208 -19.324 -0.207 -19.481 -0.137 -19.576 -0.092 -19.686 -0.049 -19.752 -0.069 -19.763 -0.076 -19.792 -0.098 -19.829 -0.131 -19.886 -0.225 -19.888 -0.248 6.440 0.055 4.484 0.080 43.392 40.927
17.200 -19.089 -0.267 -19.204 -0.213 -19.229 -0.202 -19.233 -0.201 -19.400 -0.129 -19.504 -0.080 -19.628 -0.027 -19.704 -0.062 -19.717 -0.072 -19.751 -0.097 -19.797 -0.135 -19.874 -0.240 -19.880 -0.265 6.187 0.066 4.755 0.110 43.373 41.050
17.600 -18.988 -0.265 -19.106 -0.212 -19.131 -0.201 -19.136 -0.200 -19.312 -0.129 -19.425 -0.085 -19.562 -0.048 -19.648 -0.075 -19.664 -0.083 -19.705 -0.107 -19.760 -0.144 -19.860 -0.255 -19.869 -0.281 5.969 0.076 5.003 0.145 43.355 41.276
18.000 -18.884 -0.266 -19.003 -0.214 -19.029 -0.204 -19.033 -0.202 -19.217 -0.137 -19.338 -0.101 -19.488 -0.079 -19.588 -0.098 -19.605 -0.104 -19.654 -0.123 -19.720 -0.157 -19.845 -0.268 -19.858 -0.296 5.772 0.088 5.238 0.190 43.337 41.459
18.400 -18.780 -0.267 -18.898 -0.218 -18.924 -0.208 -18.929 -0.207 -19.118 -0.148 -19.247 -0.119 -19.412 -0.106 -19.524 -0.121 -19.545 -0.125 -19.601 -0.141 -19.678 -0.171 -19.829 -0.281 -19.845 -0.308 5.590 0.102 5.476 0.246 43.319 41.606
18.800 -18.679 -0.268 -18.795 -0.221 -18.821 -0.212 -18.826 -0.211 -19.019 -0.158 -19.155 -0.136 -19.336 -0.128 -19.462 -0.140 -19.485 -0.144 -19.549 -0.157 -19.638 -0.184 -19.813 -0.291 -19.832 -0.319 5.431 0.116 5.691 0.309 43.303 41.723
19.200 -18.585 -0.268 -18.698 -0.223 -18.724 -0.215 -18.729 -0.214 -18.926 -0.166 -19.069 -0.148 -19.265 -0.143 -19.404 -0.154 -19.430 -0.157 -19.502 -0.169 -19.601 -0.194 -19.797 -0.299 -19.819 -0.327 5.277 0.127 5.940 0.378 43.290 41.820
19.600 -18.502 -0.267 -18.613 -0.223 -18.638 -0.215 -18.642 -0.214 -18.841 -0.170 -18.992 -0.155 -19.203 -0.152 -19.355 -0.162 -19.384 -0.165 -19.462 -0.176 -19.570 -0.200 -19.783 -0.304 -19.807 -0.333 5.141 0.137 6.192 0.448 43.281 41.897
20.000 -18.435 -0.263 -18.542 -0.221 -18.568 -0.213 -18.572 -0.211 -18.772 -0.170 -18.930 -0.157 -19.155 -0.155 -19.318 -0.164 -19.349 -0.167 -19.432 -0.178 -19.547 -0.201 -19.771 -0.306 -19.795 -0.335 5.023 0.143 6.450 0.511 43.276 41.956
20.400 -18.386 -0.257 -18.493 -0.216 -18.518 -0.208 -18.522 -0.207 -18.724 -0.168 -18.888 -0.155 -19.125 -0.153 -19.295 -0.162 -19.327 -0.165 -19.414 -0.175 -19.532 -0.197 -19.760 -0.305 -19.784 -0.335 4.942 0.146 6.646 0.555 43.273 41.991
20.800 -18.359 -0.249 -18.467 -0.210 -18.492 -0.202 -18.496 -0.201 -18.701 -0.164 -18.870 -0.152 -19.113 -0.148 -19.288 -0.155 -19.320 -0.157 -19.407 -0.167 -19.526 -0.189 -19.750 -0.301 -19.774 -0.332 4.912 0.144 6.713 0.562 43.272 41.996
21.200 -18.353 -0.240 -18.465 -0.202 -18.491 -0.195 -18.496 -0.194 -18.707 -0.160 -18.876 -0.148 -19.120 -0.141 -19.294 -0.145 -19.326 -0.147 -19.412 -0.156 -19.528 -0.179 -19.740 -0.295 -19.762 -0.327 4.894 0.136 6.798 0.539 43.276 41.978
21.600 -18.366 -0.228 -18.485 -0.192 -18.513 -0.186 -18.517 -0.185 -18.734 -0.155 -18.902 -0.143 -19.141 -0.134 -19.310 -0.135 -19.341 -0.136 -19.424 -0.145 -19.534 -0.168 -19.730 -0.288 -19.749 -0.320 4.931 0.125 6.712 0.482 43.278 41.929
22.000 -18.396 -0.213 -18.522 -0.180 -18.551 -0.174 -18.556 -0.173 -18.777 -0.148 -18.941 -0.138 -19.170 -0.128 -19.331 -0.126 -19.360 -0.127 -19.438 -0.135 -19.540 -0.158 -19.717 -0.279 -19.733 -0.312 5.009 0.114 6.511 0.412 43.279 41.862
22.400 -18.436 -0.195 -18.569 -0.163 -18.599 -0.159 -18.604 -0.158 -18.827 -0.139 -18.986 -0.133 -19.202 -0.125 -19.352 -0.123 -19.379 -0.123 -19.451 -0.130 -19.544 -0.151 -19.700 -0.271 -19.713 -0.302 5.125 0.102 6.203 0.339 43.277 41.782
22.800 -18.483 -0.174 -18.622 -0.143 -18.652 -0.139 -18.658 -0.138 -18.879 -0.127 -19.032 -0.126 -19.233 -0.124 -19.370 -0.124 -19.394 -0.125 -19.459 -0.131 -19.543 -0.150 -19.678 -0.261 -19.688 -0.292 5.276 0.091 5.815 0.272 43.271 41.697
23.200 -18.532 -0.151 -18.675 -0.119 -18.706 -0.115 -18.711 -0.114 -18.929 -0.113 -19.074 -0.120 -19.259 -0.126 -19.381 -0.130 -19.403 -0.132 -19.461 -0.137 -19.536 -0.154 -19.651 -0.251 -19.658 -0.281 5.454 0.081 5.397 0.214 43.264 41.609
23.600 -18.579 -0.127 -18.724 -0.091 -18.756 -0.088 -18.761 -0.087 -18.974 -0.098 -19.110 -0.114 -19.278 -0.129 -19.387 -0.138 -19.406 -0.140 -19.457 -0.145 -19.521 -0.158 -19.619 -0.240 -19.624 -0.267 5.644 0.070 4.993 0.167 43.256 41.520
24.000 -18.620 -0.109 -18.767 -0.064 -18.798 -0.061 -18.803 -0.060 -19.010 -0.087 -19.138 -0.111 -19.290 -0.134 -19.385 -0.146 -19.402 -0.147 -19.446 -0.153 -19.501 -0.162 -19.581 -0.227 -19.585 -0.252 5.832 0.061 4.632 0.129 43.248 41.425
24.400 -18.654 -0.102 -18.800 -0.053 -18.830 -0.049 -18.835 -0.049 -19.035 -0.086 -19.155 -0.114 -19.292 -0.141 -19.376 -0.153 -19.391 -0.155 -19.429 -0.159 -19.476 -0.165 -19.540 -0.211 -19.543 -0.233 6.011 0.052 4.319 0.098 43.240 41.307
24.800 -18.678 -0.111 -18.822 -0.070 -18.852 -0.067 -18.857 -0.067 -19.049 -0.098 -19.161 -0.124 -19.286 -0.150 -19.360 -0.161 -19.373 -0.162 -19.406 -0.164 -19.446 -0.165 -19.497 -0.191 -19.498 -0.212 6.190 0.044 4.033 0.073 43.231 41.151
25.200 -18.693 -0.130 -18.834 -0.098 -18.863 -0.096 -18.867 -0.096 -19.052 -0.117 -19.156 -0.139 -19.272 -0.161 -19.339 -0.169 -19.350 -0.169 -19.378 -0.169 -19.412 -0.165 -19.452 -0.169 -19.453 -0.189 6.365 0.040 3.770 0.057 43.221 41.007
25.600 -18.700 -0.151 -18.836 -0.125 -18.864 -0.124 -18.869 -0.124 -19.046 -0.138 -19.145 -0.156 -19.252 -0.173 -19.313 -0.177 -19.323 -0.177 -19.348 -0.174 -19.377 -0.165 -19.408 -0.146 -19.408 -0.164 6.530 0.040 3.537 0.048 43.210 40.908
26.000 -18.699 -0.171 -18.832 -0.149 -18.859 -0.148 -18.863 -0.147 -19.033 -0.158 -19.127 -0.172 -19.228 -0.185 -19.284 -0.186 -19.293 -0.185 -19.316 -0.180 -19.342 -0.166 -19.366 -0.125 -19.367 -0.142 6.674 0.040 3.343 0.042 43.199 40.845
26.400 -18.693 -0.189 -18.822 -0.168 -18.848 -0.167 -18.852 -0.167 -19.016 -0.174 -19.106 -0.186 -19.202 -0.196 -19.255 -0.195 -19.264 -0.194 -19.285 -0.187 -19.309 -0.170 -19.329 -0.112 -19.330 -0.130 6.782 0.039 3.198 0.037 43.188 40.802
26.800 -18.682 -0.202 -18.808 -0.183 -18.833 -0.181 -18.837 -0.181 -18.996 -0.188 -19.083 -0.198 -19.177 -0.207 -19.228 -0.204 -19.236 -0.203 -19.257 -0.196 -19.279 -0.178 -19.299 -0.118 -19.301 -0.133 6.843 0.037 3.107 0.034 43.179 40.757
27.200 -18.668 -0.212 -18.791 -0.193 -18.816 -0.192 -18.820 -0.191 -18.975 -0.198 -19.060 -0.208 -19.152 -0.216 -19.203 -0.214 -19.211 -0.212 -19.231 -0.205 -19.254 -0.189 -19.277 -0.138 -19.278 -0.151 6.862 0.034 3.060 0.031 43.170 40.706
27.600 -18.653 -0.219 -18.773 -0.200 -18.797 -0.199 -18.801 -0.199 -18.954 -0.205 -19.038 -0.215 -19.130 -0.224 -19.181 -0.222 -19.189 -0.221 -19.210 -0.215 -19.234 -0.202 -19.260 -0.165 -19.262 -0.176 6.854 0.032 3.042 0.029 43.163 40.666
28.000 -18.636 -0.222 -18.755 -0.205 -18.779 -0.203 -18.783 -0.203 -18.934 -0.210 -19.019 -0.220 -19.111 -0.229 -19.163 -0.229 -19.171 -0.229 -19.193 -0.225 -19.219 -0.215 -19.250 -0.192 -19.251 -0.203 6.829 0.032 3.042 0.030 43.157 40.658
28.400 -18.619 -0.223 -18.737 -0.206 -18.761 -0.204 -18.765 -0.204 -18.916 -0.211 -19.001 -0.222 -19.095 -0.232 -19.149 -0.234 -19.158 -0.234 -19.181 -0.232 -19.208 -0.226 -19.244 -0.217 -19.246 -0.228 6.790 0.034 3.059 0.032 43.151 40.685
28.800 -18.602 -0.219 -18.720 -0.202 -18.744 -0.201 -18.748 -0.201 -18.900 -0.209 -18.987 -0.220 -19.083 -0.233 -19.139 -0.237 -19.149 -0.237 -19.173 -0.237 -19.203 -0.234 -19.243 -0.239 -19.245 -0.250 6.740 0.037 3.090 0.036 43.147 40.733
29.200 -18.586 -0.212 -18.704 -0.195 -18.729 -0.194 -18.732 -0.193 -18.887 -0.202 -18.975 -0.215 -19.075 -0.229 -19.133 -0.235 -19.143 -0.236 -19.169 -0.238 -19.201 -0.239 -19.245 -0.255 -19.247 -0.268 6.694 0.041 3.121 0.041 43.144 40.790
29.600 -18.571 -0.202 -18.690 -0.183 -18.714 -0.182 -18.718 -0.182 -18.875 -0.192 -18.966 -0.205 -19.069 -0.222 -19.131 -0.230 -19.141 -0.231 -19.168 -0.235 -19.202 -0.239 -19.249 -0.267 -19.252 -0.281 6.634 0.044 3.172 0.047 43.142 40.848
30.000 -18.556 -0.191 -18.676 -0.169 -18.701 -0.167 -18.706 -0.167 -18.866 -0.178 -18.960 -0.192 -19.067 -0.210 -19.131 -0.220 -19.142 -0.222 -19.171 -0.227 -19.206 -0.235 -19.256 -0.273 -19.258 -0.289 6.567 0.047 3.234 0.053 43.142 40.903
30.400 -18.543 -0.180 -18.665 -0.153 -18.690 -0.151 -18.694 -0.151 -18.859 -0.162 -18.956 -0.177 -19.067 -0.195 -19.134 -0.206 -19.145 -0.208 -19.175 -0.215 -19.212 -0.226 -19.264 -0.275 -19.266 -0.292 6.482 0.049 3.323 0.058 43.143 40.952
30.800 -18.531 -0.174 -18.654 -0.142 -18.680 -0.139 -18.684 -0.139 -18.854 -0.146 -18.954 -0.159 -19.069 -0.176 -19.138 -0.187 -19.150 -0.190 -19.181 -0.198 -19.219 -0.212 -19.272 -0.272 -19.274 -0.290 6.422 0.051 3.388 0.062 43.143 40.983
31.200 -18.520 -0.176 -18.646 -0.140 -18.672 -0.136 -18.676 -0.135 -18.849 -0.134 -18.952 -0.143 -19.071 -0.154 -19.143 -0.165 -19.155 -0.168 -19.186 -0.177 -19.225 -0.194 -19.279 -0.264 -19.281 -0.284 6.343 0.051 3.482 0.065 43.146 40.992
31.600 -18.510 -0.188 -18.638 -0.150 -18.665 -0.145 -18.669 -0.144 -18.845 -0.130 -18.951 -0.129 -19.073 -0.131 -19.146 -0.139 -19.159 -0.142 -19.191 -0.152 -19.230 -0.173 -19.285 -0.253 -19.288 -0.274 6.280 0.051 3.561 0.066 43.148 40.972
32.000 -18.501 -0.207 -18.630 -0.168 -18.658 -0.162 -18.662 -0.161 -18.841 -0.134 -18.948 -0.123 -19.073 -0.111 -19.148 -0.113 -19.161 -0.116 -19.193 -0.127 -19.233 -0.151 -19.289 -0.239 -19.293 -0.261 6.226 0.050 3.631 0.066 43.149 40.929
32.400 -18.491 -0.229 -18.622 -0.191 -18.649 -0.184 -18.654 -0.183 -18.834 -0.146 -18.942 -0.125 -19.069 -0.098 -19.146 -0.092 -19.159 -0.094 -19.192 -0.104 -19.232 -0.131 -19.291 -0.224 -19.295 -0.247 6.182 0.050 3.684 0.066 43.150 40.869
32.800 -18.479 -0.252 -18.611 -0.214 -18.639 -0.207 -18.644 -0.206 -18.825 -0.163 -18.933 -0.136 -19.061 -0.100 -19.138 -0.084 -19.151 -0.085 -19.185 -0.093 -19.226 -0.117 -19.291 -0.208 -19.296 -0.231 6.159 0.049 3.703 0.063 43.148 40.809
33.200 -18.466 -0.274 -18.599 -0.237 -18.627 -0.229 -18.631 -0.228 -18.812 -0.183 -18.921 -0.154 -19.048 -0.115 -19.125 -0.096 -19.139 -0.094 -19.173 -0.097 -19.216 -0.114 -19.287 -0.193 -19.294 -0.216 6.150 0.045 3.694 0.059 43.143 40.772
33.600 -18.451 -0.293 -18.584 -0.257 -18.612 -0.250 -18.616 -0.249 -18.797 -0.204 -18.904 -0.175 -19.030 -0.137 -19.108 -0.117 -19.122 -0.115 -19.157 -0.113 -19.202 -0.120 -19.282 -0.182 -19.291 -0.204 6.140 0.043 3.682 0.055 43.138 40.762
34.000 -18.434 -0.310 -18.567 -0.274 -18.594 -0.268 -18.599 -0.266 -18.778 -0.223 -18.885 -0.195 -19.011 -0.161 -19.089 -0.141 -19.103 -0.139 -19.139 -0.134 -19.187 -0.134 -19.276 -0.177 -19.287 -0.197 6.121 0.043 3.679 0.056 43.131 40.790
34.400 -18.415 -0.323 -18.548 -0.289 -18.575 -0.282 -18.580 -0.281 -18.758 -0.239 -18.865 -0.214 -18.990 -0.183 -19.069 -0.165 -19.083 -0.162 -19.120 -0.156 -19.170 -0.151 -19.270 -0.180 -19.283 -0.198 6.092 0.048 3.687 0.063 43.125 40.855
34.800 -18.394 -0.332 -18.527 -0.299 -18.554 -0.293 -18.558 -0.292 -18.736 -0.253 -18.843 -0.230 -18.968 -0.203 -19.048 -0.186 -19.063 -0.183 -19.102 -0.177 -19.154 -0.170 -19.264 -0.191 -19.279 -0.208 6.058 0.055 3.704 0.074 43.119 40.936
35.200 -18.372 -0.337 -18.504 -0.305 -18.531 -0.299 -18.536 -0.298 -18.714 -0.263 -18.820 -0.243 -18.947 -0.219 -19.029 -0.204 -19.044 -0.202 -19.084 -0.195 -19.140 -0.189 -19.259 -0.207 -19.275 -0.224 6.029 0.062 3.714 0.085 43.113 41.012
35.600 -18.349 -0.337 -18.481 -0.307 -18.508 -0.301 -18.512 -0.300 -18.691 -0.268 -18.798 -0.251 -18.927 -0.231 -19.011 -0.219 -19.026 -0.217 -19.068 -0.211 -19.126 -0.205 -19.254 -0.225 -19.273 -0.242 5.981 0.068 3.752 0.097 43.108 41.082
36.000 -18.324 -0.334 -18.456 -0.304 -18.484 -0.299 -18.488 -0.298 -18.668 -0.269 -18.776 -0.254 -18.907 -0.239 -18.994 -0.229 -19.010 -0.227 -19.053 -0.223 -19.114 -0.218 -19.250 -0.242 -19.271 -0.260 5.940 0.074 3.781 0.108 43.103 41.140
36.400 -18.299 -0.327 -18.431 -0.297 -18.459 -0.292 -18.464 -0.291 -18.645 -0.265 -18.755 -0.253 -18.889 -0.241 -18.978 -0.234 -18.994 -0.232 -19.040 -0.229 -19.103 -0.227 -19.247 -0.257 -19.269 -0.276 5.898 0.079 3.813 0.119 43.098 41.189
36.800 -18.273 -0.317 -18.406 -0.287 -18.434 -0.282 -18.438 -0.281 -18.621 -0.257 -18.733 -0.248 -18.871 -0.239 -18.963 -0.233 -18.980 -0.232 -19.027 -0.231 -19.093 -0.230 -19.244 -0.269 -19.267 -0.289 5.855 0.083 3.847 0.128 43.093 41.231
37.200 -18.246 -0.304 -18.380 -0.273 -18.409 -0.268 -18.413 -0.267 -18.599 -0.245 -18.713 -0.238 -18.853 -0.231 -18.949 -0.227 -18.966 -0.227 -19.015 -0.226 -19.084 -0.228 -19.241 -0.277 -19.265 -0.300 5.812 0.085 3.883 0.137 43.089 41.264
37.600 -18.220 -0.290 -18.355 -0.258 -18.383 -0.252 -18.388 -0.252 -18.576 -0.230 -18.692 -0.224 -18.837 -0.219 -18.935 -0.216 -18.953 -0.216 -19.003 -0.216 -19.074 -0.220 -19.237 -0.282 -19.263 -0.308 5.781 0.088 3.901 0.143 43.083 41.288
38.000 -18.193 -0.277 -18.329 -0.242 -18.358 -0.236 -18.362 -0.235 -18.553 -0.214 -18.672 -0.208 -18.820 -0.202 -18.921 -0.199 -18.940 -0.199 -18.991 -0.199 -19.065 -0.206 -19.233 -0.284 -19.259 -0.313 5.726 0.089 3.958 0.150 43.079 41.306
38.400 -18.166 -0.267 -18.303 -0.228 -18.332 -0.222 -18.337 -0.222 -18.531 -0.198 -18.652 -0.191 -18.803 -0.182 -18.907 -0.177 -18.926 -0.177 -18.979 -0.177 -19.054 -0.186 -19.228 -0.283 -19.255 -0.316 5.683 0.089 3.997 0.154 43.075 41.310
38.800 -18.139 -0.262 -18.277 -0.221 -18.307 -0.214 -18.312 -0.213 -18.508 -0.186 -18.631 -0.175 -18.786 -0.160 -18.892 -0.151 -18.912 -0.150 -18.966 -0.150 -19.043 -0.162 -19.220 -0.281 -19.248 -0.319 5.638 0.089 4.038 0.156 43.070 41.299
39.200 -18.113 -0.265 -18.252 -0.222 -18.282 -0.215 -18.286 -0.214 -18.485 -0.181 -18.610 -0.164 -18.768 -0.140 -18.876 -0.122 -18.896 -0.120 -18.951 -0.119 -19.030 -0.135 -19.211 -0.281 -19.240 -0.323 5.592 0.088 4.083 0.156 43.065 41.269
39.600 -18.086 -0.274 -18.226 -0.232 -18.256 -0.224 -18.261 -0.223 -18.461 -0.183 -18.588 -0.160 -18.748 -0.124 -18.857 -0.096 -18.878 -0.092 -18.934 -0.088 -19.014 -0.111 -19.199 -0.284 -19.229 -0.329 5.545 0.088 4.127 0.157 43.060 41.224
40.000 -18.059 -0.289 -18.200 -0.247 -18.230 -0.239 -18.235 -0.238 -18.436 -0.193 -18.564 -0.165 -18.725 -0.120 -18.836 -0.082 -18.857 -0.076 -18.914 -0.069 -18.995 -0.100 -19.184 -0.292 -19.215 -0.340 5.508 0.090 4.150 0.160 43.053 41.193
40.400 -18.031 -0.305 -18.173 -0.264 -18.203 -0.256 -18.208 -0.255 -18.410 -0.208 -18.537 -0.177 -18.699 -0.130 -18.811 -0.093 -18.832 -0.088 -18.890 -0.083 -18.973 -0.113 -19.166 -0.307 -19.197 -0.355 5.497 0.092 4.124 0.165 43.044 41.217
40.800 -18.001 -0.322 -18.144 -0.282 -18.174 -0.275 -18.179 -0.273 -18.381 -0.226 -18.509 -0.195 -18.671 -0.151 -18.783 -0.123 -18.804 -0.120 -18.863 -0.119 -18.946 -0.144 -19.144 -0.328 -19.177 -0.375 5.501 0.095 4.065 0.171 43.033 41.263
41.200 -17.970 -0.338 -18.113 -0.299 -18.143 -0.291 -18.148 -0.290 -18.350 -0.244 -18.477 -0.215 -18.639 -0.178 -18.752 -0.159 -18.773 -0.158 -18.832 -0.160 -18.916 -0.183 -19.120 -0.354 -19.154 -0.400 5.509 0.099 3.996 0.177 43.020 41.304
41.600 -17.938 -0.351 -18.080 -0.313 -18.110 -0.306 -18.115 -0.305 -18.316 -0.260 -18.444 -0.235 -18.605 -0.206 -18.717 -0.195 -18.739 -0.195 -18.798 -0.200 -18.883 -0.224 -19.093 -0.383 -19.128 -0.428 5.518 0.103 3.921 0.182 43.007 41.333
42.000 -17.904 -0.361 -18.046 -0.324 -18.076 -0.317 -18.080 -0.316 -18.281 -0.275 -18.407 -0.253 -18.568 -0.233 -18.681 -0.230 -18.702 -0.231 -18.762 -0.239 -18.848 -0.263 -19.063 -0.416 -19.100 -0.459 5.529 0.107 3.840 0.186 42.992 41.354
42.400 -17.868 -0.366 -18.009 -0.330 -18.039 -0.324 -18.044 -0.323 -18.243 -0.286 -18.369 -0.269 -18.530 -0.257 -18.642 -0.261 -18.664 -0.263 -18.723 -0.274 -18.811 -0.301 -19.030 -0.449 -19.069 -0.491 5.542 0.110 3.753 0.190 42.976 41.368
42.800 -17.830 -0.367 -17.971 -0.332 -18.001 -0.326 -18.006 -0.325 -18.204 -0.292 -18.329 -0.280 -18.489 -0.278 -18.602 -0.289 -18.623 -0.292 -18.683 -0.306 -18.772 -0.335 -18.996 -0.483 -19.036 -0.524 5.558 0.114 3.661 0.192 42.960 41.377
43.200 -17.792 -0.363 -17.932 -0.329 -17.961 -0.323 -17.966 -0.322 -18.163 -0.294 -18.288 -0.288 -18.447 -0.295 -18.560 -0.313 -18.582 -0.318 -18.642 -0.334 -18.731 -0.367 -18.960 -0.516 -19.002 -0.556 5.576 0.117 3.564 0.193 42.942 41.382
43.600 -17.751 -0.354 -17.891 -0.320 -17.920 -0.315 -17.925 -0.314 -18.121 -0.292 -18.245 -0.292 -18.404 -0.309 -18.517 -0.334 -18.539 -0.340 -18.599 -0.359 -18.689 -0.396 -18.923 -0.548 -18.966 -0.588 5.596 0.121 3.464 0.194 42.923 41.385
44.000 -17.710 -0.340 -17.849 -0.306 -17.878 -0.301 -17.883 -0.300 -18.078 -0.284 -18.202 -0.291 -18.361 -0.319 -18.473 -0.351 -18.495 -0.359 -18.556 -0.382 -18.647 -0.423 -18.885 -0.580 -18.929 -0.620 5.619 0.124 3.361 0.194 42.904 41.386
44.400 -17.668 -0.321 -17.806 -0.287 -17.835 -0.282 -17.840 -0.281 -18.034 -0.272 -18.158 -0.287 -18.316 -0.327 -18.429 -0.367 -18.451 -0.375 -18.512 -0.402 -18.604 -0.447 -18.846 -0.610 -18.892 -0.650 5.645 0.127 3.254 0.193 42.884 41.385
44.800 -17.626 -0.299 -17.763 -0.263 -17.792 -0.258 -17.796 -0.257 -17.990 -0.257 -18.113 -0.281 -18.271 -0.333 -18.385 -0.380 -18.407 -0.391 -18.468 -0.421 -18.560 -0.470 -18.807 -0.639 -18.854 -0.679 5.674 0.131 3.146 0.193 42.864 41.383
45.200 -17.583 -0.274 -17.719 -0.236 -17.748 -0.231 -17.753 -0.231 -17.945 -0.240 -18.068 -0.275 -18.227 -0.339 -18.340 -0.394 -18.362 -0.405 -18.424 -0.438 -18.517 -0.492 -18.768 -0.667 -18.816 -0.708 5.706 0.134 3.036 0.191 42.843 41.381
45.600 -17.540 -0.249 -17.675 -0.207 -17.704 -0.203 -17.709 -0.203 -17.901 -0.224 -18.023 -0.270 -18.182 -0.346 -18.296 -0.408 -18.318 -0.420 -18.380 -0.456 -18.474 -0.513 -18.729 -0.694 -18.778 -0.736 5.740 0.138 2.929 0.190 42.822 41.378
46.000 -17.497 -0.228 -17.632 -0.183 -17.660 -0.179 -17.665 -0.179 -17.857 -0.214 -17.979 -0.270 -18.138 -0.356 -18.252 -0.423 -18.274 -0.436 -18.337 -0.475 -18.431 -0.535 -18.690 -0.721 -18.740 -0.763 5.770 0.142 2.829 0.190 42.801 41.375
46.400 -17.454 -0.217 -17.589 -0.170 -17.617 -0.167 -17.622 -0.167 -17.813 -0.214 -17.936 -0.277 -18.094 -0.370 -18.209 -0.441 -18.231 -0.455 -18.294 -0.496 -18.389 -0.558 -18.651 -0.748 -18.702 -0.790 5.789 0.146 2.749 0.189 42.782 41.369
46.800 -17.412 -0.221 -17.546 -0.178 -17.575 -0.176 -17.579 -0.176 -17.770 -0.228 -17.893 -0.294 -18.052 -0.390 -18.167 -0.463 -18.189 -0.477 -18.252 -0.518 -18.348 -0.582 -18.613 -0.775 -18.665 -0.817 5.789 0.148 2.697 0.189 42.765 41.361
47.200 -17.370 -0.243 -17.504 -0.207 -17.533 -0.206 -17.537 -0.206 -17.729 -0.257 -17.851 -0.320 -18.010 -0.415 -18.125 -0.488 -18.148 -0.502 -18.211 -0.544 -18.308 -0.608 -18.576 -0.802 -18.629 -0.844 5.769 0.148 2.672 0.188 42.751 41.349
47.600 -17.329 -0.278 -17.464 -0.250 -17.492 -0.250 -17.497 -0.250 -17.688 -0.295 -17.810 -0.354 -17.969 -0.445 -18.085 -0.516 -18.107 -0.531 -18.171 -0.572 -18.268 -0.636 -18.539 -0.829 -18.593 -0.871 5.737 0.148 2.664 0.187 42.739 41.336
48.000 -17.289 -0.323 -17.423 -0.301 -17.452 -0.301 -17.457 -0.301 -17.648 -0.341 -17.770 -0.394 -17.929 -0.480 -18.046 -0.549 -18.068 -0.562 -18.132 -0.603 -18.230 -0.665 -18.504 -0.856 -18.559 -0.898 5.701 0.148 2.663 0.187 42.727 41.324
48.400 -17.250 -0.373 -17.384 -0.355 -17.413 -0.356 -17.417 -0.356 -17.609 -0.392 -17.731 -0.439 -17.891 -0.518 -18.007 -0.584 -18.030 -0.597 -18.095 -0.636 -18.193 -0.696 -18.470 -0.884 -18.526 -0.925 5.663 0.148 2.663 0.188 42.716 41.313
48.800 -17.211 -0.426 -17.346 -0.412 -17.374 -0.412 -17.379 -0.412 -17.570 -0.444 -17.693 -0.487 -17.854 -0.559 -17.971 -0.621 -17.993 -0.634 -18.058 -0.671 -18.157 -0.729 -18.437 -0.912 -18.493 -0.952 5.627 0.148 2.664 0.189 42.705 41.304
49.200 -17.173 -0.480 -17.308 -0.468 -17.337 -0.469 -17.341 -0.469 -17.533 -0.498 -17.656 -0.536 -17.817 -0.602 -17.935 -0.660 -17.958 -0.672 -18.023 -0.707 -18.123 -0.763 -18.405 -0.940 -18.462 -0.979 5.592 0.149 2.664 0.191 42.694 41.297
49.600 -17.135 -0.535 -17.271 -0.525 -17.300 -0.525 -17.304 -0.525 -17.497 -0.551 -17.621 -0.585 -17.782 -0.647 -17.901 -0.700 -17.924 -0.711 -17.989 -0.744 -18.090 -0.798 -18.375 -0.968 -18.433 -1.007 5.558 0.150 2.664 0.192 42.684 41.290
50.000 -17.099 -0.589 -17.235 -0.580 -17.264 -0.581 -17.268 -0.581 -17.462 -0.604 -17.586 -0.635 -17.749 -0.691 -17.867 -0.741 -17.891 -0.751 -17.957 -0.782 -18.058 -0.833 -18.346 -0.997 -18.405 -1.034 5.525 0.150 2.665 0.194 42.674 41.285
50.400 -17.063 -0.642 -17.200 -0.635 -17.228 -0.635 -17.233 -0.635 -17.428 -0.656 -17.553 -0.684 -17.716 -0.735 -17.836 -0.781 -17.859 -0.791 -17.926 -0.820 -18.027 -0.868 -18.318 -1.025 -18.378 -1.060 5.493 0.151 2.666 0.196 42.664 41.281
50.800 -17.027 -0.693 -17.165 -0.687 -17.194 -0.688 -17.199 -0.688 -17.395 -0.707 -17.520 -0.732 -17.685 -0.779 -17.805 -0.822 -17.829 -0.831 -17.896 -0.858 -17.998 -0.903 -18.292 -1.052 -18.352 -1.087 5.461 0.151 2.668 0.198 42.654 41.277
51.200 -16.992 -0.743 -17.131 -0.738 -17.160 -0.738 -17.165 -0.738 -17.362 -0.755 -17.489 -0.778 -17.654 -0.822 -17.776 -0.861 -17.799 -0.870 -17.867 -0.895 -17.971 -0.937 -18.268 -1.079 -18.328 -1.112 5.430 0.152 2.672 0.200 42.645 41.275
51.600 -16.958 -0.791 -17.098 -0.786 -17.128 -0.787 -17.132 -0.787 -17.331 -0.802 -17.458 -0.823 -17.625 -0.863 -17.748 -0.900 -17.772 -0.907 -17.840 -0.931 -17.944 -0.971 -18.244 -1.105 -18.306 -1.137 5.398 0.152 2.677 0.203 42.637 41.273
52.000 -16.925 -0.837 -17.066 -0.832 -17.095 -0.833 -17.100 -0.833 -17.301 -0.847 -17.429 -0.866 -17.598 -0.903 -17.721 -0.937 -17.745 -0.944 -17.814 -0.966 -17.919 -1.003 -18.223 -1.130 -18.285 -1.161 5.366 0.152 2.684 0.205 42.629 41.272
52.400 -16.892 -0.881 -17.034 -0.876 -17.064 -0.877 -17.069 -0.877 -17.271 -0.889 -17.401 -0.907 -17.571 -0.940 -17.696 -0.972 -17.720 -0.979 -17.790 -0.999 -17.896 -1.034 -18.202 -1.154 -18.265 -1.183 5.334 0.152 2.694 0.207 42.622 41.271
52.800 -16.859 -0.922 -17.003 -0.917 -17.034 -0.918 -17.039 -0.918 -17.243 -0.929 -17.374 -0.945 -17.546 -0.976 -17.671 -1.005 -17.696 -1.012 -17.766 -1.031 -17.874 -1.063 -18.184 -1.177 -18.248 -1.204 5.301 0.151 2.706 0.210 42.615 41.272
53.200 -16.828 -0.960 -16.973 -0.956 -17.004 -0.956 -17.009 -0.956 -17.215 -0.967 -17.348 -0.981 -17.521 -1.010 -17.649 -1.037 -17.673 -1.043 -17.745 -1.060 -17.853 -1.091 -18.167 -1.198 -18.231 -1.224 5.268 0.151 2.720 0.213 42.609 41.273
53.600 -16.797 -0.995 -16.944 -0.992 -16.975 -0.992 -16.980 -0.992 -17.189 -1.001 -17.323 -1.015 -17.498 -1.041 -17.627 -1.066 -17.652 -1.071 -17.724 -1.088 -17.834 -1.116 -18.151 -1.217 -18.216 -1.242 5.234 0.151 2.738 0.216 42.603 41.275
54.000 -16.766 -1.028 -16.915 -1.025 -16.946 -1.025 -16.952 -1.025 -17.163 -1.033 -17.299 -1.046 -17.476 -1.070 -17.607 -1.093 -17.632 -1.098 -17.705 -1.113 -17.816 -1.140 -18.137 -1.235 -18.203 -1.258 5.199 0.150 2.758 0.219 42.598 41.277
54.400 -16.736 -1.058 -16.887 -1.055 -16.919 -1.055 -16.924 -1.055 -17.138 -1.062 -17.276 -1.074 -17.456 -1.096 -17.588 -1.117 -17.614 -1.122 -17.687 -1.136 -17.800 -1.161 -18.125 -1.250 -18.191 -1.272 5.173 0.150 2.768 0.221 42.592 41.279
54.800 -16.707 -1.085 -16.860 -1.082 -16.892 -1.082 -16.897 -1.082 -17.114 -1.089 -17.254 -1.099 -17.436 -1.119 -17.570 -1.139 -17.596 -1.143 -17.671 -1.157 -17.785 -1.180 -18.114 -1.264 -18.181 -1.285 5.142 0.149 2.788 0.225 42.588 41.282
55.200 -16.678 -1.109 -16.833 -1.106 -16.866 -1.106 -16.871 -1.106 -17.091 -1.112 -17.233 -1.121 -17.418 -1.140 -17.554 -1.158 -17.580 -1.162 -17.656 -1.174 -17.771 -1.196 -18.104 -1.275 -18.172 -1.295 5.107 0.148 2.815 0.228 42.584 41.286
55.600 -16.650 -1.130 -16.807 -1.126 -16.840 -1.126 -16.846 -1.126 -17.069 -1.132 -17.213 -1.140 -17.401 -1.157 -17.538 -1.174 -17.565 -1.178 -17.642 -1.190 -17.759 -1.209 -18.096 -1.283 -18.165 -1.302 5.070 0.147 2.848 0.232 42.582 41.292
56.000 -16.622 -1.147 -16.782 -1.144 -16.815 -1.144 -16.821 -1.144 -17.048 -1.148 -17.194 -1.156 -17.385 -1.172 -17.524 -1.188 -17.552 -1.191 -17.630 -1.202 -17.748 -1.220 -18.090 -1.290 -18.160 -1.308 5.031 0.146 2.885 0.237 42.580 41.298
56.400 -16.595 -1.162 -16.757 -1.158 -16.791 -1.158 -16.797 -1.158 -17.028 -1.162 -17.176 -1.169 -17.370 -1.184 -17.512 -1.198 -17.540 -1.201 -17.619 -1.211 -17.739 -1.228 -18.085 -1.294 -18.156 -1.310 4.992 0.145 2.927 0.241 42.579 41.305
56.800 -16.568 -1.173 -16.733 -1.169 -16.768 -1.169 -16.774 -1.169 -17.009 -1.173 -17.159 -1.179 -17.356 -1.192 -17.500 -1.206 -17.529 -1.209 -17.609 -1.218 -17.731 -1.234 -18.081 -1.295 -18.153 -1.311 4.952 0.143 2.974 0.246 42.579 41.312
57.200 -16.541 -1.181 -16.710 -1.177 -16.745 -1.177 -16.751 -1.177 -16.990 -1.180 -17.144 -1.186 -17.344 -1.198 -17.490 -1.210 -17.519 -1.213 -17.600 -1.221 -17.725 -1.236 -18.079 -1.293 -18.152 -1.308 4.910 0.141 3.026 0.252 42.579 41.321
57.600 -16.516 -1.185 -16.687 -1.182 -16.723 -1.181 -16.729 -1.181 -16.973 -1.184 -17.129 -1.189 -17.333 -1.200 -17.482 -1.211 -17.511 -1.214 -17.593 -1.222 -17.719 -1.235 -18.079 -1.289 -18.152 -1.303 4.868 0.140 3.082 0.257 42.580 41.330
58.000 -16.490 -1.187 -16.665 -1.183 -16.702 -1.183 -16.708 -1.183 -16.956 -1.184 -17.115 -1.189 -17.323 -1.199 -17.474 -1.209 -17.504 -1.212 -17.588 -1.219 -17.716 -1.232 -18.080 -1.282 -18.154 -1.295 4.825 0.138 3.144 0.263 42.582 41.339
58.400 -16.465 -1.184 -16.643 -1.181 -16.681 -1.180 -16.687 -1.180 -16.940 -1.182 -17.102 -1.186 -17.314 -1.195 -17.468 -1.204 -17.498 -1.206 -17.583 -1.213 -17.713 -1.225 -18.082 -1.272 -18.157 -1.284 4.782 0.136 3.212 0.269 42.585 41.350
58.800 -16.441 -1.179 -16.622 -1.175 -16.660 -1.175 -16.667 -1.175 -16.925 -1.175 -17.090 -1.179 -17.306 -1.187 -17.463 -1.196 -17.493 -1.198 -17.580 -1.204 -17.712 -1.215 -18.086 -1.259 -18.161 -1.271 4.737 0.133 3.286 0.276 42.588 41.360
59.200 -16.416 -1.170 -16.602 -1.166 -16.641 -1.165 -16.647 -1.165 -16.911 -1.166 -17.079 -1.169 -17.299 -1.176 -17.459 -1.184 -17.490 -1.186 -17.578 -1.192 -17.712 -1.202 -18.091 -1.243 -18.167 -1.254 4.692 0.131 3.366 0.283 42.593 41.372
59.600 -16.392 -1.157 -16.582 -1.153 -16.622 -1.153 -16.628 -1.153 -16.897 -1.153 -17.070 -1.156 -17.294 -1.162 -17.456 -1.170 -17.488 -1.171 -17.578 -1.176 -17.714 -1.186 -18.097 -1.224 -18.174 -1.234 4.647 0.129 3.453 0.290 42.598 41.383
60.000 -16.369 -1.142 -16.562 -1.137 -16.603 -1.137 -16.610 -1.137 -16.885 -1.136 -17.061 -1.139 -17.289 -1.145 -17.455 -1.151 -17.487 -1.153 -17.578 -1.158 -17.717 -1.166 -18.104 -1.202 -18.182 -1.211 4.601 0.126 3.546 0.298 42.604 41.395
60.400 -16.345 -1.122 -16.543 -1.118 -16.585 -1.117 -16.592 -1.117 -16.873 -1.116 -17.053 -1.118 -17.286 -1.124 -17.455 -1.130 -17.487 -1.131 -17.580 -1.136 -17.721 -1.143 -18.113 -1.176 -18.191 -1.186 4.554 0.123 3.647 0.305 42.610 41.407
60.800 -16.322 -1.099 -16.525 -1.095 -16.567 -1.094 -16.574 -1.094 -16.862 -1.093 -17.045 -1.095 -17.284 -1.100 -17.456 -1.105 -17.489 -1.106 -17.584 -1.110 -17.726 -1.117 -18.123 -1.148 -18.201 -1.157 4.507 0.120 3.756 0.313 42.618 41.419
61.200 -16.299 -1.073 -16.506 -1.068 -16.550 -1.068 -16.557 -1.068 -16.852 -1.066 -17.039 -1.068 -17.282 -1.072 -17.458 -1.077 -17.492 -1.078 -17.588 -1.081 -17.733 -1.088 -18.133 -1.116 -18.212 -1.125 4.460 0.117 3.873 0.321 42.626 41.432
61.600 -16.277 -1.043 -16.489 -1.038 -16.533 -1.038 -16.541 -1.038 -16.842 -1.036 -17.034 -1.037 -17.282 -1.041 -17.461 -1.045 -17.496 -1.046 -17.594 -1.049 -17.741 -1.055 -18.145 -1.082 -18.224 -1.089 4.413 0.114 3.997 0.328 42.635 41.444
62.000 -16.254 -1.010 -16.471 -1.005 -16.517 -1.004 -16.525 -1.004 -16.833 -1.002 -17.030 -1.003 -17.283 -1.006 -17.466 -1.010 -17.501 -1.011 -17.600 -1.014 -17.749 -1.019 -18.157 -1.044 -18.236 -1.051 4.366 0.110 4.130 0.336 42.645 41.455
62.400 -16.232 -0.973 -16.454 -0.968 -16.501 -0.967 -16.509 -0.967 -16.825 -0.965 -17.026 -0.965 -17.285 -0.968 -17.471 -0.972 -17.507 -0.973 -17.608 -0.975 -17.759 -0.980 -18.170 -1.002 -18.249 -1.009 4.319 0.106 4.271 0.342 42.655 41.467
62.800 -16.209 -0.932 -16.437 -0.927 -16.485 -0.926 -16.493 -0.926 -16.817 -0.924 -17.023 -0.924 -17.288 -0.927 -17.477 -0.930 -17.514 -0.931 -17.616 -0.933 -17.770 -0.937 -18.183 -0.958 -18.262 -0.965 4.272 0.102 4.421 0.349 42.666 41.477
63.200 -16.187 -0.888 -16.420 -0.883 -16.470 -0.882 -16.478 -0.882 -16.810 -0.879 -17.021 -0.880 -17.292 -0.882 -17.485 -0.885 -17.522 -0.885 -17.626 -0.887 -17.781 -0.891 -18.196 -0.910 -18.275 -0.916 4.226 0.098 4.578 0.354 42.678 41.486
63.600 -16.164 -0.841 -16.404 -0.835 -16.454 -0.834 -16.463 -0.834 -16.804 -0.832 -17.020 -0.832 -17.297 -0.834 -17.493 -0.836 -17.531 -0.837 -17.636 -0.838 -17.793 -0.842 -18.209 -0.859 -18.288 -0.865 4.181 0.094 4.743 0.358 42.690 41.493
64.000 -16.142 -0.790 -16.387 -0.784 -16.439 -0.783 -16.448 -0.783 -16.798 -0.780 -17.019 -0.780 -17.302 -0.782 -17.502 -0.784 -17.540 -0.785 -17.647 -0.786 -17.806 -0.789 -18.222 -0.805 -18.301 -0.811 4.132 0.089 4.933 0.361 42.704 41.501
64.400 -16.119 -0.735 -16.371 -0.729 -16.424 -0.729 -16.433 -0.728 -16.792 -0.726 -17.019 -0.726 -17.308 -0.727 -17.511 -0.729 -17.550 -0.729 -17.658 -0.730 -17.818 -0.733 -18.235 -0.747 -18.312 -0.753 4.090 0.084 5.108 0.361 42.716 41.503
64.800 -16.096 -0.678 -16.354 -0.671 -16.409 -0.670 -16.418 -0.670 -16.787 -0.667 -17.020 -0.667 -17.315 -0.668 -17.521 -0.670 -17.560 -0.670 -17.670 -0.671 -17.831 -0.674 -18.246 -0.686 -18.323 -0.692 4.049 0.079 5.286 0.359 42.729 41.503
65.200 -16.072 -0.617 -16.337 -0.610 -16.394 -0.609 -16.403 -0.609 -16.782 -0.606 -17.021 -0.606 -17.322 -0.607 -17.531 -0.608 -17.570 -0.608 -17.681 -0.609 -17.843 -0.611 -18.256 -0.622 -18.331 -0.628 4.010 0.074 5.465 0.354 42.741 41.500
65.600 -16.049 -0.552 -16.320 -0.545 -16.378 -0.544 -16.388 -0.544 -16.777 -0.541 -17.022 -0.541 -17.329 -0.541 -17.540 -0.542 -17.580 -0.543 -17.692 -0.543 -17.854 -0.545 -18.264 -0.555 -18.338 -0.560 3.977 0.069 5.625 0.344 42.751 41.491
66.000 -16.024 -0.485 -16.303 -0.477 -16.362 -0.476 -16.372 -0.475 -16.773 -0.472 -17.023 -0.472 -17.335 -0.473 -17.549 -0.474 -17.589 -0.474 -17.701 -0.475 -17.863 -0.476 -18.270 -0.485 -18.343 -0.490 3.943 0.064 5.791 0.332 42.762 41.477
66.400 -16.000 -0.414 -16.285 -0.405 -16.346 -0.404 -16.356 -0.404 -16.768 -0.401 -17.024 -0.401 -17.341 -0.401 -17.556 -0.402 -17.597 -0.402 -17.709 -0.403 -17.871 -0.404 -18.273 -0.412 -18.344 -0.417 3.913 0.058 5.945 0.317 42.771 41.459
66.800 -15.975 -0.342 -16.267 -0.331 -16.330 -0.330 -16.340 -0.330 -16.762 -0.327 -17.024 -0.327 -17.344 -0.327 -17.561 -0.327 -17.602 -0.327 -17.714 -0.328 -17.875 -0.329 -18.272 -0.337 -18.342 -0.342 3.886 0.053 6.079 0.299 42.778 41.434
67.200 -15.951 -0.268 -16.248 -0.255 -16.312 -0.254 -16.323 -0.254 -16.756 -0.251 -17.023 -0.251 -17.346 -0.250 -17.563 -0.250 -17.603 -0.250 -17.715 -0.251 -17.876 -0.252 -18.268 -0.259 -18.337 -0.266 3.863 0.048 6.187 0.279 42.784 41.404
67.600 -15.927 -0.197 -16.229 -0.179 -16.295 -0.177 -16.305 -0.177 -16.749 -0.174 -17.019 -0.174 -17.343 -0.172 -17.560 -0.172 -17.600 -0.172 -17.712 -0.172 -17.872 -0.174 -18.259 -0.182 -18.327 -0.190 3.840 0.043 6.293 0.258 42.788 41.368
68.000 -15.906 -0.137 -16.210 -0.110 -16.277 -0.107 -16.288 -0.107 -16.739 -0.103 -17.012 -0.103 -17.335 -0.100 -17.551 -0.098 -17.591 -0.098 -17.702 -0.098 -17.863 -0.103 -18.246 -0.113 -18.313 -0.124 3.824 0.039 6.346 0.232 42.788 41.317
68.400 -15.888 -0.117 -16.193 -0.082 -16.260 -0.079 -16.271 -0.078 -16.725 -0.074 -16.998 -0.074 -17.321 -0.070 -17.536 -0.065 -17.576 -0.065 -17.687 -0.066 -17.847 -0.072 -18.228 -0.085 -18.294 -0.099 3.817 0.036 6.333 0.212 42.783 41.271
68.800 -15.876 -0.156 -16.179 -0.131 -16.246 -0.128 -16.257 -0.128 -16.705 -0.124 -16.976 -0.125 -17.299 -0.123 -17.514 -0.120 -17.554 -0.120 -17.665 -0.121 -17.824 -0.123 -18.206 -0.133 -18.272 -0.143 3.836 0.040 6.176 0.231 42.770 41.308
69.200 -15.867 -0.225 -16.167 -0.207 -16.232 -0.205 -16.242 -0.205 -16.681 -0.201 -16.949 -0.201 -17.271 -0.201 -17.485 -0.200 -17.525 -0.200 -17.636 -0.200 -17.795 -0.201 -18.179 -0.209 -18.246 -0.217 3.860 0.044 5.981 0.246 42.753 41.333
69.600 -15.860 -0.303 -16.154 -0.289 -16.217 -0.288 -16.228 -0.287 -16.654 -0.283 -16.917 -0.283 -17.237 -0.283 -17.451 -0.282 -17.491 -0.282 -17.602 -0.282 -17.761 -0.283 -18.147 -0.291 -18.215 -0.297 3.887 0.049 5.763 0.259 42.733 41.348
