"Time (MJD)" cyan-5182.42 cyan-5182.42_err g-4735.89 g-4735.89_err g-4746.48 g-4746.48_err i-7589.41 i-7589.41_err i-7645.77 i-7645.77_err orange-6629.82 orange-6629.82_err r-6120.65 r-6120.65_err r-6198.96 r-6198.96_err r-6366.38 r-6366.38_err "Temp./1e3 (K)" "Temp. Err." "Radius/1e15 (cm)" "Radius Err." "Log10(Bol. Lum)" "Log10(Bol. Err)"
-31.000 -19.234 -0.112 -19.232 -0.111 -19.140 -0.094 -18.923 -0.088 -18.905 -0.087 -18.866 -0.087 -18.805 -0.090 -18.572 -0.131 -18.558 -0.136 23.965 0.694 0.551 0.014 43.853 42.671
-30.600 -19.291 -0.108 -19.289 -0.107 -19.200 -0.091 -18.986 -0.085 -18.968 -0.085 -18.929 -0.085 -18.867 -0.088 -18.629 -0.129 -18.614 -0.134 23.764 0.829 0.571 0.017 43.869 42.767
-30.200 -19.347 -0.105 -19.345 -0.104 -19.259 -0.089 -19.049 -0.084 -19.031 -0.083 -18.992 -0.083 -18.929 -0.086 -18.685 -0.128 -18.671 -0.133 23.544 0.962 0.591 0.021 43.884 42.849
-29.800 -19.403 -0.103 -19.402 -0.102 -19.318 -0.087 -19.112 -0.082 -19.094 -0.082 -19.055 -0.081 -18.992 -0.085 -18.742 -0.127 -18.727 -0.133 23.310 1.091 0.613 0.025 43.899 42.920
-29.400 -19.460 -0.101 -19.458 -0.100 -19.377 -0.086 -19.175 -0.082 -19.157 -0.081 -19.118 -0.081 -19.054 -0.084 -18.798 -0.128 -18.783 -0.133 23.064 1.214 0.637 0.030 43.912 42.983
-29.000 -19.515 -0.099 -19.514 -0.099 -19.436 -0.085 -19.238 -0.081 -19.220 -0.081 -19.181 -0.080 -19.116 -0.084 -18.855 -0.128 -18.839 -0.134 22.810 1.328 0.661 0.034 43.926 43.038
-28.600 -19.571 -0.098 -19.569 -0.098 -19.495 -0.084 -19.300 -0.081 -19.282 -0.081 -19.243 -0.080 -19.178 -0.084 -18.911 -0.130 -18.895 -0.135 22.551 1.433 0.686 0.039 43.939 43.087
-28.200 -19.626 -0.098 -19.624 -0.097 -19.553 -0.084 -19.362 -0.081 -19.345 -0.081 -19.306 -0.081 -19.239 -0.084 -18.967 -0.131 -18.950 -0.137 22.290 1.527 0.713 0.044 43.951 43.129
-27.800 -19.680 -0.097 -19.679 -0.096 -19.611 -0.083 -19.424 -0.082 -19.407 -0.081 -19.367 -0.081 -19.301 -0.085 -19.022 -0.133 -19.005 -0.139 22.028 1.610 0.740 0.049 43.964 43.167
-27.400 -19.734 -0.096 -19.733 -0.096 -19.668 -0.083 -19.485 -0.082 -19.468 -0.082 -19.429 -0.082 -19.361 -0.085 -19.077 -0.135 -19.060 -0.141 21.768 1.682 0.769 0.055 43.976 43.201
-27.000 -19.788 -0.096 -19.787 -0.095 -19.725 -0.083 -19.545 -0.083 -19.528 -0.082 -19.489 -0.082 -19.421 -0.086 -19.132 -0.138 -19.114 -0.143 21.510 1.741 0.798 0.060 43.988 43.230
-26.600 -19.841 -0.095 -19.840 -0.095 -19.781 -0.083 -19.605 -0.083 -19.588 -0.083 -19.548 -0.083 -19.480 -0.087 -19.185 -0.140 -19.167 -0.146 21.255 1.790 0.828 0.065 43.999 43.256
-26.200 -19.893 -0.095 -19.892 -0.094 -19.836 -0.082 -19.664 -0.084 -19.646 -0.083 -19.607 -0.083 -19.538 -0.087 -19.239 -0.143 -19.220 -0.148 21.003 1.827 0.860 0.070 44.011 43.279
-25.800 -19.944 -0.094 -19.943 -0.094 -19.891 -0.082 -19.721 -0.084 -19.704 -0.084 -19.665 -0.084 -19.595 -0.088 -19.292 -0.145 -19.273 -0.151 20.753 1.854 0.892 0.075 44.022 43.299
-25.400 -19.995 -0.094 -19.994 -0.093 -19.944 -0.082 -19.778 -0.084 -19.761 -0.084 -19.721 -0.084 -19.652 -0.088 -19.344 -0.148 -19.325 -0.154 20.506 1.871 0.925 0.081 44.032 43.316
-25.000 -20.044 -0.093 -20.043 -0.093 -19.997 -0.081 -19.833 -0.085 -19.816 -0.084 -19.777 -0.084 -19.707 -0.089 -19.395 -0.150 -19.376 -0.156 20.262 1.878 0.959 0.086 44.043 43.330
-24.600 -20.093 -0.092 -20.092 -0.092 -20.048 -0.080 -19.887 -0.085 -19.870 -0.084 -19.831 -0.084 -19.761 -0.089 -19.446 -0.153 -19.426 -0.159 20.021 1.877 0.993 0.090 44.053 43.342
-24.200 -20.141 -0.092 -20.140 -0.091 -20.099 -0.079 -19.940 -0.085 -19.923 -0.084 -19.884 -0.084 -19.814 -0.089 -19.495 -0.155 -19.476 -0.161 19.783 1.868 1.029 0.095 44.063 43.351
-23.800 -20.187 -0.091 -20.187 -0.090 -20.148 -0.078 -19.992 -0.084 -19.975 -0.084 -19.936 -0.084 -19.865 -0.089 -19.544 -0.157 -19.524 -0.163 19.549 1.851 1.065 0.099 44.072 43.359
-23.400 -20.233 -0.090 -20.232 -0.089 -20.195 -0.077 -20.042 -0.084 -20.025 -0.084 -19.986 -0.084 -19.916 -0.089 -19.592 -0.159 -19.572 -0.166 19.318 1.827 1.102 0.104 44.081 43.364
-23.000 -20.277 -0.088 -20.277 -0.088 -20.242 -0.076 -20.091 -0.084 -20.074 -0.083 -20.035 -0.083 -19.965 -0.088 -19.639 -0.162 -19.619 -0.168 19.091 1.796 1.140 0.107 44.090 43.367
-22.600 -20.320 -0.087 -20.320 -0.086 -20.287 -0.075 -20.138 -0.083 -20.121 -0.083 -20.083 -0.083 -20.012 -0.088 -19.685 -0.163 -19.665 -0.170 18.868 1.759 1.178 0.111 44.098 43.368
-22.200 -20.363 -0.086 -20.362 -0.085 -20.331 -0.074 -20.184 -0.083 -20.167 -0.082 -20.129 -0.082 -20.058 -0.087 -19.731 -0.165 -19.710 -0.172 18.651 1.716 1.217 0.114 44.106 43.367
-21.800 -20.403 -0.084 -20.403 -0.083 -20.373 -0.073 -20.228 -0.082 -20.212 -0.082 -20.173 -0.082 -20.103 -0.087 -19.775 -0.167 -19.754 -0.174 18.439 1.669 1.256 0.117 44.114 43.364
-21.400 -20.443 -0.082 -20.443 -0.082 -20.414 -0.072 -20.271 -0.082 -20.255 -0.081 -20.216 -0.081 -20.146 -0.086 -19.818 -0.169 -19.797 -0.176 18.233 1.618 1.295 0.119 44.121 43.359
-21.000 -20.482 -0.080 -20.481 -0.080 -20.454 -0.070 -20.313 -0.081 -20.296 -0.080 -20.258 -0.080 -20.188 -0.086 -19.860 -0.170 -19.839 -0.177 18.035 1.564 1.335 0.121 44.128 43.352
-20.600 -20.519 -0.078 -20.518 -0.078 -20.492 -0.069 -20.353 -0.080 -20.336 -0.080 -20.298 -0.080 -20.228 -0.085 -19.901 -0.172 -19.880 -0.179 17.843 1.507 1.374 0.122 44.135 43.343
-20.200 -20.555 -0.076 -20.554 -0.075 -20.529 -0.068 -20.391 -0.080 -20.375 -0.079 -20.337 -0.079 -20.267 -0.085 -19.941 -0.173 -19.920 -0.180 17.658 1.448 1.414 0.123 44.141 43.333
-19.800 -20.589 -0.073 -20.589 -0.073 -20.565 -0.067 -20.428 -0.079 -20.412 -0.079 -20.374 -0.078 -20.305 -0.084 -19.980 -0.175 -19.959 -0.182 17.479 1.387 1.453 0.124 44.148 43.321
-19.400 -20.623 -0.071 -20.623 -0.070 -20.599 -0.066 -20.464 -0.079 -20.448 -0.078 -20.410 -0.078 -20.341 -0.084 -20.018 -0.176 -19.997 -0.183 17.306 1.326 1.493 0.124 44.154 43.307
-19.000 -20.655 -0.068 -20.655 -0.068 -20.632 -0.065 -20.498 -0.079 -20.482 -0.078 -20.444 -0.077 -20.376 -0.083 -20.055 -0.177 -20.034 -0.184 17.140 1.264 1.532 0.123 44.159 43.292
-18.600 -20.686 -0.065 -20.686 -0.065 -20.663 -0.064 -20.531 -0.078 -20.515 -0.078 -20.477 -0.077 -20.409 -0.083 -20.091 -0.178 -20.070 -0.186 16.980 1.203 1.570 0.122 44.165 43.275
-18.200 -20.716 -0.063 -20.716 -0.062 -20.693 -0.063 -20.563 -0.078 -20.547 -0.077 -20.509 -0.077 -20.441 -0.083 -20.125 -0.180 -20.105 -0.187 16.827 1.143 1.609 0.121 44.170 43.257
-17.800 -20.745 -0.060 -20.745 -0.059 -20.722 -0.062 -20.593 -0.078 -20.577 -0.077 -20.540 -0.077 -20.473 -0.083 -20.159 -0.181 -20.139 -0.188 16.680 1.084 1.647 0.120 44.175 43.238
-17.400 -20.772 -0.057 -20.772 -0.056 -20.750 -0.062 -20.622 -0.078 -20.606 -0.077 -20.569 -0.077 -20.503 -0.083 -20.192 -0.182 -20.172 -0.189 16.540 1.027 1.684 0.118 44.180 43.218
-17.000 -20.799 -0.054 -20.799 -0.054 -20.776 -0.061 -20.650 -0.078 -20.634 -0.077 -20.597 -0.077 -20.531 -0.083 -20.224 -0.183 -20.204 -0.190 16.407 0.973 1.721 0.117 44.184 43.198
-16.600 -20.824 -0.051 -20.824 -0.051 -20.802 -0.061 -20.676 -0.079 -20.661 -0.078 -20.624 -0.077 -20.559 -0.083 -20.255 -0.183 -20.235 -0.191 16.283 0.923 1.756 0.115 44.189 43.177
-16.200 -20.848 -0.049 -20.848 -0.049 -20.826 -0.061 -20.702 -0.079 -20.686 -0.078 -20.650 -0.077 -20.586 -0.084 -20.284 -0.184 -20.265 -0.192 16.167 0.876 1.791 0.113 44.193 43.157
-15.800 -20.871 -0.047 -20.871 -0.047 -20.849 -0.062 -20.726 -0.079 -20.710 -0.078 -20.675 -0.077 -20.611 -0.084 -20.313 -0.185 -20.294 -0.193 16.060 0.835 1.824 0.111 44.198 43.139
-15.400 -20.893 -0.046 -20.893 -0.046 -20.872 -0.062 -20.749 -0.079 -20.734 -0.078 -20.699 -0.078 -20.636 -0.085 -20.341 -0.186 -20.322 -0.193 15.962 0.798 1.856 0.110 44.203 43.123
-15.000 -20.914 -0.045 -20.914 -0.045 -20.893 -0.063 -20.771 -0.080 -20.756 -0.079 -20.721 -0.078 -20.659 -0.085 -20.368 -0.187 -20.349 -0.194 15.873 0.768 1.887 0.108 44.207 43.110
-14.600 -20.933 -0.046 -20.933 -0.045 -20.913 -0.064 -20.792 -0.080 -20.777 -0.079 -20.743 -0.078 -20.682 -0.086 -20.394 -0.187 -20.375 -0.195 15.792 0.743 1.917 0.107 44.212 43.100
-14.200 -20.952 -0.047 -20.952 -0.046 -20.932 -0.065 -20.812 -0.081 -20.797 -0.080 -20.763 -0.079 -20.703 -0.086 -20.420 -0.188 -20.401 -0.195 15.718 0.722 1.945 0.107 44.216 43.093
-13.800 -20.969 -0.048 -20.969 -0.048 -20.950 -0.066 -20.831 -0.082 -20.816 -0.081 -20.783 -0.080 -20.723 -0.087 -20.444 -0.188 -20.425 -0.196 15.648 0.705 1.972 0.106 44.220 43.088
-13.400 -20.986 -0.050 -20.986 -0.049 -20.967 -0.068 -20.849 -0.082 -20.834 -0.081 -20.801 -0.081 -20.743 -0.088 -20.468 -0.189 -20.449 -0.196 15.581 0.689 1.998 0.106 44.224 43.083
-13.000 -21.001 -0.052 -21.001 -0.051 -20.983 -0.069 -20.866 -0.083 -20.851 -0.082 -20.819 -0.082 -20.761 -0.089 -20.490 -0.189 -20.472 -0.197 15.515 0.673 2.024 0.105 44.228 43.078
-12.600 -21.016 -0.053 -21.016 -0.053 -20.998 -0.071 -20.882 -0.084 -20.868 -0.083 -20.835 -0.083 -20.779 -0.090 -20.512 -0.190 -20.494 -0.197 15.450 0.657 2.049 0.105 44.232 43.073
-12.200 -21.030 -0.055 -21.030 -0.055 -21.013 -0.072 -20.897 -0.085 -20.883 -0.084 -20.851 -0.084 -20.795 -0.091 -20.533 -0.190 -20.515 -0.198 15.385 0.641 2.074 0.104 44.235 43.067
-11.800 -21.043 -0.057 -21.043 -0.057 -21.026 -0.073 -20.912 -0.086 -20.898 -0.085 -20.866 -0.085 -20.811 -0.092 -20.553 -0.191 -20.536 -0.198 15.318 0.624 2.098 0.103 44.237 43.059
-11.400 -21.055 -0.059 -21.055 -0.058 -21.039 -0.074 -20.926 -0.087 -20.912 -0.086 -20.880 -0.086 -20.826 -0.094 -20.573 -0.191 -20.556 -0.198 15.251 0.606 2.122 0.101 44.240 43.049
-11.000 -21.066 -0.060 -21.066 -0.060 -21.051 -0.075 -20.939 -0.088 -20.925 -0.087 -20.894 -0.087 -20.841 -0.095 -20.592 -0.191 -20.575 -0.198 15.182 0.587 2.146 0.100 44.241 43.038
-10.600 -21.077 -0.061 -21.077 -0.061 -21.063 -0.076 -20.951 -0.089 -20.938 -0.088 -20.907 -0.088 -20.854 -0.096 -20.610 -0.191 -20.593 -0.198 15.112 0.567 2.170 0.099 44.243 43.025
-10.200 -21.088 -0.062 -21.088 -0.061 -21.073 -0.077 -20.963 -0.090 -20.950 -0.089 -20.919 -0.090 -20.867 -0.098 -20.627 -0.191 -20.611 -0.198 15.042 0.547 2.194 0.097 44.244 43.010
-9.800 -21.097 -0.062 -21.097 -0.062 -21.084 -0.077 -20.974 -0.091 -20.961 -0.090 -20.931 -0.091 -20.880 -0.099 -20.644 -0.191 -20.628 -0.198 14.970 0.526 2.217 0.095 44.245 42.994
-9.400 -21.107 -0.062 -21.107 -0.062 -21.093 -0.077 -20.985 -0.092 -20.972 -0.092 -20.942 -0.092 -20.892 -0.101 -20.660 -0.191 -20.645 -0.198 14.899 0.505 2.241 0.093 44.246 42.977
-9.000 -21.115 -0.062 -21.115 -0.062 -21.102 -0.077 -20.995 -0.093 -20.982 -0.093 -20.953 -0.094 -20.903 -0.102 -20.676 -0.191 -20.660 -0.198 14.827 0.484 2.264 0.091 44.247 42.958
-8.600 -21.123 -0.061 -21.123 -0.061 -21.111 -0.076 -21.005 -0.094 -20.992 -0.094 -20.963 -0.095 -20.914 -0.103 -20.691 -0.190 -20.676 -0.197 14.754 0.463 2.288 0.089 44.247 42.937
-8.200 -21.131 -0.061 -21.131 -0.060 -21.119 -0.076 -21.014 -0.094 -21.001 -0.095 -20.973 -0.096 -20.924 -0.105 -20.705 -0.190 -20.690 -0.197 14.680 0.441 2.311 0.086 44.247 42.915
-7.800 -21.138 -0.059 -21.138 -0.059 -21.127 -0.075 -21.023 -0.095 -21.010 -0.095 -20.982 -0.097 -20.934 -0.106 -20.719 -0.189 -20.704 -0.196 14.606 0.420 2.334 0.084 44.247 42.892
-7.400 -21.145 -0.058 -21.145 -0.058 -21.134 -0.074 -21.031 -0.096 -21.018 -0.096 -20.990 -0.098 -20.943 -0.107 -20.732 -0.189 -20.718 -0.195 14.532 0.399 2.357 0.081 44.247 42.867
-7.000 -21.151 -0.056 -21.151 -0.056 -21.140 -0.073 -21.038 -0.096 -21.026 -0.097 -20.999 -0.099 -20.952 -0.108 -20.745 -0.188 -20.731 -0.194 14.458 0.379 2.380 0.079 44.246 42.840
-6.600 -21.157 -0.054 -21.157 -0.054 -21.147 -0.071 -21.046 -0.096 -21.034 -0.097 -21.006 -0.100 -20.960 -0.108 -20.757 -0.187 -20.743 -0.193 14.383 0.358 2.403 0.076 44.246 42.813
-6.200 -21.162 -0.051 -21.162 -0.051 -21.152 -0.069 -21.053 -0.096 -21.041 -0.097 -21.014 -0.100 -20.968 -0.109 -20.769 -0.186 -20.755 -0.192 14.309 0.339 2.425 0.074 44.245 42.784
-5.800 -21.167 -0.049 -21.167 -0.049 -21.158 -0.068 -21.059 -0.096 -21.047 -0.097 -21.020 -0.100 -20.976 -0.109 -20.780 -0.185 -20.767 -0.191 14.236 0.320 2.448 0.071 44.244 42.754
-5.400 -21.172 -0.046 -21.172 -0.046 -21.163 -0.066 -21.065 -0.096 -21.053 -0.097 -21.027 -0.100 -20.983 -0.109 -20.791 -0.183 -20.778 -0.189 14.164 0.302 2.470 0.069 44.243 42.723
-5.000 -21.176 -0.044 -21.176 -0.043 -21.168 -0.064 -21.071 -0.095 -21.059 -0.096 -21.033 -0.100 -20.989 -0.109 -20.801 -0.182 -20.788 -0.187 14.093 0.285 2.491 0.066 44.242 42.693
-4.600 -21.180 -0.041 -21.180 -0.041 -21.172 -0.061 -21.076 -0.094 -21.064 -0.096 -21.038 -0.100 -20.995 -0.109 -20.811 -0.180 -20.798 -0.185 14.024 0.269 2.512 0.064 44.241 42.663
-4.200 -21.183 -0.039 -21.183 -0.039 -21.176 -0.059 -21.080 -0.093 -21.069 -0.095 -21.043 -0.099 -21.001 -0.108 -20.820 -0.178 -20.808 -0.183 13.959 0.255 2.533 0.062 44.239 42.634
-3.800 -21.186 -0.038 -21.186 -0.037 -21.179 -0.057 -21.085 -0.092 -21.073 -0.094 -21.048 -0.098 -21.006 -0.108 -20.829 -0.176 -20.817 -0.181 13.897 0.242 2.552 0.060 44.238 42.607
-3.400 -21.189 -0.037 -21.189 -0.037 -21.182 -0.055 -21.089 -0.091 -21.077 -0.093 -21.053 -0.097 -21.011 -0.107 -20.838 -0.174 -20.826 -0.179 13.840 0.230 2.570 0.058 44.237 42.584
-3.000 -21.191 -0.037 -21.191 -0.037 -21.185 -0.054 -21.092 -0.089 -21.081 -0.091 -21.056 -0.096 -21.016 -0.106 -20.846 -0.171 -20.834 -0.176 13.788 0.220 2.586 0.056 44.236 42.564
-2.600 -21.193 -0.038 -21.193 -0.038 -21.187 -0.052 -21.095 -0.087 -21.084 -0.089 -21.060 -0.094 -21.020 -0.104 -20.853 -0.169 -20.842 -0.174 13.740 0.211 2.602 0.054 44.235 42.548
-2.200 -21.194 -0.040 -21.195 -0.040 -21.189 -0.051 -21.098 -0.086 -21.087 -0.088 -21.063 -0.092 -21.024 -0.103 -20.861 -0.166 -20.850 -0.171 13.696 0.203 2.616 0.052 44.234 42.533
-1.800 -21.196 -0.042 -21.196 -0.042 -21.191 -0.050 -21.100 -0.084 -21.090 -0.086 -21.066 -0.091 -21.027 -0.101 -20.868 -0.163 -20.857 -0.168 13.654 0.195 2.629 0.050 44.234 42.519
-1.400 -21.196 -0.045 -21.197 -0.044 -21.192 -0.049 -21.102 -0.081 -21.092 -0.083 -21.068 -0.089 -21.030 -0.099 -20.874 -0.160 -20.863 -0.164 13.614 0.186 2.642 0.048 44.233 42.503
-1.000 -21.197 -0.047 -21.197 -0.046 -21.193 -0.048 -21.104 -0.079 -21.093 -0.081 -21.070 -0.087 -21.032 -0.097 -20.880 -0.156 -20.870 -0.161 13.573 0.178 2.654 0.046 44.231 42.486
-0.600 -21.196 -0.049 -21.197 -0.049 -21.193 -0.048 -21.105 -0.077 -21.094 -0.079 -21.072 -0.084 -21.035 -0.095 -20.886 -0.153 -20.876 -0.157 13.531 0.168 2.666 0.044 44.230 42.465
-0.200 -21.196 -0.052 -21.196 -0.051 -21.193 -0.048 -21.105 -0.074 -21.095 -0.077 -21.073 -0.082 -21.037 -0.093 -20.892 -0.149 -20.882 -0.154 13.487 0.158 2.678 0.042 44.228 42.441
0.200 -21.195 -0.054 -21.195 -0.053 -21.192 -0.049 -21.106 -0.072 -21.096 -0.074 -21.074 -0.080 -21.038 -0.091 -20.897 -0.145 -20.887 -0.150 13.440 0.147 2.691 0.039 44.226 42.413
0.600 -21.193 -0.056 -21.193 -0.056 -21.191 -0.050 -21.106 -0.070 -21.096 -0.072 -21.074 -0.077 -21.039 -0.089 -20.901 -0.141 -20.892 -0.145 13.391 0.136 2.703 0.036 44.224 42.381
1.000 -21.191 -0.058 -21.191 -0.057 -21.190 -0.051 -21.105 -0.067 -21.095 -0.069 -21.074 -0.075 -21.040 -0.086 -20.906 -0.137 -20.896 -0.141 13.336 0.124 2.716 0.033 44.221 42.343
1.400 -21.188 -0.060 -21.188 -0.059 -21.188 -0.052 -21.104 -0.065 -21.094 -0.067 -21.073 -0.072 -21.040 -0.084 -20.910 -0.133 -20.900 -0.137 13.280 0.113 2.730 0.030 44.218 42.302
1.800 -21.185 -0.061 -21.185 -0.060 -21.185 -0.054 -21.102 -0.063 -21.093 -0.064 -21.072 -0.070 -21.040 -0.082 -20.913 -0.128 -20.904 -0.132 13.219 0.101 2.744 0.027 44.214 42.255
2.200 -21.181 -0.062 -21.182 -0.061 -21.182 -0.055 -21.100 -0.061 -21.091 -0.062 -21.071 -0.068 -21.039 -0.080 -20.917 -0.124 -20.908 -0.127 13.156 0.090 2.758 0.025 44.211 42.205
2.600 -21.177 -0.063 -21.177 -0.062 -21.178 -0.056 -21.098 -0.059 -21.089 -0.060 -21.069 -0.066 -21.038 -0.077 -20.919 -0.119 -20.911 -0.122 13.088 0.080 2.773 0.022 44.206 42.154
3.000 -21.172 -0.063 -21.172 -0.063 -21.174 -0.057 -21.095 -0.057 -21.086 -0.059 -21.067 -0.064 -21.037 -0.075 -20.922 -0.114 -20.914 -0.117 13.017 0.072 2.789 0.020 44.202 42.104
3.400 -21.167 -0.063 -21.167 -0.063 -21.169 -0.058 -21.091 -0.056 -21.083 -0.057 -21.064 -0.062 -21.035 -0.073 -20.924 -0.109 -20.916 -0.112 12.942 0.066 2.806 0.019 44.197 42.064
3.800 -21.160 -0.063 -21.161 -0.062 -21.164 -0.059 -21.088 -0.055 -21.079 -0.056 -21.061 -0.060 -21.033 -0.071 -20.926 -0.104 -20.918 -0.107 12.862 0.064 2.823 0.018 44.191 42.043
4.200 -21.154 -0.062 -21.154 -0.062 -21.158 -0.059 -21.083 -0.054 -21.075 -0.054 -21.058 -0.059 -21.031 -0.069 -20.927 -0.098 -20.919 -0.102 12.794 0.065 2.837 0.019 44.186 42.051
4.600 -21.147 -0.062 -21.147 -0.061 -21.152 -0.060 -21.079 -0.052 -21.071 -0.053 -21.054 -0.057 -21.028 -0.067 -20.928 -0.093 -20.921 -0.096 12.688 0.069 2.862 0.020 44.180 42.070
5.000 -21.139 -0.060 -21.139 -0.060 -21.145 -0.060 -21.073 -0.051 -21.066 -0.052 -21.049 -0.055 -21.025 -0.065 -20.929 -0.088 -20.922 -0.091 12.613 0.077 2.877 0.023 44.174 42.111
5.400 -21.130 -0.059 -21.131 -0.059 -21.137 -0.060 -21.068 -0.050 -21.060 -0.051 -21.045 -0.054 -21.021 -0.063 -20.929 -0.082 -20.922 -0.085 12.493 0.084 2.906 0.026 44.166 42.144
5.800 -21.121 -0.058 -21.121 -0.057 -21.129 -0.060 -21.062 -0.049 -21.055 -0.049 -21.040 -0.052 -21.017 -0.061 -20.929 -0.077 -20.922 -0.080 12.387 0.093 2.931 0.029 44.159 42.180
6.200 -21.111 -0.056 -21.111 -0.056 -21.120 -0.059 -21.056 -0.048 -21.049 -0.048 -21.034 -0.050 -21.013 -0.060 -20.929 -0.072 -20.922 -0.074 12.276 0.101 2.957 0.032 44.151 42.211
6.600 -21.100 -0.054 -21.101 -0.054 -21.111 -0.059 -21.049 -0.046 -21.043 -0.046 -21.029 -0.049 -21.008 -0.058 -20.928 -0.067 -20.921 -0.069 12.188 0.110 2.977 0.036 44.144 42.241
7.000 -21.089 -0.052 -21.090 -0.052 -21.101 -0.059 -21.043 -0.045 -21.036 -0.044 -21.023 -0.047 -21.004 -0.056 -20.927 -0.062 -20.920 -0.063 12.040 0.116 3.016 0.039 44.134 42.253
7.400 -21.077 -0.051 -21.078 -0.050 -21.091 -0.058 -21.036 -0.043 -21.029 -0.043 -21.017 -0.045 -20.999 -0.055 -20.925 -0.057 -20.919 -0.059 11.915 0.121 3.049 0.042 44.125 42.263
7.800 -21.064 -0.049 -21.065 -0.049 -21.080 -0.058 -21.028 -0.042 -21.022 -0.041 -21.010 -0.043 -20.993 -0.053 -20.923 -0.053 -20.917 -0.054 11.788 0.124 3.083 0.044 44.116 42.267
8.200 -21.051 -0.047 -21.052 -0.047 -21.068 -0.057 -21.021 -0.040 -21.015 -0.039 -21.004 -0.042 -20.988 -0.052 -20.920 -0.049 -20.914 -0.050 11.659 0.125 3.118 0.046 44.107 42.263
8.600 -21.036 -0.046 -21.037 -0.046 -21.056 -0.057 -21.013 -0.039 -21.008 -0.038 -20.997 -0.040 -20.982 -0.051 -20.917 -0.046 -20.911 -0.047 11.529 0.124 3.155 0.047 44.098 42.250
9.000 -21.022 -0.045 -21.023 -0.045 -21.043 -0.057 -21.006 -0.038 -21.001 -0.037 -20.991 -0.039 -20.976 -0.051 -20.914 -0.043 -20.908 -0.044 11.400 0.121 3.191 0.047 44.088 42.228
9.400 -21.006 -0.044 -21.007 -0.044 -21.030 -0.057 -20.998 -0.037 -20.993 -0.036 -20.984 -0.039 -20.970 -0.050 -20.910 -0.042 -20.904 -0.043 11.274 0.115 3.228 0.046 44.079 42.197
9.800 -20.990 -0.045 -20.991 -0.044 -21.016 -0.057 -20.990 -0.037 -20.986 -0.036 -20.977 -0.038 -20.964 -0.050 -20.906 -0.041 -20.900 -0.042 11.150 0.107 3.265 0.044 44.070 42.155
10.200 -20.973 -0.045 -20.974 -0.045 -21.002 -0.057 -20.982 -0.037 -20.978 -0.036 -20.970 -0.038 -20.958 -0.050 -20.901 -0.041 -20.896 -0.042 11.028 0.098 3.302 0.041 44.060 42.104
10.600 -20.956 -0.046 -20.957 -0.045 -20.988 -0.057 -20.974 -0.037 -20.971 -0.036 -20.963 -0.038 -20.951 -0.050 -20.896 -0.042 -20.891 -0.043 10.909 0.087 3.338 0.038 44.051 42.044
11.000 -20.938 -0.046 -20.939 -0.046 -20.973 -0.058 -20.966 -0.037 -20.963 -0.036 -20.956 -0.039 -20.944 -0.050 -20.891 -0.043 -20.886 -0.044 10.791 0.077 3.375 0.035 44.042 41.976
11.400 -20.920 -0.048 -20.921 -0.047 -20.958 -0.058 -20.957 -0.038 -20.955 -0.036 -20.948 -0.039 -20.938 -0.050 -20.885 -0.044 -20.880 -0.045 10.675 0.066 3.412 0.031 44.032 41.898
11.800 -20.902 -0.049 -20.903 -0.048 -20.943 -0.059 -20.949 -0.038 -20.946 -0.037 -20.940 -0.039 -20.931 -0.050 -20.879 -0.046 -20.874 -0.046 10.561 0.056 3.450 0.027 44.023 41.811
12.200 -20.883 -0.050 -20.884 -0.050 -20.927 -0.059 -20.940 -0.038 -20.938 -0.037 -20.932 -0.039 -20.924 -0.050 -20.873 -0.047 -20.868 -0.047 10.449 0.046 3.487 0.023 44.014 41.713
12.600 -20.864 -0.051 -20.866 -0.051 -20.912 -0.060 -20.930 -0.038 -20.929 -0.037 -20.924 -0.039 -20.916 -0.050 -20.867 -0.048 -20.862 -0.049 10.339 0.036 3.525 0.018 44.005 41.598
13.000 -20.845 -0.052 -20.847 -0.052 -20.896 -0.060 -20.921 -0.038 -20.920 -0.037 -20.916 -0.039 -20.909 -0.050 -20.860 -0.049 -20.856 -0.050 10.231 0.027 3.563 0.014 43.996 41.461
13.400 -20.826 -0.054 -20.828 -0.053 -20.881 -0.061 -20.912 -0.038 -20.911 -0.037 -20.908 -0.039 -20.902 -0.050 -20.854 -0.051 -20.849 -0.051 10.126 0.019 3.601 0.010 43.987 41.287
13.800 -20.807 -0.055 -20.809 -0.055 -20.865 -0.062 -20.902 -0.038 -20.902 -0.037 -20.900 -0.039 -20.895 -0.050 -20.848 -0.052 -20.843 -0.053 10.023 0.011 3.640 0.006 43.979 41.045
14.200 -20.789 -0.057 -20.790 -0.056 -20.850 -0.063 -20.893 -0.038 -20.893 -0.037 -20.892 -0.039 -20.888 -0.050 -20.842 -0.054 -20.837 -0.055 9.922 0.005 3.678 0.003 43.971 40.714
14.600 -20.770 -0.058 -20.772 -0.058 -20.835 -0.063 -20.884 -0.039 -20.884 -0.037 -20.883 -0.039 -20.881 -0.050 -20.836 -0.055 -20.831 -0.057 9.824 0.007 3.718 0.004 43.962 40.806
15.000 -20.752 -0.060 -20.754 -0.060 -20.820 -0.064 -20.875 -0.039 -20.875 -0.037 -20.876 -0.039 -20.874 -0.050 -20.830 -0.058 -20.825 -0.059 9.727 0.012 3.758 0.007 43.955 41.052
15.400 -20.734 -0.062 -20.736 -0.062 -20.805 -0.065 -20.866 -0.040 -20.867 -0.038 -20.868 -0.040 -20.867 -0.050 -20.824 -0.060 -20.820 -0.062 9.633 0.018 3.798 0.011 43.947 41.203
15.800 -20.716 -0.064 -20.718 -0.064 -20.790 -0.066 -20.857 -0.042 -20.858 -0.040 -20.860 -0.041 -20.861 -0.051 -20.819 -0.063 -20.815 -0.065 9.541 0.024 3.840 0.015 43.940 41.303
16.200 -20.699 -0.067 -20.701 -0.066 -20.776 -0.067 -20.849 -0.043 -20.851 -0.041 -20.853 -0.042 -20.855 -0.052 -20.814 -0.066 -20.810 -0.069 9.450 0.029 3.882 0.019 43.933 41.374
16.600 -20.682 -0.069 -20.684 -0.069 -20.762 -0.069 -20.841 -0.045 -20.843 -0.043 -20.846 -0.043 -20.849 -0.053 -20.809 -0.070 -20.805 -0.072 9.360 0.034 3.925 0.023 43.926 41.428
17.000 -20.665 -0.071 -20.667 -0.071 -20.748 -0.070 -20.833 -0.047 -20.835 -0.045 -20.839 -0.045 -20.843 -0.054 -20.805 -0.074 -20.800 -0.076 9.272 0.038 3.970 0.027 43.919 41.469
17.400 -20.648 -0.074 -20.650 -0.073 -20.734 -0.071 -20.825 -0.050 -20.828 -0.048 -20.833 -0.047 -20.837 -0.055 -20.800 -0.077 -20.796 -0.080 9.185 0.042 4.015 0.030 43.913 41.501
17.800 -20.631 -0.076 -20.634 -0.075 -20.721 -0.072 -20.818 -0.052 -20.821 -0.050 -20.827 -0.049 -20.832 -0.056 -20.796 -0.081 -20.792 -0.084 9.100 0.047 4.061 0.034 43.906 41.526
18.200 -20.615 -0.078 -20.617 -0.077 -20.707 -0.073 -20.810 -0.054 -20.814 -0.052 -20.820 -0.051 -20.826 -0.058 -20.792 -0.085 -20.788 -0.088 9.016 0.050 4.108 0.039 43.900 41.546
18.600 -20.598 -0.080 -20.601 -0.079 -20.694 -0.074 -20.803 -0.056 -20.807 -0.055 -20.815 -0.054 -20.821 -0.059 -20.788 -0.089 -20.784 -0.092 8.933 0.054 4.157 0.043 43.894 41.562
19.000 -20.582 -0.081 -20.585 -0.081 -20.681 -0.074 -20.796 -0.058 -20.801 -0.057 -20.809 -0.056 -20.816 -0.061 -20.784 -0.093 -20.780 -0.096 8.852 0.058 4.206 0.047 43.889 41.574
19.400 -20.566 -0.083 -20.568 -0.082 -20.669 -0.075 -20.789 -0.060 -20.794 -0.059 -20.803 -0.058 -20.811 -0.063 -20.781 -0.097 -20.776 -0.100 8.771 0.061 4.256 0.051 43.883 41.583
19.800 -20.550 -0.084 -20.552 -0.084 -20.656 -0.075 -20.783 -0.062 -20.788 -0.061 -20.798 -0.060 -20.807 -0.064 -20.777 -0.100 -20.773 -0.104 8.691 0.064 4.308 0.055 43.878 41.590
20.200 -20.533 -0.085 -20.536 -0.085 -20.643 -0.076 -20.776 -0.064 -20.782 -0.062 -20.792 -0.061 -20.802 -0.065 -20.773 -0.104 -20.769 -0.107 8.613 0.067 4.360 0.060 43.872 41.594
20.600 -20.517 -0.086 -20.520 -0.086 -20.630 -0.076 -20.769 -0.065 -20.776 -0.064 -20.787 -0.063 -20.797 -0.066 -20.770 -0.107 -20.766 -0.111 8.535 0.070 4.414 0.064 43.867 41.597
21.000 -20.501 -0.087 -20.504 -0.086 -20.618 -0.076 -20.763 -0.066 -20.769 -0.065 -20.781 -0.064 -20.793 -0.067 -20.767 -0.111 -20.763 -0.114 8.457 0.072 4.469 0.069 43.862 41.598
21.400 -20.485 -0.087 -20.488 -0.087 -20.605 -0.076 -20.756 -0.067 -20.763 -0.066 -20.776 -0.065 -20.788 -0.068 -20.763 -0.114 -20.759 -0.118 8.381 0.074 4.526 0.073 43.857 41.598
21.800 -20.468 -0.088 -20.471 -0.087 -20.592 -0.076 -20.749 -0.068 -20.757 -0.067 -20.770 -0.065 -20.783 -0.069 -20.760 -0.117 -20.756 -0.121 8.305 0.077 4.583 0.077 43.853 41.597
22.200 -20.452 -0.088 -20.455 -0.088 -20.579 -0.076 -20.743 -0.068 -20.750 -0.067 -20.764 -0.066 -20.779 -0.069 -20.756 -0.119 -20.752 -0.124 8.230 0.079 4.642 0.082 43.848 41.596
22.600 -20.435 -0.088 -20.438 -0.088 -20.566 -0.076 -20.736 -0.069 -20.744 -0.067 -20.759 -0.066 -20.774 -0.069 -20.753 -0.122 -20.749 -0.126 8.156 0.080 4.702 0.086 43.843 41.594
23.000 -20.418 -0.089 -20.422 -0.088 -20.552 -0.076 -20.729 -0.069 -20.737 -0.068 -20.753 -0.066 -20.769 -0.069 -20.749 -0.125 -20.745 -0.129 8.082 0.082 4.763 0.091 43.839 41.592
23.400 -20.401 -0.089 -20.405 -0.088 -20.539 -0.076 -20.721 -0.069 -20.730 -0.067 -20.747 -0.065 -20.764 -0.069 -20.746 -0.127 -20.742 -0.132 8.009 0.083 4.825 0.095 43.834 41.590
23.800 -20.384 -0.089 -20.388 -0.088 -20.525 -0.076 -20.714 -0.069 -20.724 -0.067 -20.741 -0.065 -20.759 -0.068 -20.742 -0.129 -20.738 -0.134 7.954 0.085 4.868 0.100 43.830 41.592
24.200 -20.367 -0.089 -20.371 -0.088 -20.511 -0.076 -20.706 -0.069 -20.716 -0.067 -20.735 -0.065 -20.754 -0.068 -20.738 -0.131 -20.734 -0.136 7.867 0.086 4.951 0.104 43.825 41.588
24.600 -20.350 -0.089 -20.353 -0.088 -20.496 -0.077 -20.699 -0.069 -20.709 -0.067 -20.728 -0.064 -20.749 -0.068 -20.734 -0.133 -20.731 -0.138 7.798 0.087 5.014 0.108 43.821 41.588
25.000 -20.332 -0.089 -20.336 -0.088 -20.482 -0.077 -20.691 -0.068 -20.702 -0.066 -20.721 -0.064 -20.743 -0.067 -20.730 -0.135 -20.727 -0.140 7.731 0.088 5.077 0.113 43.817 41.589
25.400 -20.315 -0.089 -20.318 -0.088 -20.467 -0.078 -20.683 -0.068 -20.694 -0.066 -20.715 -0.063 -20.737 -0.067 -20.726 -0.136 -20.723 -0.141 7.665 0.088 5.139 0.117 43.813 41.590
25.800 -20.297 -0.089 -20.301 -0.088 -20.452 -0.079 -20.675 -0.068 -20.686 -0.066 -20.708 -0.063 -20.731 -0.067 -20.722 -0.138 -20.718 -0.143 7.602 0.089 5.201 0.121 43.809 41.592
26.200 -20.279 -0.089 -20.283 -0.088 -20.437 -0.079 -20.666 -0.068 -20.678 -0.066 -20.700 -0.063 -20.725 -0.067 -20.718 -0.139 -20.714 -0.144 7.540 0.090 5.261 0.125 43.805 41.595
26.600 -20.261 -0.089 -20.265 -0.089 -20.422 -0.080 -20.657 -0.068 -20.670 -0.066 -20.693 -0.062 -20.718 -0.067 -20.713 -0.140 -20.710 -0.145 7.481 0.090 5.320 0.129 43.801 41.599
27.000 -20.244 -0.090 -20.248 -0.089 -20.407 -0.081 -20.649 -0.068 -20.662 -0.066 -20.685 -0.062 -20.711 -0.067 -20.709 -0.141 -20.705 -0.146 7.424 0.091 5.378 0.133 43.797 41.604
27.400 -20.226 -0.090 -20.230 -0.090 -20.392 -0.082 -20.640 -0.068 -20.653 -0.066 -20.677 -0.063 -20.704 -0.067 -20.704 -0.142 -20.700 -0.147 7.369 0.091 5.433 0.137 43.793 41.610
27.800 -20.208 -0.091 -20.212 -0.090 -20.377 -0.083 -20.631 -0.069 -20.644 -0.066 -20.669 -0.063 -20.697 -0.067 -20.699 -0.143 -20.695 -0.148 7.316 0.091 5.487 0.141 43.789 41.617
28.200 -20.190 -0.091 -20.194 -0.091 -20.362 -0.084 -20.621 -0.069 -20.635 -0.067 -20.661 -0.063 -20.690 -0.067 -20.694 -0.143 -20.690 -0.148 7.265 0.092 5.539 0.144 43.785 41.624
28.600 -20.172 -0.092 -20.177 -0.092 -20.346 -0.085 -20.612 -0.070 -20.626 -0.067 -20.653 -0.063 -20.682 -0.068 -20.688 -0.144 -20.685 -0.149 7.217 0.092 5.588 0.148 43.781 41.631
29.000 -20.155 -0.093 -20.159 -0.092 -20.331 -0.086 -20.602 -0.070 -20.617 -0.068 -20.644 -0.064 -20.675 -0.068 -20.683 -0.144 -20.680 -0.149 7.170 0.092 5.635 0.151 43.777 41.639
29.400 -20.137 -0.094 -20.142 -0.093 -20.316 -0.087 -20.592 -0.071 -20.607 -0.068 -20.635 -0.065 -20.667 -0.069 -20.677 -0.144 -20.675 -0.149 7.126 0.092 5.679 0.155 43.773 41.646
29.800 -20.120 -0.095 -20.124 -0.094 -20.301 -0.088 -20.582 -0.072 -20.598 -0.069 -20.627 -0.065 -20.659 -0.070 -20.672 -0.144 -20.669 -0.149 7.084 0.092 5.721 0.158 43.769 41.654
30.200 -20.102 -0.096 -20.107 -0.095 -20.286 -0.089 -20.572 -0.072 -20.588 -0.070 -20.618 -0.066 -20.651 -0.071 -20.666 -0.144 -20.663 -0.149 7.044 0.093 5.760 0.161 43.765 41.662
30.600 -20.085 -0.097 -20.090 -0.096 -20.271 -0.091 -20.562 -0.073 -20.578 -0.071 -20.608 -0.068 -20.642 -0.072 -20.660 -0.143 -20.657 -0.149 7.006 0.093 5.797 0.163 43.761 41.669
31.000 -20.068 -0.098 -20.073 -0.098 -20.256 -0.092 -20.552 -0.074 -20.569 -0.072 -20.599 -0.069 -20.634 -0.073 -20.654 -0.143 -20.652 -0.148 6.969 0.092 5.831 0.166 43.757 41.676
31.400 -20.051 -0.099 -20.056 -0.099 -20.242 -0.093 -20.542 -0.075 -20.559 -0.073 -20.590 -0.070 -20.625 -0.074 -20.648 -0.142 -20.645 -0.148 6.934 0.092 5.863 0.168 43.753 41.682
31.800 -20.034 -0.100 -20.039 -0.100 -20.227 -0.094 -20.532 -0.076 -20.549 -0.074 -20.580 -0.071 -20.617 -0.075 -20.642 -0.142 -20.639 -0.147 6.901 0.092 5.893 0.171 43.749 41.688
32.200 -20.017 -0.101 -20.022 -0.101 -20.213 -0.094 -20.521 -0.077 -20.538 -0.075 -20.571 -0.072 -20.608 -0.076 -20.635 -0.141 -20.633 -0.146 6.875 0.092 5.911 0.172 43.745 41.693
32.600 -20.001 -0.102 -20.005 -0.102 -20.198 -0.095 -20.511 -0.078 -20.528 -0.076 -20.561 -0.073 -20.599 -0.076 -20.629 -0.140 -20.627 -0.145 6.838 0.092 5.948 0.174 43.741 41.699
33.000 -19.984 -0.103 -19.989 -0.102 -20.184 -0.096 -20.501 -0.079 -20.518 -0.077 -20.552 -0.074 -20.591 -0.077 -20.623 -0.139 -20.620 -0.143 6.808 0.092 5.974 0.176 43.737 41.704
33.400 -19.968 -0.104 -19.973 -0.103 -20.170 -0.096 -20.490 -0.079 -20.508 -0.077 -20.542 -0.075 -20.582 -0.078 -20.616 -0.137 -20.614 -0.142 6.780 0.091 5.998 0.178 43.734 41.709
33.800 -19.952 -0.104 -19.957 -0.104 -20.156 -0.097 -20.480 -0.080 -20.498 -0.078 -20.532 -0.076 -20.573 -0.079 -20.609 -0.136 -20.608 -0.140 6.756 0.091 6.012 0.179 43.730 41.712
34.200 -19.936 -0.105 -19.941 -0.104 -20.143 -0.097 -20.470 -0.080 -20.488 -0.078 -20.523 -0.076 -20.564 -0.079 -20.603 -0.134 -20.601 -0.139 6.725 0.091 6.043 0.181 43.726 41.717
34.600 -19.920 -0.105 -19.925 -0.104 -20.129 -0.097 -20.460 -0.080 -20.478 -0.078 -20.514 -0.076 -20.556 -0.080 -20.596 -0.132 -20.595 -0.137 6.698 0.091 6.065 0.183 43.722 41.721
35.000 -19.904 -0.105 -19.909 -0.105 -20.116 -0.097 -20.450 -0.080 -20.469 -0.078 -20.504 -0.077 -20.547 -0.080 -20.590 -0.130 -20.588 -0.135 6.672 0.091 6.087 0.185 43.719 41.725
35.400 -19.888 -0.105 -19.893 -0.104 -20.103 -0.097 -20.440 -0.080 -20.459 -0.078 -20.495 -0.077 -20.538 -0.080 -20.583 -0.128 -20.581 -0.133 6.647 0.091 6.108 0.187 43.715 41.730
35.800 -19.873 -0.105 -19.878 -0.104 -20.090 -0.097 -20.430 -0.079 -20.450 -0.078 -20.486 -0.076 -20.530 -0.079 -20.576 -0.126 -20.575 -0.130 6.625 0.091 6.122 0.189 43.711 41.733
36.200 -19.857 -0.104 -19.863 -0.104 -20.077 -0.096 -20.421 -0.079 -20.440 -0.077 -20.477 -0.076 -20.521 -0.079 -20.570 -0.124 -20.568 -0.128 6.597 0.091 6.151 0.191 43.708 41.739
36.600 -19.842 -0.103 -19.847 -0.103 -20.064 -0.095 -20.411 -0.078 -20.431 -0.076 -20.468 -0.075 -20.513 -0.078 -20.563 -0.121 -20.562 -0.125 6.576 0.092 6.166 0.194 43.705 41.743
37.000 -19.827 -0.102 -19.832 -0.102 -20.052 -0.095 -20.402 -0.077 -20.422 -0.075 -20.459 -0.074 -20.505 -0.077 -20.556 -0.119 -20.555 -0.123 6.548 0.092 6.196 0.197 43.701 41.749
37.400 -19.812 -0.101 -19.817 -0.101 -20.040 -0.094 -20.393 -0.075 -20.413 -0.074 -20.451 -0.073 -20.497 -0.076 -20.550 -0.116 -20.549 -0.120 6.528 0.093 6.211 0.200 43.698 41.755
37.800 -19.797 -0.100 -19.803 -0.100 -20.027 -0.092 -20.384 -0.074 -20.404 -0.072 -20.442 -0.071 -20.489 -0.075 -20.543 -0.114 -20.542 -0.117 6.500 0.094 6.242 0.204 43.695 41.762
38.200 -19.782 -0.099 -19.788 -0.098 -20.015 -0.091 -20.375 -0.072 -20.396 -0.071 -20.434 -0.070 -20.482 -0.074 -20.537 -0.111 -20.536 -0.114 6.480 0.095 6.259 0.208 43.692 41.769
38.600 -19.767 -0.097 -19.773 -0.097 -20.004 -0.090 -20.367 -0.071 -20.387 -0.069 -20.426 -0.068 -20.474 -0.072 -20.530 -0.108 -20.529 -0.111 6.457 0.096 6.282 0.212 43.689 41.776
39.000 -19.753 -0.095 -19.759 -0.095 -19.992 -0.088 -20.359 -0.069 -20.379 -0.067 -20.418 -0.066 -20.467 -0.071 -20.524 -0.105 -20.523 -0.109 6.434 0.097 6.307 0.217 43.686 41.785
39.400 -19.738 -0.094 -19.744 -0.093 -19.980 -0.087 -20.351 -0.067 -20.371 -0.065 -20.410 -0.064 -20.460 -0.069 -20.518 -0.102 -20.517 -0.106 6.410 0.098 6.334 0.223 43.684 41.794
39.800 -19.724 -0.092 -19.730 -0.091 -19.969 -0.085 -20.343 -0.065 -20.363 -0.063 -20.403 -0.062 -20.453 -0.068 -20.511 -0.100 -20.511 -0.103 6.386 0.100 6.362 0.229 43.681 41.804
40.200 -19.709 -0.090 -19.716 -0.089 -19.957 -0.083 -20.335 -0.063 -20.356 -0.061 -20.396 -0.060 -20.446 -0.066 -20.505 -0.097 -20.504 -0.100 6.363 0.101 6.390 0.235 43.678 41.815
40.600 -19.695 -0.088 -19.701 -0.087 -19.946 -0.082 -20.327 -0.061 -20.348 -0.059 -20.388 -0.058 -20.439 -0.064 -20.499 -0.094 -20.498 -0.097 6.339 0.103 6.420 0.242 43.676 41.826
41.000 -19.681 -0.086 -19.687 -0.086 -19.934 -0.080 -20.319 -0.059 -20.341 -0.057 -20.381 -0.057 -20.432 -0.063 -20.493 -0.091 -20.492 -0.094 6.315 0.105 6.450 0.249 43.674 41.838
41.400 -19.666 -0.084 -19.672 -0.084 -19.923 -0.078 -20.312 -0.057 -20.333 -0.055 -20.374 -0.055 -20.426 -0.062 -20.487 -0.089 -20.486 -0.092 6.292 0.108 6.481 0.257 43.671 41.851
41.800 -19.651 -0.082 -19.658 -0.082 -19.911 -0.077 -20.304 -0.055 -20.326 -0.054 -20.367 -0.053 -20.419 -0.060 -20.480 -0.086 -20.480 -0.089 6.268 0.110 6.512 0.266 43.669 41.865
42.200 -19.636 -0.080 -19.643 -0.080 -19.899 -0.075 -20.297 -0.054 -20.319 -0.052 -20.361 -0.052 -20.413 -0.059 -20.474 -0.084 -20.473 -0.086 6.244 0.112 6.543 0.275 43.666 41.879
42.600 -19.621 -0.079 -19.628 -0.078 -19.887 -0.074 -20.289 -0.052 -20.312 -0.051 -20.354 -0.051 -20.406 -0.058 -20.468 -0.081 -20.467 -0.084 6.221 0.115 6.574 0.285 43.664 41.894
43.000 -19.606 -0.077 -19.613 -0.077 -19.874 -0.072 -20.282 -0.051 -20.304 -0.050 -20.347 -0.050 -20.399 -0.058 -20.461 -0.079 -20.460 -0.081 6.197 0.117 6.604 0.294 43.661 41.910
43.400 -19.590 -0.076 -19.597 -0.075 -19.861 -0.071 -20.274 -0.051 -20.296 -0.049 -20.339 -0.049 -20.392 -0.057 -20.454 -0.076 -20.453 -0.079 6.173 0.120 6.634 0.304 43.659 41.925
43.800 -19.574 -0.074 -19.580 -0.074 -19.848 -0.070 -20.265 -0.050 -20.289 -0.049 -20.332 -0.049 -20.385 -0.057 -20.447 -0.074 -20.447 -0.076 6.150 0.122 6.663 0.314 43.656 41.940
44.200 -19.557 -0.073 -19.564 -0.072 -19.834 -0.069 -20.257 -0.050 -20.280 -0.048 -20.324 -0.049 -20.377 -0.056 -20.440 -0.072 -20.439 -0.074 6.127 0.124 6.690 0.323 43.653 41.954
44.600 -19.539 -0.072 -19.546 -0.071 -19.819 -0.068 -20.248 -0.050 -20.271 -0.048 -20.316 -0.049 -20.369 -0.056 -20.433 -0.070 -20.432 -0.072 6.103 0.126 6.715 0.331 43.649 41.967
45.000 -19.521 -0.071 -19.528 -0.070 -19.804 -0.068 -20.238 -0.050 -20.262 -0.048 -20.307 -0.049 -20.361 -0.056 -20.425 -0.068 -20.424 -0.070 6.080 0.128 6.738 0.339 43.646 41.979
45.400 -19.502 -0.070 -19.509 -0.069 -19.788 -0.067 -20.228 -0.050 -20.252 -0.049 -20.297 -0.049 -20.351 -0.056 -20.417 -0.066 -20.416 -0.067 6.058 0.129 6.758 0.347 43.642 41.989
45.800 -19.482 -0.069 -19.490 -0.068 -19.771 -0.067 -20.217 -0.050 -20.241 -0.049 -20.287 -0.049 -20.342 -0.056 -20.408 -0.064 -20.407 -0.065 6.035 0.130 6.776 0.353 43.638 41.998
46.200 -19.462 -0.068 -19.469 -0.068 -19.753 -0.066 -20.205 -0.050 -20.230 -0.049 -20.276 -0.050 -20.331 -0.057 -20.399 -0.062 -20.398 -0.063 6.013 0.131 6.792 0.358 43.633 42.004
46.600 -19.441 -0.068 -19.448 -0.067 -19.734 -0.066 -20.192 -0.050 -20.217 -0.049 -20.264 -0.050 -20.319 -0.057 -20.389 -0.060 -20.388 -0.061 5.987 0.131 6.813 0.363 43.628 42.009
47.000 -19.418 -0.067 -19.426 -0.067 -19.715 -0.066 -20.178 -0.051 -20.203 -0.050 -20.251 -0.051 -20.307 -0.057 -20.378 -0.058 -20.378 -0.059 5.965 0.132 6.823 0.366 43.623 42.011
47.400 -19.395 -0.067 -19.403 -0.067 -19.694 -0.066 -20.163 -0.051 -20.189 -0.050 -20.237 -0.051 -20.294 -0.057 -20.367 -0.056 -20.366 -0.057 5.943 0.132 6.830 0.368 43.618 42.011
47.800 -19.371 -0.067 -19.379 -0.067 -19.672 -0.067 -20.146 -0.052 -20.173 -0.051 -20.222 -0.051 -20.280 -0.058 -20.355 -0.054 -20.355 -0.055 5.922 0.131 6.834 0.369 43.612 42.008
48.200 -19.346 -0.068 -19.354 -0.067 -19.650 -0.067 -20.129 -0.052 -20.156 -0.051 -20.206 -0.052 -20.265 -0.058 -20.343 -0.052 -20.342 -0.054 5.900 0.131 6.835 0.369 43.606 42.004
48.600 -19.320 -0.068 -19.328 -0.068 -19.626 -0.067 -20.111 -0.052 -20.138 -0.052 -20.189 -0.052 -20.249 -0.058 -20.329 -0.051 -20.329 -0.052 5.879 0.130 6.833 0.368 43.599 41.998
49.000 -19.294 -0.069 -19.301 -0.069 -19.602 -0.068 -20.092 -0.053 -20.120 -0.052 -20.171 -0.053 -20.232 -0.059 -20.315 -0.049 -20.315 -0.050 5.858 0.129 6.829 0.367 43.593 41.989
49.400 -19.266 -0.070 -19.274 -0.070 -19.576 -0.069 -20.072 -0.053 -20.100 -0.052 -20.152 -0.053 -20.214 -0.059 -20.301 -0.048 -20.301 -0.049 5.837 0.128 6.823 0.364 43.586 41.979
49.800 -19.238 -0.071 -19.246 -0.071 -19.550 -0.069 -20.051 -0.053 -20.079 -0.053 -20.132 -0.054 -20.196 -0.059 -20.285 -0.046 -20.285 -0.047 5.816 0.127 6.816 0.362 43.578 41.968
50.200 -19.209 -0.073 -19.217 -0.073 -19.523 -0.070 -20.029 -0.054 -20.058 -0.053 -20.111 -0.054 -20.176 -0.060 -20.269 -0.045 -20.270 -0.046 5.795 0.126 6.808 0.358 43.571 41.956
50.600 -19.180 -0.075 -19.188 -0.074 -19.496 -0.071 -20.006 -0.054 -20.035 -0.053 -20.090 -0.055 -20.156 -0.060 -20.252 -0.044 -20.253 -0.045 5.773 0.125 6.801 0.355 43.563 41.944
51.000 -19.150 -0.077 -19.157 -0.076 -19.467 -0.073 -19.982 -0.055 -20.012 -0.054 -20.067 -0.055 -20.135 -0.061 -20.235 -0.044 -20.236 -0.045 5.750 0.123 6.796 0.352 43.556 41.932
51.400 -19.119 -0.079 -19.127 -0.079 -19.438 -0.074 -19.958 -0.055 -19.988 -0.055 -20.044 -0.056 -20.113 -0.061 -20.217 -0.044 -20.218 -0.045 5.725 0.121 6.794 0.349 43.548 41.922
51.800 -19.088 -0.082 -19.096 -0.081 -19.409 -0.076 -19.933 -0.056 -19.963 -0.055 -20.020 -0.057 -20.091 -0.062 -20.198 -0.044 -20.199 -0.046 5.699 0.119 6.796 0.346 43.541 41.912
52.200 -19.057 -0.084 -19.064 -0.084 -19.379 -0.078 -19.907 -0.057 -19.938 -0.057 -19.996 -0.058 -20.067 -0.063 -20.179 -0.046 -20.180 -0.047 5.671 0.117 6.803 0.343 43.533 41.904
52.600 -19.025 -0.087 -19.033 -0.087 -19.348 -0.080 -19.881 -0.059 -19.911 -0.058 -19.970 -0.059 -20.044 -0.064 -20.159 -0.047 -20.161 -0.049 5.642 0.115 6.814 0.339 43.525 41.896
53.000 -18.993 -0.091 -19.001 -0.090 -19.317 -0.082 -19.853 -0.060 -19.885 -0.060 -19.944 -0.061 -20.019 -0.066 -20.139 -0.049 -20.141 -0.051 5.613 0.112 6.825 0.335 43.518 41.887
53.400 -18.960 -0.094 -18.968 -0.094 -19.286 -0.084 -19.826 -0.062 -19.857 -0.061 -19.918 -0.062 -19.994 -0.067 -20.119 -0.052 -20.121 -0.053 5.583 0.108 6.836 0.329 43.510 41.878
53.800 -18.928 -0.098 -18.936 -0.097 -19.255 -0.086 -19.797 -0.064 -19.830 -0.063 -19.891 -0.064 -19.968 -0.068 -20.098 -0.054 -20.101 -0.056 5.554 0.105 6.844 0.323 43.502 41.866
54.200 -18.896 -0.102 -18.904 -0.101 -19.223 -0.089 -19.769 -0.066 -19.801 -0.065 -19.863 -0.066 -19.942 -0.070 -20.077 -0.057 -20.080 -0.058 5.527 0.101 6.848 0.315 43.494 41.853
54.600 -18.863 -0.106 -18.871 -0.105 -19.191 -0.092 -19.740 -0.068 -19.773 -0.068 -19.836 -0.068 -19.916 -0.072 -20.056 -0.059 -20.059 -0.061 5.500 0.097 6.848 0.307 43.486 41.837
55.000 -18.831 -0.110 -18.839 -0.109 -19.159 -0.095 -19.710 -0.070 -19.744 -0.070 -19.807 -0.070 -19.889 -0.073 -20.034 -0.062 -20.038 -0.063 5.475 0.094 6.844 0.297 43.477 41.819
55.400 -18.798 -0.114 -18.806 -0.114 -19.127 -0.098 -19.681 -0.073 -19.714 -0.072 -19.779 -0.072 -19.861 -0.075 -20.012 -0.064 -20.016 -0.066 5.451 0.090 6.835 0.287 43.468 41.800
55.800 -18.766 -0.119 -18.774 -0.118 -19.094 -0.101 -19.651 -0.075 -19.684 -0.074 -19.750 -0.074 -19.833 -0.077 -19.990 -0.067 -19.994 -0.068 5.428 0.086 6.822 0.275 43.459 41.778
56.200 -18.733 -0.123 -18.741 -0.122 -19.062 -0.104 -19.620 -0.077 -19.654 -0.076 -19.720 -0.076 -19.805 -0.078 -19.967 -0.069 -19.972 -0.070 5.407 0.082 6.805 0.264 43.450 41.754
56.600 -18.701 -0.127 -18.709 -0.127 -19.029 -0.107 -19.589 -0.079 -19.624 -0.078 -19.691 -0.078 -19.777 -0.080 -19.944 -0.071 -19.949 -0.072 5.386 0.078 6.784 0.252 43.441 41.728
57.000 -18.668 -0.132 -18.676 -0.131 -18.997 -0.110 -19.559 -0.081 -19.593 -0.080 -19.661 -0.079 -19.748 -0.081 -19.921 -0.073 -19.926 -0.074 5.366 0.074 6.760 0.239 43.431 41.700
57.400 -18.636 -0.136 -18.643 -0.135 -18.964 -0.113 -19.527 -0.082 -19.562 -0.081 -19.630 -0.081 -19.719 -0.083 -19.897 -0.074 -19.903 -0.076 5.347 0.069 6.734 0.226 43.422 41.670
57.800 -18.603 -0.141 -18.611 -0.140 -18.931 -0.116 -19.496 -0.084 -19.531 -0.083 -19.600 -0.082 -19.690 -0.084 -19.874 -0.076 -19.879 -0.077 5.329 0.065 6.705 0.214 43.412 41.638
58.200 -18.570 -0.145 -18.578 -0.144 -18.899 -0.119 -19.465 -0.085 -19.500 -0.084 -19.569 -0.084 -19.660 -0.085 -19.849 -0.077 -19.856 -0.079 5.311 0.061 6.674 0.201 43.402 41.605
58.600 -18.538 -0.149 -18.546 -0.148 -18.866 -0.122 -19.433 -0.087 -19.469 -0.086 -19.539 -0.085 -19.631 -0.086 -19.825 -0.078 -19.832 -0.080 5.294 0.057 6.641 0.188 43.392 41.570
59.000 -18.506 -0.153 -18.514 -0.152 -18.834 -0.125 -19.401 -0.088 -19.437 -0.087 -19.508 -0.086 -19.601 -0.087 -19.801 -0.079 -19.807 -0.081 5.278 0.054 6.606 0.175 43.382 41.532
59.400 -18.473 -0.157 -18.481 -0.156 -18.801 -0.128 -19.369 -0.089 -19.406 -0.088 -19.477 -0.087 -19.571 -0.088 -19.776 -0.080 -19.783 -0.082 5.261 0.050 6.571 0.162 43.372 41.493
59.800 -18.441 -0.161 -18.449 -0.160 -18.769 -0.131 -19.338 -0.090 -19.374 -0.089 -19.446 -0.088 -19.541 -0.088 -19.751 -0.081 -19.759 -0.083 5.245 0.046 6.534 0.150 43.362 41.452
60.200 -18.409 -0.165 -18.417 -0.164 -18.736 -0.134 -19.306 -0.091 -19.343 -0.090 -19.415 -0.089 -19.511 -0.089 -19.726 -0.082 -19.734 -0.083 5.230 0.043 6.498 0.138 43.352 41.410
60.600 -18.377 -0.169 -18.385 -0.168 -18.704 -0.136 -19.274 -0.092 -19.311 -0.090 -19.384 -0.089 -19.481 -0.089 -19.702 -0.082 -19.710 -0.083 5.214 0.039 6.461 0.127 43.342 41.366
61.000 -18.345 -0.172 -18.352 -0.171 -18.672 -0.139 -19.243 -0.092 -19.280 -0.091 -19.353 -0.089 -19.451 -0.089 -19.677 -0.082 -19.685 -0.084 5.199 0.036 6.424 0.117 43.332 41.321
61.400 -18.313 -0.176 -18.321 -0.175 -18.640 -0.141 -19.211 -0.093 -19.249 -0.091 -19.322 -0.090 -19.422 -0.089 -19.652 -0.082 -19.661 -0.084 5.184 0.033 6.389 0.107 43.322 41.276
61.800 -18.281 -0.179 -18.289 -0.178 -18.608 -0.144 -19.180 -0.093 -19.218 -0.091 -19.292 -0.090 -19.392 -0.089 -19.627 -0.082 -19.636 -0.083 5.168 0.030 6.354 0.098 43.312 41.232
62.200 -18.249 -0.183 -18.257 -0.182 -18.576 -0.146 -19.149 -0.093 -19.187 -0.091 -19.261 -0.089 -19.363 -0.089 -19.603 -0.081 -19.612 -0.083 5.153 0.028 6.321 0.090 43.303 41.190
62.600 -18.218 -0.186 -18.226 -0.185 -18.545 -0.148 -19.118 -0.093 -19.156 -0.091 -19.231 -0.089 -19.334 -0.089 -19.578 -0.081 -19.588 -0.082 5.137 0.026 6.290 0.084 43.293 41.151
63.000 -18.186 -0.189 -18.194 -0.188 -18.514 -0.151 -19.088 -0.093 -19.126 -0.091 -19.202 -0.089 -19.305 -0.089 -19.554 -0.080 -19.564 -0.082 5.121 0.025 6.261 0.079 43.283 41.119
63.400 -18.155 -0.192 -18.163 -0.191 -18.483 -0.153 -19.058 -0.093 -19.096 -0.091 -19.172 -0.089 -19.277 -0.088 -19.531 -0.079 -19.541 -0.081 5.104 0.024 6.234 0.076 43.274 41.095
63.800 -18.124 -0.194 -18.132 -0.193 -18.452 -0.155 -19.028 -0.092 -19.067 -0.090 -19.143 -0.088 -19.249 -0.088 -19.507 -0.079 -19.518 -0.081 5.087 0.023 6.210 0.075 43.265 41.081
64.200 -18.094 -0.197 -18.102 -0.196 -18.422 -0.157 -18.999 -0.092 -19.038 -0.090 -19.115 -0.088 -19.222 -0.088 -19.484 -0.078 -19.495 -0.080 5.070 0.023 6.189 0.075 43.256 41.077
64.600 -18.063 -0.200 -18.071 -0.199 -18.391 -0.159 -18.970 -0.092 -19.009 -0.090 -19.087 -0.088 -19.194 -0.088 -19.461 -0.078 -19.473 -0.080 5.052 0.024 6.171 0.077 43.247 41.083
65.000 -18.033 -0.202 -18.041 -0.201 -18.362 -0.161 -18.942 -0.093 -18.981 -0.090 -19.059 -0.088 -19.168 -0.087 -19.439 -0.078 -19.451 -0.080 5.034 0.025 6.155 0.081 43.239 41.096
65.400 -18.003 -0.205 -18.011 -0.204 -18.332 -0.163 -18.914 -0.093 -18.953 -0.091 -19.032 -0.088 -19.142 -0.088 -19.418 -0.078 -19.430 -0.080 5.016 0.026 6.142 0.085 43.231 41.115
65.800 -17.973 -0.207 -17.981 -0.206 -18.303 -0.164 -18.887 -0.093 -18.926 -0.091 -19.006 -0.089 -19.116 -0.088 -19.396 -0.079 -19.409 -0.081 4.998 0.028 6.132 0.091 43.223 41.138
66.200 -17.944 -0.209 -17.952 -0.208 -18.274 -0.166 -18.860 -0.094 -18.900 -0.092 -18.980 -0.089 -19.091 -0.089 -19.376 -0.080 -19.389 -0.082 4.979 0.029 6.124 0.097 43.215 41.164
66.600 -17.915 -0.211 -17.923 -0.210 -18.246 -0.168 -18.834 -0.096 -18.874 -0.093 -18.954 -0.090 -19.067 -0.090 -19.356 -0.082 -19.369 -0.084 4.960 0.031 6.118 0.104 43.208 41.192
67.000 -17.886 -0.213 -17.894 -0.212 -18.218 -0.170 -18.808 -0.097 -18.848 -0.095 -18.929 -0.092 -19.043 -0.091 -19.337 -0.084 -19.350 -0.087 4.942 0.033 6.114 0.111 43.201 41.219
67.400 -17.857 -0.215 -17.865 -0.214 -18.190 -0.172 -18.783 -0.099 -18.824 -0.096 -18.905 -0.093 -19.020 -0.092 -19.318 -0.087 -19.331 -0.089 4.923 0.035 6.111 0.119 43.194 41.246
67.800 -17.829 -0.216 -17.837 -0.215 -18.163 -0.173 -18.758 -0.101 -18.799 -0.098 -18.882 -0.095 -18.998 -0.094 -19.300 -0.090 -19.314 -0.092 4.905 0.037 6.110 0.126 43.188 41.272
68.200 -17.801 -0.218 -17.809 -0.217 -18.136 -0.175 -18.735 -0.103 -18.776 -0.101 -18.859 -0.097 -18.976 -0.096 -19.283 -0.093 -19.296 -0.096 4.887 0.039 6.110 0.134 43.181 41.297
68.600 -17.773 -0.219 -17.781 -0.218 -18.109 -0.177 -18.711 -0.106 -18.753 -0.103 -18.836 -0.100 -18.955 -0.098 -19.266 -0.097 -19.280 -0.100 4.870 0.040 6.111 0.141 43.175 41.319
69.000 -17.746 -0.221 -17.754 -0.220 -18.084 -0.178 -18.689 -0.109 -18.730 -0.106 -18.815 -0.102 -18.934 -0.100 -19.250 -0.101 -19.264 -0.103 4.852 0.042 6.113 0.148 43.169 41.339
69.400 -17.719 -0.222 -17.727 -0.221 -18.058 -0.180 -18.667 -0.111 -18.709 -0.109 -18.794 -0.105 -18.915 -0.103 -19.234 -0.105 -19.248 -0.107 4.835 0.043 6.118 0.154 43.164 41.357
69.800 -17.692 -0.223 -17.701 -0.222 -18.033 -0.181 -18.645 -0.114 -18.688 -0.111 -18.774 -0.108 -18.895 -0.105 -19.219 -0.109 -19.233 -0.111 4.818 0.044 6.124 0.160 43.158 41.373
70.200 -17.666 -0.224 -17.674 -0.223 -18.008 -0.183 -18.625 -0.117 -18.667 -0.114 -18.754 -0.110 -18.877 -0.108 -19.204 -0.113 -19.219 -0.115 4.801 0.045 6.131 0.165 43.153 41.386
70.600 -17.640 -0.224 -17.648 -0.223 -17.984 -0.184 -18.605 -0.120 -18.648 -0.117 -18.735 -0.113 -18.859 -0.111 -19.190 -0.117 -19.205 -0.119 4.784 0.046 6.141 0.169 43.148 41.399
71.000 -17.615 -0.225 -17.623 -0.224 -17.960 -0.185 -18.585 -0.123 -18.629 -0.120 -18.717 -0.116 -18.842 -0.114 -19.177 -0.120 -19.192 -0.123 4.767 0.047 6.153 0.173 43.144 41.409
71.400 -17.589 -0.225 -17.598 -0.224 -17.937 -0.186 -18.566 -0.126 -18.610 -0.123 -18.699 -0.119 -18.826 -0.117 -19.164 -0.124 -19.179 -0.127 4.749 0.047 6.168 0.177 43.140 41.418
71.800 -17.564 -0.225 -17.573 -0.224 -17.914 -0.187 -18.548 -0.128 -18.592 -0.126 -18.682 -0.122 -18.810 -0.120 -19.151 -0.128 -19.166 -0.130 4.732 0.047 6.184 0.180 43.136 41.425
72.200 -17.540 -0.225 -17.548 -0.224 -17.891 -0.188 -18.531 -0.131 -18.575 -0.129 -18.666 -0.125 -18.795 -0.123 -19.139 -0.131 -19.154 -0.134 4.715 0.047 6.203 0.182 43.132 41.431
72.600 -17.516 -0.225 -17.524 -0.224 -17.869 -0.189 -18.514 -0.134 -18.559 -0.131 -18.650 -0.128 -18.780 -0.126 -19.127 -0.134 -19.143 -0.137 4.698 0.047 6.225 0.184 43.129 41.435
73.000 -17.492 -0.225 -17.501 -0.224 -17.848 -0.189 -18.497 -0.136 -18.543 -0.134 -18.635 -0.130 -18.766 -0.128 -19.116 -0.138 -19.132 -0.140 4.680 0.047 6.248 0.185 43.125 41.439
73.400 -17.468 -0.224 -17.477 -0.223 -17.827 -0.190 -18.482 -0.138 -18.527 -0.136 -18.620 -0.133 -18.752 -0.131 -19.106 -0.140 -19.121 -0.142 4.663 0.046 6.274 0.186 43.123 41.441
73.800 -17.445 -0.223 -17.454 -0.223 -17.806 -0.190 -18.466 -0.141 -18.513 -0.139 -18.606 -0.135 -18.740 -0.133 -19.095 -0.143 -19.111 -0.145 4.645 0.046 6.303 0.187 43.120 41.442
74.200 -17.423 -0.222 -17.431 -0.222 -17.786 -0.189 -18.452 -0.143 -18.498 -0.141 -18.593 -0.137 -18.727 -0.135 -19.085 -0.145 -19.101 -0.147 4.627 0.045 6.334 0.187 43.117 41.443
74.600 -17.400 -0.221 -17.409 -0.220 -17.766 -0.189 -18.438 -0.144 -18.485 -0.142 -18.580 -0.139 -18.715 -0.137 -19.076 -0.147 -19.092 -0.149 4.610 0.044 6.366 0.187 43.115 41.442
75.000 -17.378 -0.220 -17.387 -0.219 -17.747 -0.189 -18.424 -0.146 -18.472 -0.144 -18.568 -0.141 -18.704 -0.139 -19.067 -0.149 -19.083 -0.151 4.592 0.044 6.401 0.186 43.113 41.441
75.400 -17.356 -0.218 -17.365 -0.217 -17.728 -0.188 -18.411 -0.147 -18.459 -0.145 -18.556 -0.143 -18.693 -0.141 -19.058 -0.150 -19.074 -0.152 4.575 0.043 6.437 0.185 43.112 41.439
75.800 -17.335 -0.216 -17.344 -0.215 -17.709 -0.187 -18.398 -0.148 -18.447 -0.146 -18.544 -0.144 -18.683 -0.142 -19.049 -0.151 -19.065 -0.153 4.557 0.042 6.475 0.184 43.110 41.436
76.200 -17.314 -0.214 -17.323 -0.213 -17.691 -0.185 -18.386 -0.149 -18.435 -0.147 -18.533 -0.145 -18.673 -0.143 -19.041 -0.152 -19.057 -0.154 4.540 0.041 6.515 0.182 43.109 41.432
76.600 -17.293 -0.211 -17.302 -0.211 -17.673 -0.184 -18.375 -0.149 -18.424 -0.147 -18.523 -0.145 -18.663 -0.143 -19.033 -0.153 -19.049 -0.154 4.522 0.040 6.557 0.181 43.108 41.428
77.000 -17.273 -0.209 -17.282 -0.208 -17.655 -0.182 -18.363 -0.149 -18.413 -0.148 -18.513 -0.145 -18.654 -0.144 -19.025 -0.153 -19.041 -0.155 4.505 0.039 6.600 0.179 43.107 41.424
77.400 -17.253 -0.206 -17.262 -0.205 -17.638 -0.180 -18.352 -0.149 -18.402 -0.147 -18.503 -0.145 -18.646 -0.144 -19.018 -0.152 -19.034 -0.154 4.488 0.038 6.644 0.177 43.106 41.419
77.800 -17.233 -0.203 -17.242 -0.202 -17.621 -0.178 -18.342 -0.148 -18.392 -0.147 -18.494 -0.145 -18.637 -0.143 -19.010 -0.152 -19.026 -0.154 4.471 0.037 6.689 0.175 43.105 41.414
78.200 -17.213 -0.199 -17.223 -0.198 -17.605 -0.175 -18.332 -0.147 -18.382 -0.146 -18.485 -0.144 -18.629 -0.143 -19.003 -0.151 -19.019 -0.153 4.455 0.036 6.735 0.173 43.105 41.408
78.600 -17.194 -0.195 -17.203 -0.195 -17.589 -0.172 -18.322 -0.146 -18.373 -0.144 -18.476 -0.143 -18.621 -0.142 -18.996 -0.150 -19.012 -0.151 4.438 0.035 6.781 0.171 43.104 41.403
79.000 -17.175 -0.191 -17.185 -0.191 -17.573 -0.169 -18.312 -0.144 -18.364 -0.143 -18.468 -0.141 -18.614 -0.140 -18.989 -0.148 -19.006 -0.150 4.422 0.034 6.828 0.169 43.104 41.398
79.400 -17.156 -0.187 -17.166 -0.187 -17.557 -0.165 -18.303 -0.142 -18.355 -0.141 -18.460 -0.139 -18.606 -0.138 -18.983 -0.146 -18.999 -0.148 4.406 0.033 6.876 0.167 43.104 41.393
79.800 -17.138 -0.183 -17.148 -0.182 -17.542 -0.161 -18.294 -0.139 -18.346 -0.138 -18.452 -0.137 -18.599 -0.136 -18.976 -0.143 -18.992 -0.145 4.392 0.032 6.911 0.165 43.103 41.387
80.200 -17.120 -0.178 -17.130 -0.177 -17.527 -0.157 -18.286 -0.136 -18.338 -0.135 -18.444 -0.134 -18.592 -0.134 -18.969 -0.141 -18.986 -0.143 4.375 0.031 6.971 0.164 43.103 41.384
80.600 -17.102 -0.173 -17.112 -0.172 -17.512 -0.153 -18.277 -0.133 -18.330 -0.132 -18.436 -0.131 -18.585 -0.131 -18.963 -0.138 -18.979 -0.140 4.362 0.031 7.006 0.163 43.102 41.380
81.000 -17.085 -0.168 -17.094 -0.167 -17.498 -0.148 -18.269 -0.130 -18.322 -0.129 -18.429 -0.128 -18.578 -0.127 -18.956 -0.134 -18.973 -0.136 4.345 0.030 7.064 0.162 43.103 41.379
81.400 -17.067 -0.163 -17.077 -0.162 -17.484 -0.143 -18.260 -0.126 -18.314 -0.125 -18.422 -0.124 -18.572 -0.124 -18.950 -0.131 -18.966 -0.132 4.330 0.030 7.110 0.162 43.103 41.378
81.800 -17.050 -0.157 -17.060 -0.157 -17.470 -0.138 -18.252 -0.121 -18.306 -0.121 -18.414 -0.120 -18.565 -0.120 -18.943 -0.127 -18.960 -0.129 4.316 0.030 7.155 0.162 43.102 41.378
82.200 -17.034 -0.152 -17.044 -0.151 -17.456 -0.133 -18.244 -0.117 -18.298 -0.116 -18.407 -0.115 -18.559 -0.115 -18.937 -0.122 -18.953 -0.124 4.303 0.029 7.199 0.163 43.102 41.379
82.600 -17.017 -0.146 -17.027 -0.145 -17.442 -0.127 -18.236 -0.112 -18.291 -0.111 -18.400 -0.110 -18.552 -0.111 -18.930 -0.118 -18.947 -0.120 4.290 0.029 7.241 0.164 43.102 41.381
83.000 -17.001 -0.140 -17.011 -0.140 -17.429 -0.122 -18.228 -0.107 -18.283 -0.106 -18.393 -0.105 -18.545 -0.106 -18.924 -0.113 -18.940 -0.115 4.277 0.029 7.281 0.166 43.102 41.385
83.400 -16.985 -0.135 -16.995 -0.134 -17.416 -0.116 -18.220 -0.102 -18.275 -0.101 -18.385 -0.100 -18.538 -0.101 -18.917 -0.109 -18.933 -0.111 4.265 0.029 7.320 0.168 43.101 41.389
83.800 -16.969 -0.129 -16.980 -0.129 -17.403 -0.111 -18.212 -0.096 -18.267 -0.095 -18.378 -0.095 -18.531 -0.096 -18.910 -0.104 -18.926 -0.106 4.253 0.029 7.356 0.171 43.101 41.394
84.200 -16.954 -0.124 -16.964 -0.123 -17.390 -0.105 -18.203 -0.091 -18.259 -0.090 -18.370 -0.089 -18.524 -0.091 -18.903 -0.099 -18.920 -0.102 4.242 0.030 7.390 0.174 43.100 41.399
84.600 -16.939 -0.119 -16.949 -0.119 -17.377 -0.100 -18.195 -0.085 -18.251 -0.085 -18.362 -0.084 -18.517 -0.086 -18.896 -0.095 -18.913 -0.098 4.231 0.030 7.421 0.177 43.099 41.405
85.000 -16.924 -0.115 -16.935 -0.114 -17.365 -0.096 -18.186 -0.080 -18.242 -0.079 -18.354 -0.079 -18.510 -0.081 -18.889 -0.091 -18.905 -0.094 4.221 0.030 7.449 0.180 43.099 41.411
85.400 -16.910 -0.112 -16.920 -0.111 -17.352 -0.092 -18.177 -0.076 -18.233 -0.075 -18.346 -0.074 -18.502 -0.077 -18.882 -0.087 -18.898 -0.090 4.211 0.030 7.474 0.183 43.097 41.416
85.800 -16.896 -0.109 -16.906 -0.108 -17.340 -0.088 -18.168 -0.072 -18.224 -0.071 -18.337 -0.070 -18.494 -0.073 -18.874 -0.085 -18.891 -0.088 4.203 0.031 7.489 0.186 43.096 41.420
86.200 -16.882 -0.107 -16.893 -0.107 -17.328 -0.086 -18.158 -0.069 -18.215 -0.068 -18.328 -0.067 -18.485 -0.071 -18.867 -0.083 -18.883 -0.087 4.195 0.031 7.505 0.188 43.094 41.423
86.600 -16.869 -0.107 -16.879 -0.106 -17.316 -0.085 -18.148 -0.068 -18.205 -0.066 -18.319 -0.066 -18.476 -0.069 -18.859 -0.083 -18.876 -0.087 4.186 0.031 7.522 0.190 43.093 41.426
87.000 -16.856 -0.108 -16.867 -0.107 -17.304 -0.086 -18.138 -0.068 -18.195 -0.067 -18.309 -0.066 -18.467 -0.069 -18.851 -0.084 -18.868 -0.088 4.180 0.031 7.525 0.191 43.091 41.426
87.400 -16.844 -0.111 -16.854 -0.110 -17.292 -0.088 -18.127 -0.070 -18.184 -0.069 -18.298 -0.068 -18.457 -0.071 -18.843 -0.087 -18.860 -0.091 4.175 0.031 7.522 0.191 43.088 41.426
87.800 -16.832 -0.114 -16.843 -0.113 -17.280 -0.091 -18.116 -0.073 -18.173 -0.072 -18.288 -0.072 -18.447 -0.075 -18.835 -0.091 -18.852 -0.095 4.171 0.031 7.510 0.191 43.085 41.424
