"Time (MJD)" B-4345.28 B-4345.28_err U-3520.88 U-3520.88_err UVM2-2245.03 UVM2-2245.03_err UVW1-2681.67 UVW1-2681.67_err UVW2-2083.95 UVW2-2083.95_err V-5411.45 V-5411.45_err cyan-5182.42 cyan-5182.42_err g-4746.48 g-4746.48_err g-4793.46 g-4793.46_err i-7589.41 i-7589.41_err i-7829.03 i-7829.03_err orange-6629.82 orange-6629.82_err r-6120.65 r-6120.65_err r-6366.38 r-6366.38_err z-8970.57 z-8970.57_err "Temp./1e3 (K)" "Temp. Err." "Radius/1e15 (cm)" "Radius Err." "Log10(Bol. Lum)" "Log10(Bol. Err)"
-47.000 -17.353 -0.169 -17.538 -0.140 -17.992 -0.140 -18.673 -0.146 -18.992 -0.115 -18.985 -0.092 -18.973 -0.091 -18.832 -0.098 -18.772 -0.107 -18.790 -0.098 -18.794 -0.088 -18.722 -0.105 -18.375 -0.120 -18.315 -0.123 -18.017 -0.171 13.652 0.448 0.862 0.047 43.265 41.966
-46.600 -17.393 -0.166 -17.579 -0.137 -18.036 -0.138 -18.726 -0.145 -19.049 -0.113 -19.043 -0.089 -19.031 -0.088 -18.889 -0.095 -18.830 -0.105 -18.852 -0.096 -18.857 -0.085 -18.786 -0.102 -18.436 -0.117 -18.376 -0.120 -18.072 -0.168 13.589 0.450 0.892 0.049 43.287 41.991
-46.200 -17.432 -0.163 -17.620 -0.135 -18.081 -0.137 -18.779 -0.143 -19.107 -0.110 -19.101 -0.086 -19.089 -0.086 -18.947 -0.094 -18.888 -0.103 -18.914 -0.094 -18.921 -0.083 -18.849 -0.100 -18.498 -0.115 -18.437 -0.118 -18.126 -0.166 13.529 0.452 0.923 0.052 43.308 42.016
-45.800 -17.471 -0.161 -17.660 -0.134 -18.126 -0.137 -18.831 -0.143 -19.165 -0.109 -19.159 -0.084 -19.147 -0.083 -19.004 -0.092 -18.946 -0.102 -18.976 -0.092 -18.983 -0.081 -18.911 -0.098 -18.560 -0.114 -18.499 -0.116 -18.181 -0.164 13.470 0.455 0.954 0.054 43.330 42.041
-45.400 -17.509 -0.160 -17.700 -0.133 -18.170 -0.137 -18.884 -0.143 -19.222 -0.107 -19.217 -0.082 -19.204 -0.082 -19.061 -0.091 -19.003 -0.101 -19.037 -0.091 -19.046 -0.079 -18.974 -0.097 -18.621 -0.113 -18.560 -0.115 -18.234 -0.162 13.413 0.457 0.986 0.057 43.351 42.066
-45.000 -17.548 -0.160 -17.740 -0.133 -18.214 -0.138 -18.936 -0.143 -19.279 -0.107 -19.274 -0.081 -19.261 -0.080 -19.118 -0.090 -19.061 -0.101 -19.099 -0.090 -19.108 -0.078 -19.037 -0.096 -18.683 -0.112 -18.621 -0.114 -18.288 -0.161 13.357 0.460 1.019 0.059 43.372 42.092
-44.600 -17.586 -0.160 -17.780 -0.134 -18.258 -0.139 -18.988 -0.143 -19.336 -0.106 -19.330 -0.080 -19.318 -0.079 -19.175 -0.090 -19.118 -0.101 -19.160 -0.089 -19.169 -0.078 -19.099 -0.095 -18.744 -0.112 -18.681 -0.114 -18.342 -0.161 13.304 0.463 1.053 0.062 43.394 42.117
-44.200 -17.624 -0.160 -17.819 -0.136 -18.302 -0.141 -19.040 -0.145 -19.393 -0.105 -19.387 -0.079 -19.374 -0.078 -19.232 -0.090 -19.175 -0.101 -19.221 -0.089 -19.230 -0.077 -19.161 -0.095 -18.805 -0.111 -18.742 -0.114 -18.395 -0.160 13.252 0.466 1.088 0.065 43.415 42.142
-43.800 -17.662 -0.161 -17.859 -0.138 -18.346 -0.143 -19.091 -0.146 -19.449 -0.105 -19.443 -0.078 -19.430 -0.078 -19.288 -0.090 -19.232 -0.101 -19.281 -0.089 -19.291 -0.077 -19.223 -0.094 -18.866 -0.112 -18.803 -0.114 -18.448 -0.161 13.201 0.470 1.124 0.067 43.436 42.167
-43.400 -17.699 -0.163 -17.898 -0.140 -18.389 -0.146 -19.143 -0.148 -19.505 -0.105 -19.498 -0.078 -19.486 -0.077 -19.344 -0.090 -19.288 -0.102 -19.342 -0.089 -19.352 -0.077 -19.284 -0.094 -18.927 -0.112 -18.863 -0.114 -18.501 -0.161 13.151 0.473 1.160 0.070 43.458 42.193
-43.000 -17.737 -0.165 -17.936 -0.143 -18.432 -0.149 -19.194 -0.150 -19.561 -0.106 -19.553 -0.078 -19.541 -0.077 -19.400 -0.091 -19.345 -0.102 -19.402 -0.089 -19.412 -0.077 -19.345 -0.094 -18.987 -0.113 -18.923 -0.114 -18.554 -0.162 13.103 0.477 1.198 0.073 43.479 42.218
-42.600 -17.774 -0.167 -17.975 -0.146 -18.475 -0.152 -19.245 -0.152 -19.617 -0.106 -19.608 -0.077 -19.596 -0.077 -19.455 -0.092 -19.401 -0.103 -19.461 -0.089 -19.471 -0.077 -19.405 -0.094 -19.048 -0.114 -18.983 -0.115 -18.607 -0.163 13.055 0.481 1.236 0.077 43.500 42.243
-42.200 -17.810 -0.170 -18.013 -0.150 -18.517 -0.156 -19.295 -0.154 -19.672 -0.107 -19.662 -0.077 -19.650 -0.077 -19.510 -0.092 -19.457 -0.104 -19.520 -0.089 -19.531 -0.077 -19.465 -0.095 -19.108 -0.114 -19.043 -0.116 -18.659 -0.164 13.009 0.485 1.275 0.080 43.521 42.268
-41.800 -17.847 -0.173 -18.051 -0.154 -18.560 -0.159 -19.346 -0.157 -19.727 -0.107 -19.716 -0.077 -19.704 -0.077 -19.565 -0.093 -19.512 -0.105 -19.579 -0.089 -19.590 -0.077 -19.525 -0.095 -19.168 -0.115 -19.103 -0.116 -18.711 -0.166 12.963 0.489 1.316 0.083 43.542 42.292
-41.400 -17.883 -0.176 -18.089 -0.158 -18.602 -0.163 -19.396 -0.160 -19.782 -0.108 -19.770 -0.077 -19.757 -0.077 -19.619 -0.094 -19.567 -0.106 -19.637 -0.090 -19.648 -0.077 -19.584 -0.095 -19.227 -0.116 -19.162 -0.117 -18.763 -0.167 12.918 0.493 1.357 0.087 43.563 42.317
-41.000 -17.919 -0.180 -18.126 -0.162 -18.644 -0.167 -19.445 -0.162 -19.836 -0.109 -19.823 -0.077 -19.811 -0.076 -19.673 -0.095 -19.622 -0.107 -19.695 -0.090 -19.706 -0.077 -19.643 -0.095 -19.286 -0.118 -19.221 -0.118 -18.814 -0.169 12.873 0.497 1.400 0.091 43.584 42.341
-40.600 -17.955 -0.183 -18.164 -0.166 -18.685 -0.171 -19.495 -0.165 -19.891 -0.109 -19.876 -0.076 -19.864 -0.076 -19.727 -0.095 -19.676 -0.108 -19.753 -0.090 -19.764 -0.077 -19.702 -0.095 -19.345 -0.119 -19.279 -0.119 -18.865 -0.171 12.829 0.500 1.444 0.094 43.605 42.365
-40.200 -17.991 -0.187 -18.201 -0.170 -18.726 -0.175 -19.544 -0.168 -19.944 -0.110 -19.929 -0.076 -19.916 -0.076 -19.780 -0.096 -19.730 -0.109 -19.810 -0.090 -19.821 -0.076 -19.759 -0.095 -19.404 -0.120 -19.338 -0.120 -18.916 -0.173 12.786 0.504 1.489 0.098 43.625 42.389
-39.800 -18.026 -0.191 -18.237 -0.175 -18.767 -0.179 -19.593 -0.171 -19.998 -0.111 -19.981 -0.075 -19.968 -0.075 -19.832 -0.097 -19.783 -0.110 -19.866 -0.090 -19.878 -0.076 -19.817 -0.095 -19.462 -0.121 -19.396 -0.121 -18.967 -0.175 12.743 0.508 1.535 0.102 43.646 42.412
-39.400 -18.061 -0.194 -18.273 -0.179 -18.808 -0.182 -19.642 -0.174 -20.051 -0.111 -20.033 -0.075 -20.020 -0.075 -19.885 -0.097 -19.836 -0.111 -19.922 -0.090 -19.934 -0.076 -19.873 -0.095 -19.519 -0.122 -19.453 -0.121 -19.017 -0.177 12.702 0.512 1.582 0.107 43.667 42.435
-39.000 -18.095 -0.198 -18.310 -0.183 -18.848 -0.186 -19.690 -0.177 -20.104 -0.112 -20.084 -0.074 -20.072 -0.074 -19.937 -0.098 -19.889 -0.112 -19.978 -0.090 -19.990 -0.075 -19.929 -0.095 -19.577 -0.122 -19.510 -0.122 -19.067 -0.179 12.661 0.516 1.631 0.111 43.687 42.458
-38.600 -18.130 -0.202 -18.345 -0.188 -18.888 -0.190 -19.738 -0.180 -20.156 -0.113 -20.136 -0.073 -20.123 -0.073 -19.988 -0.098 -19.941 -0.113 -20.033 -0.090 -20.045 -0.074 -19.985 -0.095 -19.633 -0.123 -19.567 -0.122 -19.117 -0.181 12.621 0.520 1.680 0.115 43.708 42.481
-38.200 -18.164 -0.206 -18.381 -0.192 -18.928 -0.194 -19.785 -0.183 -20.208 -0.113 -20.186 -0.072 -20.173 -0.072 -20.039 -0.099 -19.992 -0.114 -20.087 -0.090 -20.100 -0.073 -20.040 -0.095 -19.690 -0.124 -19.624 -0.123 -19.166 -0.183 12.582 0.524 1.731 0.120 43.728 42.503
-37.800 -18.197 -0.210 -18.416 -0.196 -18.967 -0.198 -19.833 -0.186 -20.260 -0.114 -20.237 -0.071 -20.224 -0.071 -20.089 -0.099 -20.043 -0.114 -20.141 -0.089 -20.154 -0.072 -20.094 -0.094 -19.745 -0.124 -19.679 -0.123 -19.215 -0.185 12.543 0.528 1.783 0.124 43.749 42.525
-37.400 -18.231 -0.213 -18.451 -0.200 -19.006 -0.201 -19.880 -0.189 -20.311 -0.114 -20.287 -0.070 -20.273 -0.070 -20.139 -0.099 -20.093 -0.115 -20.194 -0.089 -20.207 -0.071 -20.148 -0.094 -19.800 -0.125 -19.735 -0.123 -19.264 -0.186 12.506 0.532 1.836 0.129 43.769 42.547
-37.000 -18.264 -0.217 -18.485 -0.204 -19.044 -0.205 -19.926 -0.191 -20.362 -0.115 -20.336 -0.068 -20.323 -0.069 -20.188 -0.099 -20.143 -0.115 -20.247 -0.089 -20.260 -0.070 -20.201 -0.094 -19.855 -0.125 -19.790 -0.123 -19.312 -0.188 12.470 0.535 1.890 0.134 43.789 42.569
-36.600 -18.297 -0.220 -18.520 -0.208 -19.083 -0.208 -19.972 -0.194 -20.412 -0.115 -20.386 -0.067 -20.372 -0.067 -20.237 -0.099 -20.192 -0.116 -20.299 -0.088 -20.313 -0.068 -20.253 -0.093 -19.909 -0.126 -19.844 -0.123 -19.360 -0.190 12.435 0.539 1.945 0.139 43.809 42.590
-36.200 -18.329 -0.224 -18.553 -0.211 -19.121 -0.212 -20.018 -0.196 -20.462 -0.115 -20.435 -0.065 -20.421 -0.066 -20.285 -0.099 -20.241 -0.116 -20.350 -0.087 -20.364 -0.067 -20.305 -0.092 -19.963 -0.126 -19.898 -0.123 -19.408 -0.191 12.402 0.543 2.001 0.144 43.829 42.610
-35.800 -18.361 -0.227 -18.587 -0.215 -19.158 -0.215 -20.063 -0.199 -20.512 -0.116 -20.483 -0.064 -20.469 -0.064 -20.333 -0.099 -20.289 -0.116 -20.401 -0.087 -20.415 -0.065 -20.355 -0.092 -20.015 -0.126 -19.951 -0.123 -19.455 -0.193 12.370 0.546 2.058 0.150 43.849 42.631
-35.400 -18.393 -0.230 -18.620 -0.218 -19.195 -0.218 -20.108 -0.201 -20.561 -0.116 -20.531 -0.062 -20.517 -0.062 -20.380 -0.099 -20.336 -0.116 -20.451 -0.086 -20.465 -0.063 -20.406 -0.091 -20.068 -0.126 -20.004 -0.122 -19.502 -0.194 12.339 0.550 2.116 0.155 43.869 42.651
-35.000 -18.425 -0.234 -18.653 -0.222 -19.232 -0.221 -20.153 -0.203 -20.610 -0.116 -20.579 -0.060 -20.564 -0.061 -20.426 -0.098 -20.383 -0.116 -20.500 -0.085 -20.515 -0.061 -20.455 -0.090 -20.119 -0.125 -20.056 -0.121 -19.548 -0.195 12.310 0.553 2.174 0.160 43.889 42.670
-34.600 -18.456 -0.236 -18.686 -0.225 -19.269 -0.223 -20.197 -0.205 -20.658 -0.116 -20.626 -0.058 -20.612 -0.059 -20.472 -0.098 -20.429 -0.116 -20.549 -0.085 -20.564 -0.060 -20.503 -0.090 -20.170 -0.125 -20.107 -0.121 -19.595 -0.196 12.283 0.557 2.233 0.166 43.908 42.689
-34.200 -18.487 -0.239 -18.718 -0.228 -19.305 -0.226 -20.240 -0.207 -20.706 -0.117 -20.673 -0.057 -20.658 -0.057 -20.517 -0.097 -20.475 -0.116 -20.596 -0.084 -20.612 -0.058 -20.551 -0.089 -20.220 -0.124 -20.158 -0.120 -19.640 -0.197 12.257 0.560 2.293 0.171 43.927 42.708
-33.800 -18.517 -0.242 -18.750 -0.231 -19.341 -0.229 -20.283 -0.209 -20.753 -0.117 -20.719 -0.055 -20.704 -0.056 -20.562 -0.097 -20.520 -0.116 -20.643 -0.083 -20.659 -0.056 -20.598 -0.088 -20.270 -0.124 -20.208 -0.119 -19.686 -0.198 12.233 0.563 2.353 0.177 43.946 42.727
-33.400 -18.547 -0.245 -18.781 -0.233 -19.376 -0.231 -20.326 -0.211 -20.800 -0.117 -20.765 -0.053 -20.750 -0.054 -20.606 -0.096 -20.564 -0.115 -20.690 -0.083 -20.705 -0.055 -20.644 -0.087 -20.318 -0.123 -20.257 -0.118 -19.731 -0.199 12.211 0.566 2.413 0.183 43.965 42.745
-33.000 -18.577 -0.247 -18.812 -0.236 -19.411 -0.233 -20.368 -0.213 -20.847 -0.117 -20.811 -0.052 -20.795 -0.053 -20.650 -0.096 -20.608 -0.115 -20.735 -0.082 -20.751 -0.053 -20.689 -0.087 -20.366 -0.122 -20.306 -0.116 -19.775 -0.199 12.191 0.569 2.473 0.188 43.983 42.764
-32.600 -18.606 -0.249 -18.843 -0.238 -19.445 -0.235 -20.410 -0.214 -20.892 -0.117 -20.856 -0.051 -20.840 -0.051 -20.693 -0.095 -20.651 -0.115 -20.780 -0.082 -20.795 -0.052 -20.733 -0.086 -20.413 -0.122 -20.354 -0.115 -19.819 -0.200 12.172 0.572 2.533 0.194 44.001 42.782
-32.200 -18.635 -0.251 -18.873 -0.240 -19.479 -0.237 -20.451 -0.216 -20.938 -0.117 -20.900 -0.049 -20.884 -0.050 -20.735 -0.094 -20.693 -0.114 -20.823 -0.081 -20.839 -0.051 -20.776 -0.085 -20.460 -0.121 -20.401 -0.113 -19.863 -0.200 12.154 0.575 2.592 0.199 44.019 42.800
-31.800 -18.664 -0.253 -18.903 -0.242 -19.513 -0.238 -20.492 -0.217 -20.983 -0.117 -20.944 -0.048 -20.928 -0.049 -20.776 -0.093 -20.734 -0.114 -20.866 -0.081 -20.882 -0.051 -20.819 -0.085 -20.505 -0.120 -20.448 -0.112 -19.906 -0.200 12.138 0.578 2.651 0.205 44.036 42.817
-31.400 -18.692 -0.255 -18.933 -0.244 -19.546 -0.240 -20.532 -0.218 -21.027 -0.117 -20.988 -0.048 -20.972 -0.048 -20.817 -0.092 -20.775 -0.113 -20.909 -0.080 -20.923 -0.050 -20.861 -0.084 -20.550 -0.118 -20.494 -0.110 -19.949 -0.200 12.124 0.580 2.710 0.211 44.053 42.835
-31.000 -18.720 -0.257 -18.962 -0.246 -19.579 -0.241 -20.572 -0.219 -21.071 -0.117 -21.031 -0.047 -21.015 -0.048 -20.858 -0.092 -20.815 -0.112 -20.950 -0.080 -20.964 -0.050 -20.901 -0.084 -20.594 -0.117 -20.538 -0.109 -19.991 -0.200 12.111 0.583 2.767 0.217 44.070 42.853
-30.600 -18.748 -0.258 -18.991 -0.247 -19.611 -0.242 -20.611 -0.220 -21.114 -0.116 -21.074 -0.047 -21.057 -0.047 -20.897 -0.091 -20.855 -0.112 -20.991 -0.080 -21.004 -0.050 -20.941 -0.083 -20.637 -0.116 -20.583 -0.107 -20.033 -0.199 12.098 0.586 2.825 0.222 44.086 42.871
-30.200 -18.775 -0.259 -19.019 -0.248 -19.643 -0.243 -20.650 -0.221 -21.156 -0.116 -21.116 -0.046 -21.099 -0.047 -20.936 -0.090 -20.893 -0.111 -21.030 -0.079 -21.043 -0.050 -20.980 -0.083 -20.679 -0.115 -20.626 -0.105 -20.075 -0.199 12.088 0.589 2.882 0.228 44.101 42.888
-29.800 -18.802 -0.260 -19.047 -0.249 -19.675 -0.244 -20.688 -0.221 -21.198 -0.116 -21.157 -0.046 -21.140 -0.046 -20.974 -0.089 -20.932 -0.110 -21.069 -0.079 -21.081 -0.050 -21.018 -0.082 -20.720 -0.113 -20.668 -0.103 -20.116 -0.198 12.078 0.592 2.938 0.234 44.117 42.906
-29.400 -18.828 -0.261 -19.075 -0.250 -19.706 -0.245 -20.726 -0.222 -21.240 -0.116 -21.198 -0.045 -21.180 -0.046 -21.012 -0.088 -20.969 -0.110 -21.107 -0.079 -21.119 -0.050 -21.055 -0.082 -20.760 -0.112 -20.710 -0.101 -20.156 -0.198 12.069 0.595 2.994 0.240 44.132 42.923
-29.000 -18.854 -0.262 -19.102 -0.251 -19.736 -0.245 -20.763 -0.222 -21.280 -0.116 -21.239 -0.045 -21.220 -0.045 -21.049 -0.087 -21.005 -0.109 -21.144 -0.079 -21.155 -0.050 -21.091 -0.081 -20.800 -0.111 -20.750 -0.100 -20.196 -0.197 12.062 0.598 3.050 0.246 44.147 42.940
-28.600 -18.880 -0.263 -19.129 -0.252 -19.766 -0.246 -20.799 -0.222 -21.320 -0.116 -21.278 -0.044 -21.260 -0.045 -21.085 -0.086 -21.041 -0.108 -21.181 -0.079 -21.191 -0.050 -21.127 -0.081 -20.839 -0.109 -20.790 -0.098 -20.236 -0.196 12.056 0.601 3.106 0.252 44.162 42.957
-28.200 -18.905 -0.263 -19.155 -0.252 -19.796 -0.246 -20.835 -0.222 -21.360 -0.115 -21.317 -0.044 -21.298 -0.044 -21.121 -0.086 -21.077 -0.108 -21.216 -0.078 -21.225 -0.050 -21.161 -0.081 -20.876 -0.108 -20.829 -0.096 -20.275 -0.194 12.051 0.605 3.161 0.258 44.177 42.974
-27.800 -18.930 -0.263 -19.181 -0.252 -19.825 -0.246 -20.871 -0.222 -21.398 -0.115 -21.355 -0.043 -21.336 -0.043 -21.156 -0.085 -21.111 -0.107 -21.251 -0.078 -21.259 -0.050 -21.195 -0.080 -20.913 -0.106 -20.867 -0.094 -20.314 -0.193 12.048 0.609 3.216 0.265 44.191 42.991
-27.400 -18.954 -0.263 -19.206 -0.252 -19.854 -0.246 -20.906 -0.222 -21.436 -0.115 -21.393 -0.042 -21.374 -0.042 -21.190 -0.084 -21.145 -0.106 -21.285 -0.078 -21.293 -0.050 -21.228 -0.080 -20.949 -0.105 -20.904 -0.093 -20.352 -0.192 12.046 0.613 3.271 0.271 44.206 43.007
-27.000 -18.978 -0.263 -19.231 -0.252 -19.882 -0.246 -20.940 -0.222 -21.473 -0.114 -21.430 -0.041 -21.410 -0.041 -21.223 -0.083 -21.178 -0.105 -21.319 -0.077 -21.325 -0.050 -21.260 -0.079 -20.984 -0.104 -20.940 -0.091 -20.390 -0.190 12.046 0.617 3.326 0.278 44.220 43.023
-26.600 -19.001 -0.263 -19.256 -0.252 -19.909 -0.245 -20.973 -0.221 -21.510 -0.114 -21.466 -0.040 -21.446 -0.040 -21.256 -0.083 -21.211 -0.105 -21.351 -0.077 -21.357 -0.050 -21.291 -0.079 -21.018 -0.102 -20.975 -0.089 -20.427 -0.188 12.047 0.622 3.380 0.284 44.234 43.039
-26.200 -19.025 -0.263 -19.280 -0.251 -19.937 -0.244 -21.006 -0.221 -21.546 -0.114 -21.501 -0.039 -21.481 -0.039 -21.288 -0.082 -21.242 -0.104 -21.383 -0.077 -21.388 -0.050 -21.322 -0.078 -21.052 -0.101 -21.010 -0.088 -20.464 -0.186 12.050 0.627 3.434 0.291 44.248 43.055
-25.800 -19.047 -0.262 -19.304 -0.251 -19.963 -0.244 -21.039 -0.220 -21.581 -0.113 -21.536 -0.037 -21.515 -0.038 -21.320 -0.081 -21.273 -0.103 -21.414 -0.076 -21.418 -0.050 -21.352 -0.078 -21.084 -0.099 -21.043 -0.086 -20.500 -0.184 12.054 0.632 3.488 0.298 44.262 43.070
-25.400 -19.070 -0.261 -19.327 -0.250 -19.990 -0.243 -21.071 -0.219 -21.615 -0.113 -21.569 -0.036 -21.549 -0.037 -21.350 -0.081 -21.304 -0.103 -21.444 -0.076 -21.447 -0.049 -21.381 -0.077 -21.116 -0.097 -21.076 -0.084 -20.536 -0.182 12.059 0.637 3.541 0.305 44.276 43.085
-25.000 -19.091 -0.261 -19.350 -0.249 -20.015 -0.242 -21.102 -0.218 -21.648 -0.112 -21.602 -0.035 -21.581 -0.036 -21.380 -0.080 -21.333 -0.102 -21.474 -0.075 -21.476 -0.049 -21.409 -0.077 -21.147 -0.096 -21.108 -0.083 -20.572 -0.180 12.066 0.642 3.593 0.312 44.290 43.100
-24.600 -19.113 -0.260 -19.373 -0.248 -20.040 -0.240 -21.132 -0.217 -21.681 -0.112 -21.634 -0.033 -21.613 -0.034 -21.410 -0.080 -21.362 -0.102 -21.503 -0.074 -21.504 -0.049 -21.437 -0.076 -21.177 -0.094 -21.139 -0.081 -20.607 -0.178 12.073 0.647 3.646 0.319 44.304 43.114
-24.200 -19.134 -0.258 -19.395 -0.246 -20.065 -0.239 -21.162 -0.216 -21.713 -0.111 -21.665 -0.032 -21.644 -0.033 -21.438 -0.079 -21.391 -0.101 -21.531 -0.074 -21.532 -0.048 -21.463 -0.076 -21.206 -0.093 -21.170 -0.079 -20.641 -0.175 12.080 0.652 3.697 0.326 44.317 43.128
-23.800 -19.154 -0.257 -19.416 -0.245 -20.089 -0.237 -21.192 -0.214 -21.744 -0.111 -21.696 -0.031 -21.674 -0.032 -21.466 -0.079 -21.418 -0.101 -21.558 -0.073 -21.558 -0.048 -21.490 -0.075 -21.234 -0.091 -21.200 -0.078 -20.675 -0.173 12.085 0.656 3.748 0.333 44.329 43.141
-23.400 -19.174 -0.255 -19.437 -0.243 -20.113 -0.236 -21.221 -0.213 -21.774 -0.111 -21.725 -0.030 -21.703 -0.032 -21.494 -0.079 -21.446 -0.101 -21.585 -0.073 -21.584 -0.048 -21.515 -0.075 -21.262 -0.090 -21.229 -0.076 -20.708 -0.170 12.089 0.660 3.798 0.339 44.341 43.154
-23.000 -19.194 -0.254 -19.458 -0.242 -20.136 -0.234 -21.249 -0.211 -21.803 -0.110 -21.753 -0.030 -21.731 -0.031 -21.521 -0.079 -21.472 -0.100 -21.611 -0.072 -21.610 -0.047 -21.540 -0.074 -21.289 -0.088 -21.257 -0.074 -20.741 -0.167 12.089 0.662 3.846 0.344 44.352 43.166
-22.600 -19.213 -0.252 -19.478 -0.240 -20.159 -0.232 -21.276 -0.210 -21.832 -0.110 -21.781 -0.029 -21.758 -0.031 -21.547 -0.079 -21.498 -0.100 -21.636 -0.071 -21.634 -0.047 -21.564 -0.074 -21.316 -0.086 -21.285 -0.073 -20.774 -0.164 12.084 0.662 3.894 0.349 44.362 43.178
-22.200 -19.232 -0.250 -19.497 -0.238 -20.181 -0.230 -21.303 -0.208 -21.859 -0.109 -21.807 -0.030 -21.785 -0.031 -21.572 -0.079 -21.523 -0.100 -21.661 -0.070 -21.658 -0.047 -21.587 -0.074 -21.341 -0.085 -21.312 -0.071 -20.806 -0.161 12.075 0.662 3.940 0.353 44.371 43.190
-21.800 -19.250 -0.248 -19.517 -0.235 -20.202 -0.228 -21.329 -0.206 -21.886 -0.109 -21.833 -0.030 -21.810 -0.031 -21.597 -0.079 -21.547 -0.100 -21.685 -0.070 -21.681 -0.048 -21.610 -0.073 -21.366 -0.083 -21.339 -0.069 -20.837 -0.158 12.062 0.659 3.985 0.356 44.379 43.201
-21.400 -19.268 -0.246 -19.535 -0.233 -20.223 -0.225 -21.355 -0.204 -21.912 -0.108 -21.857 -0.031 -21.835 -0.032 -21.621 -0.079 -21.571 -0.100 -21.708 -0.069 -21.704 -0.048 -21.632 -0.073 -21.390 -0.081 -21.365 -0.068 -20.868 -0.155 12.045 0.656 4.028 0.358 44.386 43.211
-21.000 -19.285 -0.243 -19.553 -0.231 -20.244 -0.223 -21.379 -0.202 -21.937 -0.108 -21.881 -0.031 -21.858 -0.033 -21.645 -0.079 -21.594 -0.099 -21.730 -0.068 -21.726 -0.048 -21.653 -0.073 -21.414 -0.080 -21.391 -0.066 -20.899 -0.152 12.026 0.651 4.071 0.360 44.393 43.220
-20.600 -19.302 -0.241 -19.571 -0.228 -20.264 -0.220 -21.404 -0.200 -21.962 -0.107 -21.904 -0.032 -21.881 -0.033 -21.668 -0.080 -21.616 -0.099 -21.752 -0.067 -21.747 -0.048 -21.674 -0.073 -21.437 -0.078 -21.416 -0.065 -20.929 -0.149 12.005 0.646 4.114 0.361 44.399 43.229
-20.200 -19.319 -0.238 -19.588 -0.225 -20.283 -0.217 -21.427 -0.197 -21.985 -0.107 -21.926 -0.033 -21.903 -0.034 -21.690 -0.080 -21.638 -0.099 -21.773 -0.066 -21.767 -0.048 -21.694 -0.072 -21.460 -0.076 -21.440 -0.063 -20.958 -0.146 11.983 0.640 4.156 0.362 44.404 43.236
-19.800 -19.335 -0.236 -19.605 -0.222 -20.302 -0.215 -21.450 -0.195 -22.008 -0.106 -21.947 -0.034 -21.924 -0.035 -21.711 -0.080 -21.659 -0.099 -21.794 -0.065 -21.787 -0.049 -21.713 -0.072 -21.481 -0.075 -21.464 -0.062 -20.987 -0.143 11.958 0.633 4.198 0.362 44.410 43.243
-19.400 -19.350 -0.233 -19.621 -0.219 -20.321 -0.212 -21.473 -0.192 -22.030 -0.106 -21.967 -0.035 -21.944 -0.036 -21.732 -0.081 -21.679 -0.099 -21.813 -0.064 -21.806 -0.049 -21.731 -0.072 -21.503 -0.073 -21.488 -0.061 -21.016 -0.139 11.933 0.625 4.239 0.362 44.414 43.248
-19.000 -19.365 -0.230 -19.637 -0.216 -20.339 -0.209 -21.494 -0.189 -22.051 -0.105 -21.987 -0.037 -21.964 -0.037 -21.752 -0.081 -21.699 -0.099 -21.832 -0.063 -21.824 -0.049 -21.749 -0.072 -21.523 -0.072 -21.511 -0.060 -21.044 -0.136 11.907 0.618 4.280 0.361 44.419 43.253
-18.600 -19.380 -0.227 -19.653 -0.213 -20.356 -0.206 -21.515 -0.187 -22.072 -0.104 -22.005 -0.038 -21.982 -0.038 -21.771 -0.081 -21.717 -0.099 -21.851 -0.062 -21.842 -0.049 -21.766 -0.071 -21.543 -0.070 -21.534 -0.058 -21.071 -0.133 11.880 0.609 4.321 0.361 44.423 43.257
-18.200 -19.394 -0.223 -19.667 -0.210 -20.373 -0.202 -21.536 -0.184 -22.091 -0.104 -22.023 -0.039 -22.000 -0.039 -21.789 -0.082 -21.736 -0.099 -21.868 -0.061 -21.859 -0.050 -21.783 -0.071 -21.563 -0.068 -21.556 -0.057 -21.098 -0.129 11.854 0.601 4.362 0.360 44.428 43.260
-17.800 -19.408 -0.220 -19.682 -0.206 -20.389 -0.199 -21.555 -0.181 -22.110 -0.103 -22.040 -0.040 -22.017 -0.040 -21.807 -0.082 -21.753 -0.099 -21.885 -0.059 -21.876 -0.050 -21.798 -0.071 -21.582 -0.067 -21.578 -0.056 -21.125 -0.126 11.827 0.592 4.402 0.359 44.432 43.262
-17.400 -19.421 -0.217 -19.696 -0.203 -20.404 -0.196 -21.574 -0.178 -22.128 -0.102 -22.057 -0.040 -22.034 -0.041 -21.824 -0.082 -21.770 -0.098 -21.902 -0.058 -21.891 -0.050 -21.813 -0.071 -21.600 -0.065 -21.599 -0.055 -21.151 -0.123 11.802 0.583 4.442 0.357 44.436 43.264
-17.000 -19.433 -0.213 -19.709 -0.199 -20.420 -0.192 -21.593 -0.175 -22.146 -0.102 -22.073 -0.041 -22.050 -0.041 -21.841 -0.082 -21.786 -0.098 -21.917 -0.057 -21.906 -0.050 -21.828 -0.071 -21.618 -0.064 -21.619 -0.054 -21.177 -0.120 11.777 0.575 4.482 0.356 44.440 43.266
-16.600 -19.446 -0.210 -19.722 -0.195 -20.434 -0.189 -21.611 -0.172 -22.162 -0.101 -22.088 -0.042 -22.065 -0.042 -21.856 -0.082 -21.802 -0.098 -21.932 -0.056 -21.921 -0.050 -21.841 -0.071 -21.635 -0.063 -21.639 -0.053 -21.202 -0.117 11.752 0.566 4.521 0.354 44.444 43.267
-16.200 -19.457 -0.206 -19.734 -0.191 -20.448 -0.185 -21.628 -0.168 -22.178 -0.100 -22.102 -0.042 -22.079 -0.042 -21.871 -0.082 -21.817 -0.097 -21.946 -0.054 -21.935 -0.050 -21.855 -0.071 -21.651 -0.061 -21.659 -0.052 -21.227 -0.114 11.728 0.557 4.561 0.353 44.448 43.267
-15.800 -19.469 -0.202 -19.746 -0.187 -20.462 -0.181 -21.644 -0.165 -22.194 -0.099 -22.116 -0.043 -22.093 -0.043 -21.885 -0.082 -21.831 -0.097 -21.960 -0.053 -21.948 -0.050 -21.867 -0.070 -21.667 -0.060 -21.678 -0.051 -21.251 -0.111 11.704 0.549 4.599 0.351 44.452 43.267
-15.400 -19.479 -0.198 -19.757 -0.183 -20.475 -0.177 -21.660 -0.162 -22.208 -0.098 -22.129 -0.043 -22.106 -0.043 -21.899 -0.082 -21.845 -0.097 -21.973 -0.052 -21.960 -0.050 -21.879 -0.070 -21.683 -0.059 -21.696 -0.050 -21.275 -0.109 11.680 0.540 4.638 0.349 44.455 43.267
-15.000 -19.490 -0.195 -19.768 -0.179 -20.487 -0.174 -21.675 -0.158 -22.222 -0.097 -22.141 -0.043 -22.118 -0.043 -21.912 -0.081 -21.858 -0.096 -21.985 -0.051 -21.972 -0.050 -21.891 -0.070 -21.697 -0.058 -21.713 -0.049 -21.299 -0.106 11.655 0.531 4.677 0.348 44.459 43.266
-14.600 -19.499 -0.191 -19.778 -0.175 -20.499 -0.170 -21.690 -0.155 -22.235 -0.096 -22.153 -0.044 -22.130 -0.043 -21.924 -0.081 -21.870 -0.095 -21.996 -0.050 -21.984 -0.049 -21.902 -0.070 -21.711 -0.057 -21.730 -0.047 -21.322 -0.104 11.631 0.522 4.715 0.346 44.462 43.264
-14.200 -19.509 -0.187 -19.788 -0.171 -20.510 -0.166 -21.704 -0.151 -22.248 -0.095 -22.164 -0.044 -22.141 -0.043 -21.936 -0.080 -21.882 -0.095 -22.007 -0.049 -21.995 -0.049 -21.912 -0.070 -21.725 -0.057 -21.746 -0.046 -21.344 -0.102 11.606 0.513 4.754 0.343 44.466 43.262
-13.800 -19.517 -0.183 -19.798 -0.167 -20.521 -0.162 -21.717 -0.148 -22.260 -0.094 -22.175 -0.044 -22.152 -0.044 -21.947 -0.080 -21.893 -0.094 -22.017 -0.048 -22.005 -0.048 -21.922 -0.069 -21.738 -0.056 -21.762 -0.045 -21.366 -0.100 11.580 0.504 4.792 0.341 44.469 43.260
-13.400 -19.526 -0.179 -19.806 -0.163 -20.531 -0.158 -21.729 -0.144 -22.271 -0.093 -22.185 -0.044 -22.162 -0.044 -21.957 -0.079 -21.904 -0.093 -22.026 -0.048 -22.015 -0.048 -21.931 -0.069 -21.750 -0.056 -21.777 -0.044 -21.387 -0.098 11.554 0.495 4.831 0.339 44.472 43.257
-13.000 -19.534 -0.175 -19.815 -0.159 -20.541 -0.154 -21.741 -0.140 -22.282 -0.092 -22.195 -0.044 -22.172 -0.043 -21.967 -0.079 -21.914 -0.092 -22.035 -0.047 -22.024 -0.047 -21.940 -0.069 -21.762 -0.055 -21.791 -0.043 -21.408 -0.096 11.528 0.486 4.869 0.337 44.475 43.254
-12.600 -19.541 -0.171 -19.823 -0.154 -20.550 -0.151 -21.753 -0.137 -22.292 -0.090 -22.204 -0.044 -22.181 -0.043 -21.976 -0.078 -21.923 -0.092 -22.043 -0.046 -22.033 -0.047 -21.949 -0.068 -21.773 -0.055 -21.804 -0.042 -21.429 -0.095 11.502 0.477 4.907 0.335 44.478 43.251
-12.200 -19.548 -0.167 -19.830 -0.150 -20.559 -0.147 -21.763 -0.133 -22.302 -0.089 -22.213 -0.044 -22.189 -0.043 -21.985 -0.077 -21.932 -0.091 -22.051 -0.046 -22.041 -0.046 -21.957 -0.068 -21.784 -0.055 -21.816 -0.041 -21.449 -0.094 11.476 0.468 4.945 0.333 44.480 43.247
-11.800 -19.554 -0.163 -19.837 -0.146 -20.567 -0.143 -21.774 -0.129 -22.311 -0.088 -22.221 -0.043 -22.198 -0.043 -21.993 -0.076 -21.941 -0.090 -22.059 -0.045 -22.049 -0.046 -21.964 -0.067 -21.793 -0.055 -21.828 -0.040 -21.468 -0.093 11.449 0.460 4.983 0.332 44.483 43.243
-11.400 -19.560 -0.159 -19.843 -0.142 -20.574 -0.139 -21.783 -0.126 -22.319 -0.086 -22.229 -0.043 -22.205 -0.043 -22.001 -0.075 -21.949 -0.089 -22.066 -0.045 -22.057 -0.045 -21.971 -0.066 -21.803 -0.055 -21.839 -0.039 -21.487 -0.092 11.423 0.452 5.021 0.331 44.486 43.240
-11.000 -19.565 -0.155 -19.849 -0.138 -20.582 -0.136 -21.792 -0.122 -22.327 -0.085 -22.236 -0.043 -22.213 -0.042 -22.008 -0.074 -21.957 -0.087 -22.073 -0.045 -22.064 -0.044 -21.978 -0.066 -21.811 -0.055 -21.848 -0.039 -21.505 -0.091 11.396 0.444 5.059 0.330 44.488 43.236
-10.600 -19.570 -0.151 -19.854 -0.134 -20.588 -0.132 -21.800 -0.119 -22.334 -0.084 -22.243 -0.043 -22.220 -0.042 -22.015 -0.072 -21.964 -0.086 -22.079 -0.044 -22.071 -0.044 -21.984 -0.065 -21.819 -0.055 -21.857 -0.039 -21.522 -0.091 11.369 0.437 5.096 0.329 44.490 43.232
-10.200 -19.574 -0.147 -19.859 -0.130 -20.594 -0.129 -21.808 -0.115 -22.341 -0.082 -22.250 -0.042 -22.226 -0.042 -22.021 -0.071 -21.971 -0.085 -22.086 -0.044 -22.077 -0.043 -21.990 -0.064 -21.827 -0.055 -21.866 -0.039 -21.539 -0.090 11.342 0.430 5.133 0.329 44.492 43.229
-9.800 -19.578 -0.143 -19.863 -0.126 -20.600 -0.125 -21.815 -0.112 -22.347 -0.081 -22.256 -0.042 -22.232 -0.042 -22.027 -0.070 -21.977 -0.084 -22.092 -0.044 -22.084 -0.042 -21.996 -0.063 -21.834 -0.054 -21.873 -0.039 -21.556 -0.090 11.315 0.423 5.169 0.329 44.494 43.225
-9.400 -19.582 -0.140 -19.867 -0.122 -20.605 -0.122 -21.821 -0.109 -22.353 -0.080 -22.262 -0.042 -22.238 -0.041 -22.033 -0.068 -21.983 -0.083 -22.098 -0.044 -22.089 -0.042 -22.001 -0.063 -21.840 -0.054 -21.880 -0.039 -21.571 -0.089 11.289 0.416 5.204 0.329 44.496 43.222
-9.000 -19.584 -0.136 -19.870 -0.119 -20.609 -0.119 -21.827 -0.106 -22.359 -0.078 -22.268 -0.041 -22.244 -0.041 -22.039 -0.067 -21.989 -0.081 -22.104 -0.044 -22.095 -0.041 -22.006 -0.062 -21.846 -0.054 -21.886 -0.039 -21.587 -0.089 11.264 0.410 5.237 0.328 44.498 43.219
-8.600 -19.587 -0.133 -19.873 -0.115 -20.613 -0.116 -21.832 -0.103 -22.363 -0.077 -22.273 -0.041 -22.249 -0.041 -22.044 -0.065 -21.995 -0.080 -22.109 -0.045 -22.101 -0.040 -22.011 -0.061 -21.852 -0.054 -21.892 -0.039 -21.601 -0.089 11.241 0.405 5.269 0.328 44.500 43.216
-8.200 -19.589 -0.130 -19.875 -0.112 -20.617 -0.113 -21.836 -0.100 -22.368 -0.076 -22.278 -0.040 -22.254 -0.040 -22.049 -0.064 -22.000 -0.079 -22.115 -0.045 -22.106 -0.039 -22.016 -0.060 -21.857 -0.054 -21.898 -0.038 -21.615 -0.089 11.219 0.400 5.299 0.329 44.501 43.214
-7.800 -19.590 -0.127 -19.877 -0.109 -20.620 -0.110 -21.840 -0.097 -22.371 -0.075 -22.282 -0.040 -22.259 -0.040 -22.053 -0.063 -22.005 -0.078 -22.120 -0.045 -22.111 -0.039 -22.020 -0.059 -21.862 -0.053 -21.903 -0.038 -21.629 -0.088 11.199 0.395 5.328 0.329 44.503 43.212
-7.400 -19.591 -0.124 -19.878 -0.106 -20.622 -0.108 -21.844 -0.095 -22.375 -0.074 -22.287 -0.039 -22.263 -0.039 -22.058 -0.061 -22.010 -0.077 -22.125 -0.045 -22.116 -0.038 -22.024 -0.058 -21.867 -0.053 -21.907 -0.038 -21.642 -0.088 11.181 0.392 5.354 0.329 44.504 43.210
-7.000 -19.591 -0.121 -19.879 -0.103 -20.624 -0.106 -21.846 -0.093 -22.378 -0.073 -22.291 -0.038 -22.267 -0.038 -22.062 -0.060 -22.015 -0.076 -22.130 -0.045 -22.121 -0.037 -22.027 -0.057 -21.871 -0.052 -21.912 -0.037 -21.654 -0.088 11.165 0.389 5.379 0.330 44.506 43.209
-6.600 -19.590 -0.119 -19.879 -0.101 -20.626 -0.104 -21.848 -0.091 -22.380 -0.072 -22.295 -0.038 -22.271 -0.037 -22.066 -0.059 -22.020 -0.075 -22.134 -0.045 -22.125 -0.036 -22.031 -0.057 -21.875 -0.052 -21.916 -0.036 -21.666 -0.087 11.151 0.387 5.403 0.330 44.507 43.209
-6.200 -19.590 -0.117 -19.879 -0.099 -20.627 -0.102 -21.850 -0.090 -22.382 -0.071 -22.298 -0.037 -22.275 -0.037 -22.070 -0.057 -22.024 -0.075 -22.139 -0.045 -22.129 -0.035 -22.034 -0.056 -21.879 -0.051 -21.920 -0.036 -21.677 -0.087 11.139 0.385 5.424 0.331 44.509 43.209
-5.800 -19.588 -0.115 -19.878 -0.097 -20.628 -0.101 -21.851 -0.088 -22.384 -0.071 -22.301 -0.036 -22.278 -0.036 -22.074 -0.056 -22.029 -0.074 -22.143 -0.044 -22.134 -0.034 -22.037 -0.055 -21.882 -0.050 -21.924 -0.035 -21.688 -0.086 11.128 0.385 5.444 0.332 44.510 43.209
-5.400 -19.586 -0.113 -19.877 -0.096 -20.628 -0.099 -21.851 -0.088 -22.385 -0.070 -22.305 -0.035 -22.282 -0.035 -22.078 -0.056 -22.033 -0.074 -22.147 -0.044 -22.138 -0.033 -22.040 -0.055 -21.886 -0.050 -21.928 -0.034 -21.698 -0.086 11.119 0.385 5.463 0.334 44.512 43.211
-5.000 -19.584 -0.112 -19.875 -0.094 -20.628 -0.098 -21.851 -0.087 -22.385 -0.070 -22.308 -0.034 -22.285 -0.034 -22.082 -0.055 -22.037 -0.073 -22.151 -0.044 -22.141 -0.032 -22.043 -0.054 -21.889 -0.049 -21.932 -0.033 -21.708 -0.085 11.112 0.386 5.481 0.336 44.514 43.213
-4.600 -19.581 -0.111 -19.873 -0.093 -20.627 -0.098 -21.850 -0.087 -22.385 -0.070 -22.310 -0.032 -22.288 -0.032 -22.086 -0.055 -22.041 -0.073 -22.154 -0.043 -22.145 -0.032 -22.046 -0.054 -21.892 -0.048 -21.936 -0.032 -21.717 -0.084 11.106 0.387 5.498 0.338 44.515 43.215
-4.200 -19.577 -0.110 -19.870 -0.092 -20.625 -0.097 -21.848 -0.086 -22.385 -0.070 -22.313 -0.031 -22.290 -0.031 -22.090 -0.055 -22.045 -0.073 -22.158 -0.043 -22.148 -0.031 -22.049 -0.053 -21.895 -0.047 -21.940 -0.032 -21.726 -0.084 11.100 0.389 5.515 0.341 44.517 43.218
-3.800 -19.573 -0.109 -19.867 -0.092 -20.624 -0.097 -21.846 -0.086 -22.384 -0.070 -22.315 -0.030 -22.293 -0.030 -22.094 -0.055 -22.049 -0.074 -22.161 -0.043 -22.152 -0.031 -22.051 -0.053 -21.898 -0.046 -21.944 -0.031 -21.734 -0.083 11.095 0.391 5.531 0.344 44.519 43.221
-3.400 -19.569 -0.109 -19.863 -0.091 -20.621 -0.096 -21.844 -0.087 -22.383 -0.071 -22.317 -0.029 -22.295 -0.029 -22.098 -0.056 -22.053 -0.074 -22.164 -0.042 -22.154 -0.030 -22.053 -0.053 -21.901 -0.045 -21.948 -0.030 -21.742 -0.082 11.090 0.394 5.548 0.347 44.521 43.224
-3.000 -19.564 -0.108 -19.859 -0.091 -20.618 -0.096 -21.840 -0.087 -22.382 -0.071 -22.318 -0.028 -22.297 -0.028 -22.102 -0.056 -22.057 -0.074 -22.166 -0.042 -22.157 -0.030 -22.056 -0.053 -21.904 -0.045 -21.952 -0.030 -21.749 -0.081 11.085 0.396 5.564 0.351 44.522 43.228
-2.600 -19.558 -0.108 -19.854 -0.091 -20.615 -0.096 -21.837 -0.088 -22.380 -0.071 -22.319 -0.028 -22.298 -0.028 -22.106 -0.057 -22.061 -0.075 -22.169 -0.042 -22.160 -0.030 -22.058 -0.053 -21.906 -0.044 -21.956 -0.030 -21.756 -0.080 11.078 0.399 5.580 0.354 44.524 43.231
-2.200 -19.552 -0.108 -19.849 -0.091 -20.611 -0.097 -21.832 -0.088 -22.377 -0.072 -22.320 -0.027 -22.300 -0.027 -22.110 -0.058 -22.065 -0.076 -22.171 -0.042 -22.162 -0.030 -22.060 -0.053 -21.909 -0.044 -21.960 -0.029 -21.762 -0.080 11.071 0.400 5.596 0.357 44.525 43.233
-1.800 -19.545 -0.109 -19.843 -0.092 -20.607 -0.097 -21.827 -0.089 -22.374 -0.072 -22.321 -0.027 -22.301 -0.027 -22.114 -0.060 -22.069 -0.077 -22.173 -0.042 -22.164 -0.031 -22.062 -0.053 -21.911 -0.043 -21.963 -0.029 -21.767 -0.079 11.061 0.401 5.612 0.359 44.526 43.235
-1.400 -19.538 -0.109 -19.836 -0.092 -20.602 -0.097 -21.821 -0.090 -22.371 -0.073 -22.321 -0.026 -22.301 -0.026 -22.118 -0.061 -22.072 -0.077 -22.174 -0.043 -22.165 -0.031 -22.063 -0.053 -21.913 -0.043 -21.966 -0.029 -21.773 -0.078 11.048 0.401 5.629 0.361 44.527 43.235
-1.000 -19.531 -0.109 -19.830 -0.093 -20.596 -0.098 -21.815 -0.091 -22.368 -0.074 -22.321 -0.026 -22.302 -0.026 -22.121 -0.062 -22.076 -0.078 -22.176 -0.043 -22.167 -0.031 -22.065 -0.053 -21.915 -0.044 -21.969 -0.029 -21.778 -0.077 11.033 0.401 5.646 0.363 44.527 43.236
-0.600 -19.523 -0.110 -19.822 -0.093 -20.590 -0.098 -21.809 -0.092 -22.364 -0.074 -22.321 -0.026 -22.302 -0.026 -22.125 -0.063 -22.079 -0.079 -22.177 -0.044 -22.168 -0.032 -22.066 -0.054 -21.916 -0.044 -21.972 -0.029 -21.782 -0.077 11.015 0.400 5.663 0.364 44.527 43.235
-0.200 -19.514 -0.111 -19.814 -0.094 -20.583 -0.099 -21.801 -0.094 -22.359 -0.075 -22.320 -0.026 -22.302 -0.027 -22.128 -0.064 -22.082 -0.080 -22.178 -0.045 -22.169 -0.032 -22.067 -0.054 -21.917 -0.044 -21.974 -0.029 -21.786 -0.076 10.997 0.398 5.680 0.365 44.527 43.234
0.200 -19.505 -0.111 -19.806 -0.095 -20.576 -0.100 -21.793 -0.095 -22.354 -0.076 -22.319 -0.026 -22.301 -0.027 -22.131 -0.066 -22.085 -0.081 -22.178 -0.045 -22.169 -0.033 -22.068 -0.054 -21.919 -0.045 -21.975 -0.030 -21.789 -0.075 10.977 0.396 5.696 0.366 44.526 43.233
0.600 -19.495 -0.112 -19.797 -0.096 -20.569 -0.101 -21.785 -0.096 -22.349 -0.076 -22.318 -0.027 -22.300 -0.027 -22.133 -0.067 -22.088 -0.082 -22.179 -0.046 -22.170 -0.033 -22.069 -0.054 -21.919 -0.045 -21.976 -0.030 -21.792 -0.075 10.957 0.395 5.712 0.367 44.525 43.232
1.000 -19.485 -0.113 -19.787 -0.097 -20.560 -0.101 -21.776 -0.097 -22.343 -0.077 -22.316 -0.027 -22.299 -0.027 -22.136 -0.068 -22.090 -0.083 -22.179 -0.047 -22.170 -0.034 -22.070 -0.055 -21.920 -0.046 -21.976 -0.030 -21.795 -0.074 10.937 0.393 5.727 0.368 44.524 43.231
1.400 -19.474 -0.114 -19.777 -0.098 -20.551 -0.102 -21.767 -0.098 -22.337 -0.078 -22.314 -0.027 -22.298 -0.027 -22.138 -0.069 -22.093 -0.084 -22.179 -0.048 -22.170 -0.035 -22.070 -0.055 -21.920 -0.046 -21.976 -0.031 -21.797 -0.073 10.917 0.392 5.742 0.369 44.523 43.229
1.800 -19.463 -0.115 -19.766 -0.099 -20.542 -0.103 -21.757 -0.099 -22.331 -0.079 -22.312 -0.027 -22.296 -0.028 -22.140 -0.070 -22.095 -0.085 -22.178 -0.049 -22.169 -0.035 -22.070 -0.055 -21.919 -0.047 -21.975 -0.031 -21.799 -0.073 10.897 0.391 5.756 0.371 44.522 43.228
2.200 -19.451 -0.116 -19.755 -0.100 -20.532 -0.104 -21.746 -0.100 -22.324 -0.079 -22.309 -0.027 -22.294 -0.028 -22.141 -0.071 -22.096 -0.086 -22.177 -0.049 -22.168 -0.036 -22.070 -0.056 -21.919 -0.047 -21.973 -0.032 -21.801 -0.072 10.878 0.391 5.770 0.373 44.521 43.228
2.600 -19.439 -0.118 -19.743 -0.101 -20.521 -0.105 -21.736 -0.102 -22.317 -0.080 -22.306 -0.028 -22.291 -0.028 -22.142 -0.072 -22.098 -0.087 -22.176 -0.050 -22.167 -0.036 -22.070 -0.056 -21.918 -0.048 -21.970 -0.032 -21.802 -0.072 10.859 0.391 5.783 0.376 44.520 43.227
3.000 -19.426 -0.119 -19.731 -0.102 -20.510 -0.105 -21.724 -0.103 -22.309 -0.080 -22.302 -0.028 -22.288 -0.028 -22.143 -0.073 -22.099 -0.088 -22.175 -0.050 -22.166 -0.037 -22.069 -0.056 -21.917 -0.048 -21.968 -0.033 -21.803 -0.071 10.841 0.391 5.795 0.378 44.519 43.226
3.400 -19.413 -0.120 -19.718 -0.103 -20.498 -0.106 -21.712 -0.104 -22.301 -0.081 -22.298 -0.028 -22.285 -0.028 -22.143 -0.073 -22.100 -0.088 -22.173 -0.051 -22.165 -0.037 -22.068 -0.057 -21.915 -0.049 -21.965 -0.033 -21.803 -0.070 10.823 0.392 5.806 0.381 44.518 43.225
3.800 -19.399 -0.122 -19.705 -0.105 -20.486 -0.107 -21.700 -0.104 -22.293 -0.082 -22.294 -0.028 -22.281 -0.028 -22.143 -0.074 -22.100 -0.089 -22.171 -0.051 -22.163 -0.037 -22.067 -0.057 -21.914 -0.049 -21.962 -0.034 -21.803 -0.070 10.804 0.392 5.816 0.383 44.516 43.224
4.200 -19.385 -0.123 -19.691 -0.106 -20.473 -0.108 -21.687 -0.105 -22.284 -0.082 -22.289 -0.028 -22.277 -0.028 -22.143 -0.075 -22.100 -0.089 -22.169 -0.051 -22.161 -0.038 -22.066 -0.057 -21.912 -0.049 -21.959 -0.034 -21.803 -0.070 10.785 0.392 5.825 0.385 44.515 43.222
4.600 -19.370 -0.125 -19.677 -0.107 -20.459 -0.109 -21.674 -0.106 -22.275 -0.083 -22.284 -0.028 -22.272 -0.028 -22.142 -0.075 -22.099 -0.090 -22.166 -0.052 -22.158 -0.038 -22.065 -0.058 -21.909 -0.049 -21.956 -0.035 -21.803 -0.070 10.765 0.391 5.833 0.386 44.513 43.220
5.000 -19.354 -0.127 -19.662 -0.109 -20.445 -0.110 -21.660 -0.107 -22.265 -0.083 -22.279 -0.029 -22.268 -0.028 -22.140 -0.076 -22.099 -0.090 -22.163 -0.052 -22.156 -0.038 -22.063 -0.058 -21.907 -0.049 -21.953 -0.035 -21.802 -0.070 10.743 0.390 5.840 0.386 44.510 43.216
5.400 -19.338 -0.128 -19.647 -0.110 -20.431 -0.111 -21.646 -0.108 -22.255 -0.084 -22.273 -0.029 -22.262 -0.029 -22.139 -0.076 -22.097 -0.091 -22.160 -0.052 -22.153 -0.038 -22.061 -0.058 -21.904 -0.049 -21.950 -0.036 -21.801 -0.070 10.719 0.388 5.846 0.385 44.507 43.212
5.800 -19.322 -0.130 -19.631 -0.112 -20.415 -0.112 -21.631 -0.109 -22.245 -0.084 -22.267 -0.030 -22.257 -0.029 -22.136 -0.076 -22.096 -0.091 -22.157 -0.052 -22.149 -0.039 -22.059 -0.058 -21.902 -0.049 -21.947 -0.036 -21.800 -0.071 10.694 0.385 5.851 0.383 44.504 43.207
6.200 -19.305 -0.132 -19.615 -0.114 -20.400 -0.113 -21.616 -0.109 -22.234 -0.084 -22.260 -0.031 -22.251 -0.030 -22.134 -0.076 -22.094 -0.091 -22.153 -0.052 -22.146 -0.039 -22.057 -0.058 -21.899 -0.049 -21.944 -0.036 -21.798 -0.071 10.667 0.381 5.855 0.381 44.500 43.201
6.600 -19.288 -0.134 -19.598 -0.115 -20.383 -0.115 -21.601 -0.110 -22.223 -0.085 -22.253 -0.032 -22.244 -0.031 -22.130 -0.076 -22.091 -0.091 -22.149 -0.052 -22.142 -0.039 -22.054 -0.059 -21.895 -0.049 -21.941 -0.036 -21.797 -0.073 10.638 0.377 5.859 0.377 44.496 43.194
7.000 -19.270 -0.136 -19.580 -0.117 -20.367 -0.116 -21.585 -0.111 -22.212 -0.085 -22.246 -0.033 -22.237 -0.032 -22.126 -0.076 -22.088 -0.091 -22.145 -0.052 -22.138 -0.039 -22.052 -0.059 -21.892 -0.049 -21.937 -0.037 -21.795 -0.074 10.609 0.372 5.862 0.374 44.492 43.186
7.400 -19.251 -0.138 -19.563 -0.119 -20.350 -0.117 -21.569 -0.111 -22.200 -0.085 -22.238 -0.034 -22.230 -0.033 -22.122 -0.076 -22.085 -0.091 -22.141 -0.052 -22.134 -0.039 -22.049 -0.059 -21.888 -0.049 -21.934 -0.037 -21.793 -0.075 10.580 0.368 5.865 0.370 44.487 43.178
7.800 -19.232 -0.141 -19.545 -0.121 -20.332 -0.118 -21.553 -0.112 -22.188 -0.085 -22.230 -0.035 -22.222 -0.035 -22.117 -0.076 -22.081 -0.090 -22.136 -0.052 -22.129 -0.039 -22.046 -0.059 -21.885 -0.049 -21.930 -0.037 -21.790 -0.077 10.551 0.363 5.868 0.366 44.483 43.170
8.200 -19.213 -0.143 -19.526 -0.123 -20.314 -0.119 -21.536 -0.112 -22.175 -0.086 -22.221 -0.036 -22.213 -0.036 -22.112 -0.076 -22.077 -0.090 -22.132 -0.052 -22.125 -0.039 -22.043 -0.059 -21.880 -0.049 -21.926 -0.037 -21.787 -0.079 10.522 0.359 5.870 0.363 44.478 43.162
8.600 -19.193 -0.145 -19.507 -0.125 -20.295 -0.120 -21.519 -0.113 -22.163 -0.086 -22.212 -0.037 -22.205 -0.037 -22.106 -0.075 -22.072 -0.090 -22.127 -0.052 -22.120 -0.039 -22.039 -0.059 -21.876 -0.049 -21.921 -0.036 -21.785 -0.081 10.493 0.355 5.873 0.359 44.474 43.154
9.000 -19.173 -0.148 -19.487 -0.127 -20.276 -0.121 -21.501 -0.113 -22.149 -0.086 -22.202 -0.038 -22.195 -0.038 -22.100 -0.075 -22.066 -0.089 -22.121 -0.052 -22.115 -0.039 -22.036 -0.059 -21.872 -0.049 -21.916 -0.036 -21.782 -0.084 10.464 0.351 5.875 0.356 44.470 43.145
9.400 -19.152 -0.150 -19.467 -0.129 -20.257 -0.122 -21.483 -0.114 -22.136 -0.086 -22.192 -0.039 -22.186 -0.039 -22.093 -0.074 -22.061 -0.089 -22.116 -0.052 -22.110 -0.039 -22.032 -0.059 -21.867 -0.049 -21.911 -0.036 -21.779 -0.086 10.436 0.347 5.876 0.353 44.465 43.137
9.800 -19.131 -0.153 -19.446 -0.132 -20.237 -0.124 -21.465 -0.114 -22.122 -0.086 -22.182 -0.040 -22.176 -0.040 -22.085 -0.074 -22.054 -0.088 -22.110 -0.052 -22.104 -0.039 -22.028 -0.059 -21.862 -0.050 -21.905 -0.036 -21.775 -0.089 10.409 0.344 5.877 0.350 44.461 43.128
10.200 -19.109 -0.155 -19.425 -0.134 -20.217 -0.125 -21.446 -0.115 -22.108 -0.086 -22.171 -0.041 -22.165 -0.041 -22.077 -0.073 -22.048 -0.087 -22.104 -0.053 -22.099 -0.039 -22.024 -0.059 -21.857 -0.050 -21.899 -0.035 -21.772 -0.093 10.381 0.341 5.877 0.347 44.456 43.120
10.600 -19.087 -0.158 -19.404 -0.136 -20.196 -0.126 -21.427 -0.116 -22.093 -0.086 -22.159 -0.042 -22.154 -0.042 -22.069 -0.072 -22.040 -0.087 -22.098 -0.053 -22.093 -0.039 -22.020 -0.059 -21.851 -0.051 -21.892 -0.034 -21.768 -0.096 10.355 0.338 5.876 0.344 44.452 43.111
11.000 -19.064 -0.161 -19.382 -0.139 -20.175 -0.127 -21.408 -0.116 -22.078 -0.086 -22.148 -0.043 -22.143 -0.043 -22.059 -0.071 -22.033 -0.086 -22.092 -0.054 -22.087 -0.039 -22.015 -0.059 -21.846 -0.051 -21.885 -0.034 -21.765 -0.100 10.328 0.335 5.875 0.342 44.447 43.103
11.400 -19.041 -0.163 -19.360 -0.141 -20.154 -0.129 -21.389 -0.117 -22.063 -0.086 -22.135 -0.044 -22.131 -0.044 -22.050 -0.070 -22.024 -0.085 -22.086 -0.054 -22.081 -0.039 -22.010 -0.059 -21.840 -0.052 -21.878 -0.033 -21.761 -0.104 10.302 0.332 5.873 0.339 44.442 43.094
11.800 -19.018 -0.166 -19.337 -0.144 -20.132 -0.130 -21.369 -0.118 -22.047 -0.087 -22.123 -0.045 -22.119 -0.044 -22.040 -0.069 -22.016 -0.084 -22.079 -0.055 -22.075 -0.039 -22.006 -0.059 -21.834 -0.053 -21.870 -0.033 -21.757 -0.108 10.277 0.330 5.870 0.337 44.438 43.086
12.200 -18.994 -0.169 -19.314 -0.146 -20.110 -0.131 -21.349 -0.119 -22.031 -0.087 -22.110 -0.046 -22.106 -0.045 -22.029 -0.068 -22.006 -0.083 -22.072 -0.056 -22.068 -0.039 -22.001 -0.059 -21.827 -0.054 -21.862 -0.032 -21.753 -0.112 10.252 0.328 5.867 0.335 44.433 43.078
12.600 -18.969 -0.172 -19.290 -0.149 -20.088 -0.133 -21.329 -0.120 -22.015 -0.087 -22.096 -0.046 -22.093 -0.046 -22.018 -0.067 -21.997 -0.082 -22.065 -0.057 -22.061 -0.039 -21.996 -0.059 -21.821 -0.055 -21.854 -0.032 -21.749 -0.117 10.227 0.326 5.864 0.334 44.428 43.070
13.000 -18.944 -0.175 -19.266 -0.152 -20.065 -0.134 -21.309 -0.122 -21.999 -0.087 -22.083 -0.047 -22.079 -0.046 -22.006 -0.065 -21.986 -0.081 -22.058 -0.058 -22.055 -0.040 -21.990 -0.059 -21.814 -0.056 -21.845 -0.032 -21.745 -0.121 10.201 0.324 5.862 0.332 44.423 43.062
13.400 -18.919 -0.178 -19.241 -0.154 -20.043 -0.136 -21.288 -0.123 -21.982 -0.087 -22.068 -0.047 -22.065 -0.047 -21.994 -0.064 -21.976 -0.080 -22.050 -0.059 -22.048 -0.040 -21.985 -0.059 -21.808 -0.057 -21.836 -0.032 -21.740 -0.126 10.175 0.322 5.859 0.332 44.419 43.054
13.800 -18.893 -0.182 -19.216 -0.157 -20.020 -0.137 -21.267 -0.125 -21.965 -0.088 -22.054 -0.048 -22.051 -0.047 -21.981 -0.063 -21.964 -0.079 -22.042 -0.059 -22.040 -0.040 -21.979 -0.060 -21.801 -0.058 -21.826 -0.032 -21.736 -0.131 10.149 0.321 5.857 0.331 44.414 43.046
14.200 -18.867 -0.185 -19.191 -0.160 -19.996 -0.139 -21.246 -0.126 -21.948 -0.088 -22.039 -0.048 -22.036 -0.048 -21.968 -0.061 -21.953 -0.078 -22.034 -0.060 -22.033 -0.040 -21.973 -0.060 -21.794 -0.059 -21.817 -0.032 -21.731 -0.135 10.123 0.319 5.856 0.331 44.409 43.038
14.600 -18.840 -0.188 -19.165 -0.163 -19.973 -0.141 -21.224 -0.128 -21.930 -0.089 -22.023 -0.049 -22.020 -0.048 -21.954 -0.060 -21.941 -0.077 -22.026 -0.061 -22.025 -0.040 -21.967 -0.060 -21.787 -0.060 -21.807 -0.032 -21.727 -0.140 10.096 0.318 5.856 0.331 44.405 43.030
15.000 -18.813 -0.192 -19.139 -0.166 -19.949 -0.143 -21.203 -0.130 -21.913 -0.089 -22.007 -0.049 -22.005 -0.048 -21.940 -0.058 -21.928 -0.076 -22.017 -0.062 -22.017 -0.041 -21.961 -0.060 -21.779 -0.061 -21.798 -0.033 -21.722 -0.145 10.067 0.316 5.857 0.331 44.400 43.021
15.400 -18.785 -0.196 -19.113 -0.169 -19.924 -0.145 -21.181 -0.132 -21.895 -0.089 -21.991 -0.049 -21.989 -0.048 -21.925 -0.057 -21.915 -0.075 -22.008 -0.063 -22.009 -0.041 -21.954 -0.061 -21.772 -0.062 -21.788 -0.033 -21.717 -0.150 10.038 0.314 5.860 0.331 44.395 43.011
15.800 -18.757 -0.199 -19.086 -0.173 -19.900 -0.147 -21.159 -0.135 -21.876 -0.090 -21.975 -0.049 -21.972 -0.048 -21.910 -0.055 -21.902 -0.075 -21.999 -0.064 -22.001 -0.041 -21.948 -0.061 -21.765 -0.063 -21.779 -0.034 -21.712 -0.155 10.007 0.312 5.865 0.331 44.391 43.001
16.200 -18.729 -0.203 -19.058 -0.176 -19.875 -0.149 -21.137 -0.137 -21.857 -0.090 -21.958 -0.050 -21.956 -0.048 -21.895 -0.054 -21.889 -0.074 -21.989 -0.065 -21.993 -0.042 -21.941 -0.062 -21.758 -0.064 -21.770 -0.034 -21.707 -0.160 9.975 0.309 5.871 0.331 44.386 42.991
16.600 -18.700 -0.207 -19.030 -0.179 -19.850 -0.151 -21.114 -0.139 -21.838 -0.091 -21.940 -0.050 -21.939 -0.049 -21.879 -0.053 -21.875 -0.073 -21.980 -0.066 -21.984 -0.042 -21.934 -0.062 -21.751 -0.065 -21.761 -0.035 -21.702 -0.165 9.942 0.307 5.877 0.331 44.381 42.979
17.000 -18.671 -0.210 -19.002 -0.183 -19.824 -0.153 -21.091 -0.142 -21.819 -0.092 -21.923 -0.050 -21.921 -0.049 -21.863 -0.052 -21.861 -0.073 -21.970 -0.066 -21.975 -0.043 -21.926 -0.063 -21.744 -0.066 -21.752 -0.036 -21.697 -0.170 9.909 0.303 5.884 0.330 44.376 42.968
17.400 -18.641 -0.214 -18.974 -0.186 -19.799 -0.155 -21.068 -0.144 -21.799 -0.092 -21.905 -0.050 -21.903 -0.049 -21.847 -0.051 -21.846 -0.073 -21.960 -0.067 -21.966 -0.043 -21.919 -0.063 -21.737 -0.067 -21.743 -0.036 -21.692 -0.175 9.874 0.300 5.891 0.329 44.371 42.955
17.800 -18.611 -0.218 -18.945 -0.190 -19.773 -0.158 -21.045 -0.147 -21.779 -0.093 -21.886 -0.050 -21.885 -0.049 -21.831 -0.050 -21.831 -0.073 -21.949 -0.068 -21.956 -0.044 -21.911 -0.064 -21.730 -0.068 -21.735 -0.037 -21.686 -0.180 9.840 0.296 5.897 0.327 44.366 42.942
18.200 -18.580 -0.222 -18.915 -0.193 -19.746 -0.160 -21.021 -0.150 -21.759 -0.093 -21.867 -0.050 -21.866 -0.049 -21.814 -0.050 -21.816 -0.073 -21.939 -0.069 -21.947 -0.044 -21.904 -0.064 -21.724 -0.069 -21.727 -0.037 -21.681 -0.185 9.805 0.292 5.903 0.325 44.361 42.929
18.600 -18.550 -0.226 -18.886 -0.197 -19.720 -0.163 -20.998 -0.153 -21.738 -0.094 -21.848 -0.051 -21.848 -0.049 -21.797 -0.050 -21.801 -0.073 -21.928 -0.069 -21.937 -0.045 -21.896 -0.065 -21.717 -0.070 -21.719 -0.038 -21.676 -0.190 9.769 0.288 5.910 0.323 44.355 42.915
19.000 -18.518 -0.230 -18.855 -0.201 -19.692 -0.165 -20.974 -0.155 -21.717 -0.095 -21.829 -0.051 -21.828 -0.050 -21.780 -0.050 -21.786 -0.074 -21.916 -0.070 -21.927 -0.045 -21.887 -0.066 -21.711 -0.070 -21.712 -0.038 -21.670 -0.195 9.732 0.283 5.916 0.320 44.350 42.901
19.400 -18.486 -0.234 -18.825 -0.205 -19.665 -0.168 -20.949 -0.158 -21.696 -0.096 -21.809 -0.051 -21.809 -0.050 -21.762 -0.051 -21.770 -0.074 -21.905 -0.071 -21.917 -0.045 -21.879 -0.066 -21.705 -0.071 -21.705 -0.038 -21.664 -0.200 9.695 0.278 5.923 0.316 44.344 42.886
19.800 -18.454 -0.238 -18.794 -0.208 -19.637 -0.170 -20.925 -0.161 -21.675 -0.096 -21.789 -0.052 -21.789 -0.050 -21.745 -0.052 -21.755 -0.075 -21.893 -0.072 -21.907 -0.046 -21.870 -0.067 -21.699 -0.072 -21.698 -0.039 -21.659 -0.205 9.656 0.272 5.930 0.312 44.338 42.871
20.200 -18.422 -0.242 -18.763 -0.212 -19.609 -0.173 -20.900 -0.164 -21.653 -0.097 -21.769 -0.052 -21.769 -0.051 -21.728 -0.053 -21.739 -0.076 -21.881 -0.072 -21.896 -0.046 -21.861 -0.068 -21.693 -0.072 -21.692 -0.039 -21.653 -0.210 9.617 0.266 5.937 0.307 44.332 42.855
20.600 -18.389 -0.246 -18.731 -0.216 -19.581 -0.176 -20.875 -0.167 -21.631 -0.098 -21.748 -0.053 -21.748 -0.052 -21.710 -0.054 -21.723 -0.077 -21.869 -0.073 -21.885 -0.047 -21.852 -0.068 -21.688 -0.073 -21.686 -0.039 -21.647 -0.214 9.577 0.260 5.945 0.302 44.326 42.839
21.000 -18.356 -0.250 -18.699 -0.220 -19.552 -0.179 -20.850 -0.170 -21.608 -0.099 -21.727 -0.054 -21.728 -0.052 -21.692 -0.056 -21.706 -0.078 -21.856 -0.074 -21.874 -0.047 -21.843 -0.069 -21.682 -0.073 -21.680 -0.039 -21.641 -0.219 9.536 0.253 5.954 0.297 44.320 42.823
21.400 -18.322 -0.255 -18.666 -0.224 -19.523 -0.182 -20.825 -0.173 -21.585 -0.100 -21.706 -0.054 -21.707 -0.053 -21.675 -0.058 -21.690 -0.080 -21.843 -0.074 -21.863 -0.048 -21.833 -0.070 -21.677 -0.074 -21.675 -0.039 -21.635 -0.224 9.495 0.247 5.963 0.291 44.314 42.805
21.800 -18.288 -0.259 -18.634 -0.228 -19.494 -0.185 -20.799 -0.176 -21.562 -0.101 -21.684 -0.055 -21.685 -0.054 -21.657 -0.060 -21.673 -0.081 -21.830 -0.075 -21.851 -0.048 -21.824 -0.070 -21.672 -0.074 -21.670 -0.039 -21.629 -0.229 9.452 0.239 5.974 0.285 44.307 42.787
22.200 -18.253 -0.263 -18.600 -0.232 -19.464 -0.188 -20.773 -0.179 -21.539 -0.102 -21.662 -0.056 -21.664 -0.055 -21.639 -0.062 -21.657 -0.083 -21.817 -0.075 -21.839 -0.049 -21.814 -0.071 -21.667 -0.074 -21.665 -0.038 -21.623 -0.233 9.408 0.232 5.986 0.278 44.301 42.768
22.600 -18.219 -0.267 -18.567 -0.236 -19.434 -0.191 -20.747 -0.183 -21.515 -0.103 -21.640 -0.057 -21.642 -0.056 -21.621 -0.065 -21.640 -0.085 -21.803 -0.076 -21.827 -0.049 -21.803 -0.072 -21.662 -0.075 -21.660 -0.038 -21.617 -0.238 9.363 0.224 6.000 0.271 44.295 42.748
23.000 -18.183 -0.272 -18.533 -0.240 -19.403 -0.195 -20.721 -0.186 -21.491 -0.104 -21.618 -0.058 -21.620 -0.057 -21.602 -0.067 -21.623 -0.087 -21.789 -0.077 -21.814 -0.050 -21.793 -0.072 -21.657 -0.075 -21.656 -0.038 -21.611 -0.242 9.317 0.216 6.015 0.263 44.288 42.727
23.400 -18.148 -0.276 -18.498 -0.244 -19.373 -0.198 -20.694 -0.189 -21.467 -0.105 -21.595 -0.059 -21.598 -0.058 -21.584 -0.070 -21.605 -0.089 -21.775 -0.077 -21.801 -0.050 -21.782 -0.073 -21.652 -0.075 -21.652 -0.038 -21.604 -0.247 9.270 0.208 6.033 0.256 44.282 42.705
23.800 -18.112 -0.280 -18.464 -0.249 -19.341 -0.202 -20.668 -0.192 -21.442 -0.107 -21.572 -0.060 -21.575 -0.059 -21.565 -0.072 -21.588 -0.091 -21.760 -0.078 -21.788 -0.051 -21.771 -0.073 -21.647 -0.076 -21.647 -0.038 -21.598 -0.251 9.221 0.200 6.052 0.248 44.276 42.682
24.200 -18.075 -0.284 -18.429 -0.253 -19.310 -0.206 -20.641 -0.195 -21.418 -0.108 -21.549 -0.062 -21.552 -0.061 -21.546 -0.075 -21.570 -0.093 -21.746 -0.079 -21.775 -0.052 -21.759 -0.074 -21.642 -0.076 -21.643 -0.038 -21.591 -0.256 9.171 0.191 6.073 0.240 44.269 42.658
24.600 -18.039 -0.289 -18.393 -0.257 -19.278 -0.209 -20.613 -0.198 -21.393 -0.109 -21.526 -0.063 -21.529 -0.062 -21.527 -0.077 -21.553 -0.095 -21.731 -0.080 -21.761 -0.052 -21.747 -0.075 -21.638 -0.076 -21.639 -0.038 -21.585 -0.260 9.119 0.183 6.096 0.232 44.263 42.632
25.000 -18.002 -0.293 -18.357 -0.261 -19.245 -0.213 -20.586 -0.202 -21.367 -0.111 -21.502 -0.065 -21.506 -0.064 -21.507 -0.080 -21.535 -0.097 -21.715 -0.080 -21.747 -0.053 -21.736 -0.075 -21.633 -0.077 -21.635 -0.038 -21.578 -0.265 9.067 0.174 6.122 0.224 44.256 42.606
25.400 -17.964 -0.297 -18.321 -0.266 -19.213 -0.217 -20.558 -0.205 -21.342 -0.113 -21.478 -0.066 -21.482 -0.066 -21.488 -0.082 -21.516 -0.099 -21.700 -0.081 -21.733 -0.054 -21.723 -0.075 -21.627 -0.077 -21.631 -0.039 -21.572 -0.269 9.013 0.166 6.151 0.216 44.250 42.579
25.800 -17.926 -0.301 -18.285 -0.270 -19.180 -0.221 -20.530 -0.208 -21.316 -0.114 -21.454 -0.068 -21.458 -0.067 -21.468 -0.085 -21.498 -0.101 -21.684 -0.082 -21.718 -0.054 -21.711 -0.076 -21.622 -0.078 -21.626 -0.039 -21.565 -0.273 8.958 0.157 6.181 0.208 44.244 42.550
26.200 -17.888 -0.306 -18.248 -0.274 -19.146 -0.225 -20.502 -0.211 -21.290 -0.116 -21.429 -0.070 -21.434 -0.069 -21.448 -0.087 -21.479 -0.103 -21.668 -0.082 -21.703 -0.055 -21.698 -0.076 -21.617 -0.078 -21.622 -0.040 -21.558 -0.277 8.903 0.149 6.213 0.200 44.237 42.522
26.600 -17.850 -0.310 -18.211 -0.278 -19.113 -0.229 -20.474 -0.214 -21.264 -0.118 -21.405 -0.071 -21.410 -0.071 -21.428 -0.090 -21.461 -0.105 -21.652 -0.083 -21.688 -0.055 -21.685 -0.077 -21.611 -0.079 -21.617 -0.041 -21.551 -0.281 8.847 0.142 6.246 0.193 44.231 42.493
27.000 -17.811 -0.314 -18.173 -0.283 -19.078 -0.234 -20.445 -0.217 -21.238 -0.120 -21.380 -0.073 -21.386 -0.073 -21.408 -0.092 -21.442 -0.107 -21.635 -0.084 -21.673 -0.056 -21.672 -0.077 -21.605 -0.080 -21.612 -0.042 -21.544 -0.285 8.791 0.134 6.280 0.186 44.225 42.464
27.400 -17.772 -0.319 -18.135 -0.287 -19.044 -0.238 -20.417 -0.220 -21.211 -0.122 -21.355 -0.075 -21.361 -0.075 -21.387 -0.094 -21.423 -0.109 -21.619 -0.084 -21.657 -0.057 -21.658 -0.077 -21.599 -0.081 -21.607 -0.044 -21.537 -0.289 8.735 0.127 6.315 0.179 44.219 42.435
27.800 -17.732 -0.323 -18.097 -0.292 -19.009 -0.242 -20.388 -0.224 -21.185 -0.124 -21.330 -0.077 -21.336 -0.077 -21.366 -0.096 -21.403 -0.111 -21.602 -0.085 -21.642 -0.057 -21.645 -0.078 -21.593 -0.082 -21.601 -0.046 -21.530 -0.293 8.679 0.121 6.349 0.173 44.212 42.406
28.200 -17.692 -0.327 -18.058 -0.296 -18.974 -0.246 -20.359 -0.227 -21.158 -0.126 -21.304 -0.079 -21.312 -0.078 -21.345 -0.098 -21.384 -0.113 -21.585 -0.086 -21.626 -0.058 -21.631 -0.078 -21.586 -0.083 -21.595 -0.048 -21.523 -0.297 8.625 0.115 6.383 0.168 44.206 42.379
28.600 -17.652 -0.331 -18.019 -0.300 -18.939 -0.251 -20.329 -0.230 -21.131 -0.128 -21.279 -0.081 -21.287 -0.080 -21.324 -0.100 -21.364 -0.115 -21.567 -0.087 -21.609 -0.059 -21.616 -0.078 -21.579 -0.084 -21.589 -0.051 -21.515 -0.301 8.571 0.109 6.415 0.163 44.199 42.353
29.000 -17.612 -0.336 -17.980 -0.305 -18.903 -0.255 -20.300 -0.233 -21.104 -0.130 -21.253 -0.083 -21.261 -0.082 -21.303 -0.102 -21.345 -0.117 -21.550 -0.087 -21.593 -0.059 -21.602 -0.079 -21.572 -0.085 -21.582 -0.054 -21.508 -0.304 8.518 0.104 6.446 0.159 44.193 42.329
29.400 -17.571 -0.340 -17.940 -0.309 -18.867 -0.260 -20.270 -0.236 -21.077 -0.132 -21.228 -0.085 -21.236 -0.084 -21.282 -0.104 -21.325 -0.118 -21.532 -0.088 -21.576 -0.060 -21.587 -0.079 -21.564 -0.087 -21.575 -0.057 -21.500 -0.308 8.466 0.100 6.475 0.156 44.186 42.306
29.800 -17.530 -0.344 -17.900 -0.313 -18.831 -0.264 -20.240 -0.239 -21.049 -0.134 -21.202 -0.087 -21.211 -0.086 -21.260 -0.106 -21.305 -0.120 -21.515 -0.089 -21.560 -0.061 -21.572 -0.079 -21.556 -0.088 -21.567 -0.060 -21.493 -0.312 8.416 0.097 6.502 0.153 44.179 42.286
30.200 -17.488 -0.348 -17.860 -0.318 -18.795 -0.268 -20.210 -0.242 -21.022 -0.136 -21.176 -0.088 -21.185 -0.088 -21.238 -0.107 -21.285 -0.122 -21.497 -0.090 -21.543 -0.062 -21.557 -0.080 -21.547 -0.090 -21.559 -0.064 -21.485 -0.315 8.368 0.094 6.526 0.151 44.173 42.267
30.600 -17.447 -0.352 -17.820 -0.322 -18.758 -0.273 -20.180 -0.245 -20.994 -0.137 -21.150 -0.090 -21.160 -0.089 -21.217 -0.109 -21.265 -0.123 -21.479 -0.090 -21.525 -0.062 -21.542 -0.080 -21.539 -0.092 -21.551 -0.067 -21.477 -0.319 8.321 0.091 6.547 0.149 44.166 42.251
31.000 -17.404 -0.356 -17.779 -0.326 -18.721 -0.277 -20.149 -0.248 -20.967 -0.139 -21.125 -0.092 -21.135 -0.091 -21.195 -0.110 -21.244 -0.125 -21.460 -0.091 -21.508 -0.063 -21.527 -0.081 -21.529 -0.094 -21.542 -0.071 -21.470 -0.322 8.275 0.089 6.567 0.148 44.159 42.237
31.400 -17.362 -0.360 -17.738 -0.330 -18.683 -0.282 -20.119 -0.251 -20.939 -0.141 -21.099 -0.093 -21.109 -0.092 -21.173 -0.112 -21.224 -0.126 -21.442 -0.092 -21.491 -0.064 -21.511 -0.081 -21.520 -0.096 -21.533 -0.075 -21.462 -0.325 8.230 0.087 6.584 0.147 44.151 42.225
31.800 -17.319 -0.364 -17.696 -0.334 -18.646 -0.286 -20.088 -0.254 -20.911 -0.143 -21.073 -0.095 -21.083 -0.094 -21.151 -0.113 -21.203 -0.127 -21.424 -0.092 -21.473 -0.065 -21.495 -0.081 -21.510 -0.098 -21.523 -0.079 -21.454 -0.329 8.182 0.086 6.607 0.148 44.144 42.214
32.200 -17.276 -0.368 -17.654 -0.339 -18.608 -0.290 -20.057 -0.257 -20.884 -0.145 -21.047 -0.096 -21.058 -0.095 -21.129 -0.114 -21.183 -0.128 -21.405 -0.093 -21.456 -0.065 -21.479 -0.082 -21.500 -0.100 -21.513 -0.083 -21.446 -0.332 8.140 0.085 6.621 0.148 44.137 42.206
32.600 -17.233 -0.372 -17.612 -0.343 -18.570 -0.295 -20.026 -0.260 -20.856 -0.147 -21.021 -0.098 -21.032 -0.097 -21.107 -0.115 -21.162 -0.129 -21.387 -0.094 -21.438 -0.066 -21.463 -0.082 -21.489 -0.103 -21.503 -0.087 -21.437 -0.335 8.099 0.085 6.633 0.149 44.130 42.199
33.000 -17.190 -0.376 -17.570 -0.347 -18.531 -0.299 -19.995 -0.263 -20.828 -0.149 -20.995 -0.099 -21.007 -0.098 -21.084 -0.116 -21.142 -0.130 -21.368 -0.094 -21.420 -0.067 -21.447 -0.083 -21.478 -0.105 -21.492 -0.091 -21.429 -0.338 8.059 0.084 6.643 0.150 44.123 42.193
33.400 -17.146 -0.380 -17.528 -0.351 -18.493 -0.303 -19.963 -0.266 -20.800 -0.150 -20.969 -0.100 -20.981 -0.099 -21.062 -0.117 -21.121 -0.131 -21.349 -0.095 -21.402 -0.068 -21.430 -0.084 -21.467 -0.107 -21.481 -0.094 -21.421 -0.341 8.019 0.084 6.651 0.152 44.115 42.189
33.800 -17.102 -0.383 -17.485 -0.355 -18.454 -0.307 -19.932 -0.269 -20.772 -0.152 -20.943 -0.102 -20.956 -0.100 -21.040 -0.118 -21.100 -0.132 -21.330 -0.096 -21.384 -0.068 -21.413 -0.084 -21.455 -0.110 -21.470 -0.098 -21.412 -0.344 7.981 0.084 6.658 0.154 44.108 42.185
34.200 -17.057 -0.387 -17.442 -0.359 -18.415 -0.311 -19.900 -0.272 -20.744 -0.154 -20.918 -0.103 -20.930 -0.101 -21.018 -0.119 -21.079 -0.133 -21.311 -0.096 -21.366 -0.069 -21.397 -0.085 -21.443 -0.112 -21.458 -0.102 -21.404 -0.347 7.943 0.084 6.664 0.156 44.100 42.182
34.600 -17.013 -0.391 -17.398 -0.363 -18.375 -0.315 -19.869 -0.274 -20.717 -0.155 -20.892 -0.104 -20.905 -0.102 -20.996 -0.120 -21.059 -0.134 -21.293 -0.097 -21.348 -0.070 -21.380 -0.086 -21.431 -0.114 -21.446 -0.106 -21.395 -0.350 7.906 0.085 6.669 0.158 44.093 42.180
35.000 -16.968 -0.394 -17.355 -0.366 -18.336 -0.319 -19.837 -0.277 -20.689 -0.157 -20.866 -0.105 -20.880 -0.103 -20.973 -0.120 -21.038 -0.135 -21.274 -0.097 -21.329 -0.070 -21.363 -0.086 -21.418 -0.117 -21.434 -0.109 -21.386 -0.352 7.870 0.085 6.673 0.160 44.085 42.178
35.400 -16.923 -0.398 -17.311 -0.370 -18.296 -0.323 -19.805 -0.280 -20.661 -0.159 -20.841 -0.106 -20.855 -0.104 -20.951 -0.121 -21.017 -0.135 -21.255 -0.098 -21.311 -0.071 -21.346 -0.087 -21.406 -0.119 -21.422 -0.113 -21.377 -0.355 7.835 0.085 6.675 0.162 44.078 42.176
35.800 -16.877 -0.401 -17.267 -0.374 -18.256 -0.327 -19.773 -0.282 -20.634 -0.160 -20.816 -0.106 -20.830 -0.105 -20.929 -0.121 -20.997 -0.136 -21.236 -0.099 -21.293 -0.072 -21.329 -0.088 -21.392 -0.121 -21.409 -0.116 -21.368 -0.357 7.800 0.085 6.677 0.164 44.070 42.174
36.200 -16.832 -0.405 -17.222 -0.377 -18.216 -0.331 -19.741 -0.285 -20.606 -0.162 -20.790 -0.107 -20.805 -0.106 -20.907 -0.122 -20.976 -0.136 -21.217 -0.099 -21.274 -0.073 -21.311 -0.089 -21.379 -0.123 -21.396 -0.119 -21.359 -0.360 7.766 0.085 6.678 0.166 44.063 42.172
36.600 -16.786 -0.408 -17.178 -0.381 -18.175 -0.335 -19.709 -0.287 -20.578 -0.163 -20.765 -0.108 -20.780 -0.106 -20.885 -0.122 -20.956 -0.137 -21.198 -0.100 -21.256 -0.073 -21.294 -0.090 -21.365 -0.125 -21.383 -0.123 -21.350 -0.362 7.732 0.086 6.678 0.168 44.055 42.171
37.000 -16.740 -0.411 -17.133 -0.384 -18.135 -0.339 -19.676 -0.290 -20.551 -0.164 -20.740 -0.109 -20.755 -0.107 -20.864 -0.123 -20.935 -0.137 -21.179 -0.100 -21.237 -0.074 -21.276 -0.091 -21.351 -0.127 -21.369 -0.126 -21.341 -0.365 7.700 0.086 6.678 0.169 44.048 42.169
37.400 -16.694 -0.414 -17.088 -0.388 -18.094 -0.342 -19.644 -0.292 -20.524 -0.166 -20.715 -0.109 -20.731 -0.108 -20.842 -0.123 -20.915 -0.138 -21.160 -0.101 -21.219 -0.075 -21.259 -0.092 -21.337 -0.129 -21.355 -0.129 -21.332 -0.367 7.667 0.086 6.677 0.171 44.040 42.167
37.800 -16.647 -0.417 -17.043 -0.391 -18.053 -0.346 -19.611 -0.295 -20.496 -0.167 -20.691 -0.110 -20.706 -0.108 -20.820 -0.123 -20.894 -0.138 -21.141 -0.101 -21.200 -0.076 -21.241 -0.093 -21.323 -0.131 -21.341 -0.131 -21.323 -0.369 7.635 0.086 6.675 0.172 44.033 42.165
38.200 -16.600 -0.420 -16.997 -0.394 -18.012 -0.349 -19.579 -0.297 -20.469 -0.168 -20.666 -0.111 -20.682 -0.109 -20.799 -0.124 -20.874 -0.139 -21.122 -0.102 -21.182 -0.077 -21.224 -0.094 -21.308 -0.133 -21.327 -0.134 -21.313 -0.371 7.604 0.086 6.673 0.174 44.026 42.163
38.600 -16.553 -0.423 -16.952 -0.397 -17.971 -0.353 -19.546 -0.299 -20.442 -0.170 -20.642 -0.111 -20.658 -0.109 -20.778 -0.124 -20.854 -0.139 -21.103 -0.102 -21.163 -0.078 -21.206 -0.095 -21.293 -0.134 -21.313 -0.136 -21.304 -0.373 7.573 0.086 6.670 0.175 44.018 42.161
39.000 -16.506 -0.426 -16.906 -0.400 -17.929 -0.356 -19.514 -0.302 -20.415 -0.171 -20.617 -0.112 -20.634 -0.110 -20.757 -0.125 -20.834 -0.140 -21.084 -0.103 -21.145 -0.079 -21.188 -0.096 -21.278 -0.136 -21.298 -0.139 -21.294 -0.375 7.543 0.085 6.667 0.176 44.011 42.158
39.400 -16.459 -0.428 -16.860 -0.403 -17.888 -0.359 -19.481 -0.304 -20.388 -0.172 -20.593 -0.112 -20.611 -0.110 -20.736 -0.125 -20.814 -0.140 -21.065 -0.104 -21.126 -0.080 -21.171 -0.097 -21.263 -0.137 -21.283 -0.141 -21.284 -0.377 7.514 0.085 6.663 0.176 44.004 42.155
39.800 -16.411 -0.431 -16.814 -0.406 -17.846 -0.362 -19.448 -0.306 -20.361 -0.173 -20.569 -0.113 -20.587 -0.111 -20.715 -0.125 -20.795 -0.140 -21.046 -0.104 -21.108 -0.082 -21.153 -0.099 -21.247 -0.138 -21.268 -0.143 -21.275 -0.379 7.484 0.085 6.659 0.177 43.996 42.152
40.200 -16.363 -0.434 -16.767 -0.409 -17.804 -0.365 -19.415 -0.308 -20.335 -0.174 -20.546 -0.113 -20.564 -0.111 -20.694 -0.126 -20.775 -0.141 -21.027 -0.105 -21.089 -0.083 -21.135 -0.100 -21.232 -0.140 -21.253 -0.145 -21.265 -0.380 7.455 0.084 6.655 0.177 43.989 42.149
40.600 -16.316 -0.436 -16.721 -0.411 -17.762 -0.368 -19.382 -0.310 -20.308 -0.175 -20.522 -0.114 -20.541 -0.112 -20.674 -0.126 -20.755 -0.141 -21.009 -0.105 -21.071 -0.084 -21.117 -0.101 -21.216 -0.141 -21.238 -0.147 -21.255 -0.382 7.427 0.084 6.651 0.178 43.982 42.145
41.000 -16.267 -0.438 -16.674 -0.414 -17.720 -0.371 -19.349 -0.312 -20.282 -0.176 -20.499 -0.115 -20.518 -0.112 -20.654 -0.126 -20.736 -0.141 -20.990 -0.106 -21.052 -0.085 -21.100 -0.103 -21.200 -0.141 -21.223 -0.148 -21.245 -0.383 7.399 0.083 6.646 0.178 43.975 42.142
41.400 -16.219 -0.440 -16.627 -0.416 -17.677 -0.374 -19.316 -0.314 -20.255 -0.177 -20.476 -0.115 -20.495 -0.113 -20.634 -0.127 -20.717 -0.141 -20.971 -0.106 -21.034 -0.086 -21.082 -0.104 -21.184 -0.142 -21.207 -0.150 -21.235 -0.385 7.371 0.082 6.642 0.178 43.968 42.138
41.800 -16.171 -0.443 -16.580 -0.419 -17.635 -0.376 -19.283 -0.316 -20.229 -0.178 -20.453 -0.116 -20.472 -0.113 -20.614 -0.127 -20.698 -0.142 -20.953 -0.107 -21.016 -0.088 -21.064 -0.105 -21.168 -0.143 -21.191 -0.151 -21.225 -0.386 7.344 0.082 6.637 0.178 43.960 42.134
42.200 -16.122 -0.445 -16.533 -0.421 -17.592 -0.379 -19.250 -0.317 -20.203 -0.179 -20.430 -0.116 -20.450 -0.114 -20.594 -0.127 -20.679 -0.142 -20.935 -0.107 -20.998 -0.089 -21.046 -0.107 -21.151 -0.143 -21.176 -0.152 -21.215 -0.387 7.317 0.081 6.632 0.177 43.953 42.129
42.600 -16.073 -0.446 -16.485 -0.423 -17.550 -0.381 -19.217 -0.319 -20.177 -0.180 -20.407 -0.117 -20.428 -0.114 -20.574 -0.128 -20.660 -0.142 -20.916 -0.107 -20.979 -0.090 -21.028 -0.108 -21.135 -0.143 -21.160 -0.153 -21.205 -0.389 7.290 0.080 6.628 0.177 43.947 42.125
43.000 -16.024 -0.448 -16.438 -0.425 -17.507 -0.384 -19.184 -0.321 -20.151 -0.181 -20.385 -0.118 -20.406 -0.115 -20.555 -0.128 -20.641 -0.143 -20.898 -0.108 -20.961 -0.092 -21.011 -0.110 -21.118 -0.144 -21.144 -0.154 -21.195 -0.390 7.264 0.079 6.623 0.176 43.940 42.121
43.400 -15.975 -0.450 -16.390 -0.427 -17.464 -0.386 -19.151 -0.322 -20.125 -0.181 -20.363 -0.118 -20.384 -0.116 -20.535 -0.129 -20.623 -0.143 -20.880 -0.108 -20.943 -0.093 -20.993 -0.111 -21.102 -0.144 -21.128 -0.155 -21.185 -0.391 7.238 0.079 6.618 0.176 43.933 42.116
43.800 -15.926 -0.451 -16.342 -0.429 -17.421 -0.388 -19.118 -0.324 -20.100 -0.182 -20.341 -0.119 -20.362 -0.116 -20.516 -0.129 -20.604 -0.143 -20.862 -0.109 -20.925 -0.094 -20.975 -0.113 -21.085 -0.143 -21.111 -0.155 -21.175 -0.392 7.212 0.078 6.614 0.175 43.926 42.112
44.200 -15.876 -0.453 -16.294 -0.430 -17.378 -0.390 -19.085 -0.325 -20.074 -0.183 -20.319 -0.119 -20.341 -0.117 -20.497 -0.129 -20.586 -0.143 -20.844 -0.109 -20.908 -0.096 -20.958 -0.114 -21.068 -0.143 -21.095 -0.156 -21.164 -0.392 7.187 0.077 6.610 0.175 43.919 42.107
44.600 -15.827 -0.454 -16.246 -0.432 -17.334 -0.392 -19.052 -0.327 -20.049 -0.184 -20.297 -0.120 -20.319 -0.117 -20.478 -0.130 -20.568 -0.143 -20.826 -0.109 -20.890 -0.097 -20.940 -0.115 -21.051 -0.143 -21.079 -0.156 -21.154 -0.393 7.161 0.076 6.606 0.174 43.913 42.103
45.000 -15.777 -0.455 -16.198 -0.433 -17.291 -0.394 -19.019 -0.328 -20.024 -0.184 -20.276 -0.120 -20.298 -0.118 -20.460 -0.130 -20.550 -0.144 -20.809 -0.109 -20.872 -0.098 -20.923 -0.117 -21.034 -0.142 -21.063 -0.156 -21.144 -0.394 7.136 0.076 6.602 0.174 43.906 42.098
45.400 -15.727 -0.457 -16.150 -0.435 -17.248 -0.395 -18.986 -0.329 -19.999 -0.185 -20.254 -0.121 -20.277 -0.118 -20.441 -0.130 -20.532 -0.144 -20.791 -0.109 -20.855 -0.099 -20.905 -0.118 -21.017 -0.141 -21.046 -0.156 -21.134 -0.394 7.111 0.075 6.598 0.173 43.899 42.094
45.800 -15.677 -0.458 -16.101 -0.436 -17.204 -0.397 -18.953 -0.330 -19.974 -0.185 -20.233 -0.121 -20.256 -0.118 -20.423 -0.131 -20.514 -0.144 -20.773 -0.109 -20.837 -0.100 -20.888 -0.120 -21.000 -0.140 -21.030 -0.156 -21.123 -0.395 7.087 0.074 6.595 0.173 43.893 42.090
46.200 -15.627 -0.458 -16.053 -0.437 -17.161 -0.398 -18.920 -0.331 -19.949 -0.186 -20.212 -0.121 -20.236 -0.119 -20.405 -0.131 -20.497 -0.144 -20.756 -0.109 -20.820 -0.101 -20.871 -0.121 -20.983 -0.139 -21.014 -0.155 -21.113 -0.395 7.062 0.074 6.591 0.173 43.886 42.086
46.600 -15.577 -0.459 -16.004 -0.438 -17.117 -0.400 -18.887 -0.332 -19.924 -0.186 -20.191 -0.122 -20.215 -0.119 -20.386 -0.132 -20.479 -0.144 -20.739 -0.109 -20.803 -0.102 -20.853 -0.122 -20.966 -0.138 -20.997 -0.155 -21.103 -0.395 7.038 0.073 6.588 0.173 43.880 42.083
47.000 -15.527 -0.460 -15.955 -0.439 -17.073 -0.401 -18.854 -0.333 -19.899 -0.187 -20.170 -0.122 -20.195 -0.119 -20.368 -0.132 -20.462 -0.145 -20.722 -0.109 -20.785 -0.103 -20.836 -0.123 -20.949 -0.137 -20.981 -0.154 -21.092 -0.395 7.014 0.073 6.585 0.173 43.874 42.079
47.400 -15.477 -0.460 -15.906 -0.440 -17.029 -0.402 -18.821 -0.334 -19.875 -0.187 -20.149 -0.122 -20.174 -0.119 -20.350 -0.132 -20.445 -0.145 -20.705 -0.109 -20.768 -0.104 -20.819 -0.125 -20.932 -0.135 -20.964 -0.154 -21.082 -0.395 6.990 0.072 6.583 0.173 43.867 42.077
47.800 -15.426 -0.461 -15.857 -0.440 -16.986 -0.403 -18.788 -0.335 -19.850 -0.187 -20.129 -0.122 -20.154 -0.119 -20.333 -0.133 -20.427 -0.145 -20.688 -0.109 -20.752 -0.105 -20.802 -0.126 -20.915 -0.134 -20.948 -0.153 -21.071 -0.395 6.966 0.072 6.580 0.173 43.861 42.074
48.200 -15.376 -0.461 -15.808 -0.441 -16.942 -0.404 -18.755 -0.335 -19.826 -0.188 -20.108 -0.122 -20.134 -0.119 -20.315 -0.133 -20.410 -0.145 -20.671 -0.108 -20.735 -0.106 -20.785 -0.127 -20.898 -0.132 -20.932 -0.152 -21.061 -0.395 6.942 0.072 6.578 0.173 43.855 42.072
48.600 -15.325 -0.461 -15.759 -0.441 -16.898 -0.405 -18.722 -0.336 -19.801 -0.188 -20.088 -0.122 -20.114 -0.119 -20.297 -0.133 -20.393 -0.145 -20.654 -0.108 -20.718 -0.106 -20.769 -0.128 -20.882 -0.130 -20.915 -0.151 -21.051 -0.395 6.919 0.072 6.576 0.174 43.849 42.070
49.000 -15.274 -0.461 -15.710 -0.441 -16.854 -0.405 -18.689 -0.336 -19.777 -0.188 -20.067 -0.122 -20.094 -0.119 -20.280 -0.133 -20.377 -0.145 -20.638 -0.107 -20.701 -0.107 -20.752 -0.129 -20.865 -0.128 -20.899 -0.150 -21.040 -0.394 6.895 0.071 6.574 0.175 43.843 42.069
49.400 -15.223 -0.461 -15.661 -0.441 -16.810 -0.406 -18.657 -0.337 -19.753 -0.188 -20.047 -0.122 -20.074 -0.119 -20.262 -0.133 -20.360 -0.145 -20.621 -0.107 -20.685 -0.108 -20.735 -0.130 -20.848 -0.126 -20.883 -0.149 -21.030 -0.394 6.872 0.071 6.572 0.176 43.837 42.067
49.800 -15.173 -0.460 -15.611 -0.441 -16.766 -0.406 -18.624 -0.337 -19.729 -0.188 -20.027 -0.122 -20.054 -0.119 -20.245 -0.134 -20.343 -0.145 -20.605 -0.106 -20.669 -0.108 -20.719 -0.131 -20.831 -0.124 -20.867 -0.147 -21.020 -0.393 6.849 0.072 6.570 0.177 43.831 42.067
50.200 -15.122 -0.460 -15.562 -0.441 -16.721 -0.406 -18.591 -0.337 -19.705 -0.189 -20.007 -0.121 -20.035 -0.119 -20.227 -0.134 -20.327 -0.145 -20.589 -0.105 -20.652 -0.108 -20.703 -0.132 -20.815 -0.122 -20.851 -0.146 -21.010 -0.393 6.827 0.072 6.569 0.178 43.825 42.067
50.600 -15.071 -0.459 -15.512 -0.440 -16.677 -0.406 -18.558 -0.337 -19.681 -0.189 -19.987 -0.121 -20.015 -0.118 -20.210 -0.134 -20.310 -0.146 -20.573 -0.105 -20.636 -0.109 -20.687 -0.132 -20.798 -0.120 -20.835 -0.145 -20.999 -0.392 6.804 0.072 6.567 0.180 43.819 42.067
51.000 -15.019 -0.459 -15.463 -0.440 -16.633 -0.406 -18.526 -0.337 -19.657 -0.189 -19.967 -0.121 -19.995 -0.118 -20.193 -0.134 -20.294 -0.146 -20.557 -0.104 -20.620 -0.109 -20.671 -0.133 -20.782 -0.118 -20.819 -0.143 -20.989 -0.391 6.781 0.072 6.566 0.181 43.813 42.067
51.400 -14.968 -0.458 -15.413 -0.439 -16.589 -0.406 -18.493 -0.337 -19.634 -0.189 -19.947 -0.120 -19.976 -0.117 -20.176 -0.134 -20.278 -0.146 -20.541 -0.103 -20.604 -0.109 -20.655 -0.134 -20.766 -0.115 -20.804 -0.142 -20.979 -0.390 6.759 0.072 6.565 0.183 43.807 42.068
51.800 -14.917 -0.457 -15.364 -0.438 -16.545 -0.406 -18.461 -0.337 -19.610 -0.189 -19.927 -0.120 -19.956 -0.117 -20.159 -0.134 -20.261 -0.146 -20.525 -0.102 -20.589 -0.110 -20.639 -0.135 -20.749 -0.113 -20.788 -0.140 -20.969 -0.389 6.737 0.073 6.564 0.185 43.801 42.069
52.200 -14.866 -0.456 -15.314 -0.437 -16.500 -0.405 -18.428 -0.337 -19.586 -0.189 -19.907 -0.119 -19.936 -0.117 -20.142 -0.134 -20.245 -0.146 -20.510 -0.101 -20.573 -0.110 -20.623 -0.135 -20.733 -0.111 -20.773 -0.139 -20.959 -0.388 6.714 0.073 6.564 0.187 43.795 42.071
52.600 -14.815 -0.455 -15.264 -0.436 -16.456 -0.404 -18.396 -0.337 -19.563 -0.188 -19.887 -0.119 -19.917 -0.116 -20.125 -0.135 -20.229 -0.146 -20.494 -0.101 -20.558 -0.110 -20.608 -0.136 -20.718 -0.108 -20.757 -0.138 -20.949 -0.386 6.692 0.074 6.564 0.190 43.789 42.073
53.000 -14.763 -0.453 -15.214 -0.435 -16.412 -0.404 -18.363 -0.336 -19.539 -0.188 -19.867 -0.119 -19.897 -0.116 -20.108 -0.135 -20.213 -0.146 -20.479 -0.100 -20.542 -0.110 -20.592 -0.137 -20.702 -0.106 -20.742 -0.136 -20.939 -0.385 6.670 0.074 6.564 0.192 43.784 42.075
53.400 -14.712 -0.452 -15.164 -0.434 -16.368 -0.403 -18.331 -0.336 -19.516 -0.188 -19.847 -0.118 -19.878 -0.115 -20.091 -0.135 -20.197 -0.146 -20.464 -0.099 -20.527 -0.110 -20.577 -0.137 -20.686 -0.104 -20.727 -0.135 -20.929 -0.383 6.648 0.075 6.565 0.195 43.778 42.077
53.800 -14.660 -0.450 -15.115 -0.432 -16.323 -0.402 -18.298 -0.335 -19.492 -0.188 -19.827 -0.118 -19.858 -0.115 -20.074 -0.135 -20.181 -0.146 -20.449 -0.098 -20.512 -0.111 -20.562 -0.138 -20.671 -0.102 -20.712 -0.134 -20.919 -0.382 6.625 0.076 6.567 0.197 43.772 42.079
54.200 -14.609 -0.448 -15.065 -0.431 -16.279 -0.401 -18.266 -0.334 -19.469 -0.188 -19.807 -0.117 -19.838 -0.115 -20.057 -0.135 -20.165 -0.146 -20.434 -0.098 -20.497 -0.111 -20.547 -0.138 -20.656 -0.100 -20.698 -0.132 -20.909 -0.380 6.603 0.076 6.569 0.200 43.767 42.082
54.600 -14.558 -0.446 -15.015 -0.429 -16.235 -0.399 -18.234 -0.334 -19.446 -0.188 -19.786 -0.117 -19.819 -0.114 -20.040 -0.135 -20.150 -0.146 -20.419 -0.097 -20.482 -0.111 -20.532 -0.139 -20.641 -0.098 -20.683 -0.131 -20.899 -0.378 6.581 0.077 6.572 0.203 43.761 42.085
55.000 -14.506 -0.444 -14.965 -0.427 -16.191 -0.398 -18.202 -0.333 -19.422 -0.188 -19.766 -0.117 -19.799 -0.114 -20.024 -0.135 -20.134 -0.146 -20.404 -0.097 -20.468 -0.111 -20.518 -0.140 -20.626 -0.097 -20.669 -0.130 -20.890 -0.376 6.558 0.077 6.577 0.206 43.756 42.089
55.400 -14.455 -0.442 -14.915 -0.425 -16.146 -0.396 -18.170 -0.332 -19.399 -0.188 -19.746 -0.117 -19.779 -0.114 -20.007 -0.136 -20.118 -0.146 -20.389 -0.096 -20.453 -0.112 -20.503 -0.140 -20.611 -0.095 -20.655 -0.130 -20.880 -0.374 6.535 0.078 6.582 0.209 43.751 42.093
55.800 -14.403 -0.440 -14.865 -0.423 -16.102 -0.395 -18.138 -0.331 -19.376 -0.187 -19.726 -0.117 -19.759 -0.114 -19.990 -0.136 -20.103 -0.146 -20.375 -0.096 -20.439 -0.112 -20.489 -0.141 -20.597 -0.094 -20.641 -0.129 -20.870 -0.372 6.512 0.079 6.589 0.213 43.745 42.097
56.200 -14.352 -0.437 -14.815 -0.420 -16.058 -0.393 -18.106 -0.330 -19.353 -0.187 -19.706 -0.117 -19.739 -0.114 -19.974 -0.136 -20.087 -0.147 -20.360 -0.096 -20.424 -0.113 -20.475 -0.141 -20.583 -0.093 -20.628 -0.128 -20.861 -0.370 6.488 0.079 6.598 0.216 43.740 42.101
56.600 -14.300 -0.434 -14.765 -0.418 -16.014 -0.391 -18.074 -0.328 -19.330 -0.187 -19.686 -0.117 -19.720 -0.115 -19.957 -0.136 -20.072 -0.147 -20.346 -0.096 -20.410 -0.113 -20.461 -0.142 -20.569 -0.093 -20.615 -0.128 -20.851 -0.368 6.464 0.080 6.608 0.220 43.735 42.106
57.000 -14.249 -0.432 -14.716 -0.415 -15.970 -0.389 -18.042 -0.327 -19.307 -0.187 -19.666 -0.118 -19.700 -0.115 -19.940 -0.137 -20.057 -0.147 -20.332 -0.097 -20.396 -0.114 -20.447 -0.142 -20.555 -0.092 -20.601 -0.127 -20.842 -0.365 6.440 0.080 6.620 0.223 43.730 42.111
57.400 -14.197 -0.429 -14.666 -0.412 -15.926 -0.387 -18.010 -0.326 -19.284 -0.187 -19.646 -0.118 -19.680 -0.116 -19.924 -0.137 -20.041 -0.147 -20.318 -0.097 -20.382 -0.114 -20.434 -0.143 -20.542 -0.092 -20.589 -0.127 -20.833 -0.363 6.415 0.081 6.634 0.227 43.725 42.116
57.800 -14.146 -0.426 -14.616 -0.410 -15.882 -0.384 -17.979 -0.324 -19.262 -0.187 -19.626 -0.119 -19.660 -0.116 -19.908 -0.137 -20.026 -0.147 -20.304 -0.098 -20.368 -0.115 -20.420 -0.143 -20.529 -0.092 -20.576 -0.127 -20.824 -0.360 6.390 0.081 6.650 0.231 43.721 42.122
58.200 -14.094 -0.422 -14.566 -0.406 -15.838 -0.382 -17.947 -0.322 -19.239 -0.187 -19.606 -0.119 -19.641 -0.117 -19.891 -0.138 -20.011 -0.148 -20.290 -0.099 -20.355 -0.116 -20.407 -0.144 -20.516 -0.092 -20.564 -0.127 -20.814 -0.357 6.365 0.082 6.669 0.235 43.716 42.128
58.600 -14.043 -0.419 -14.516 -0.403 -15.794 -0.379 -17.915 -0.321 -19.216 -0.186 -19.586 -0.120 -19.622 -0.118 -19.875 -0.138 -19.996 -0.148 -20.276 -0.100 -20.341 -0.117 -20.394 -0.144 -20.504 -0.093 -20.552 -0.127 -20.805 -0.354 6.339 0.082 6.689 0.239 43.712 42.134
59.000 -13.992 -0.415 -14.466 -0.400 -15.750 -0.376 -17.884 -0.319 -19.194 -0.186 -19.566 -0.121 -19.602 -0.119 -19.859 -0.139 -19.981 -0.148 -20.262 -0.101 -20.328 -0.118 -20.381 -0.145 -20.492 -0.094 -20.540 -0.128 -20.796 -0.351 6.314 0.083 6.709 0.243 43.707 42.140
59.400 -13.940 -0.412 -14.417 -0.396 -15.706 -0.373 -17.852 -0.317 -19.171 -0.186 -19.547 -0.122 -19.583 -0.120 -19.843 -0.139 -19.966 -0.148 -20.249 -0.102 -20.315 -0.119 -20.368 -0.145 -20.481 -0.095 -20.529 -0.128 -20.787 -0.348 6.287 0.083 6.733 0.248 43.703 42.147
59.800 -13.889 -0.408 -14.367 -0.393 -15.662 -0.370 -17.821 -0.315 -19.149 -0.186 -19.528 -0.123 -19.564 -0.121 -19.826 -0.140 -19.951 -0.149 -20.235 -0.104 -20.301 -0.120 -20.355 -0.146 -20.469 -0.097 -20.518 -0.129 -20.779 -0.345 6.261 0.083 6.761 0.252 43.699 42.154
60.200 -13.838 -0.404 -14.317 -0.389 -15.618 -0.367 -17.790 -0.312 -19.126 -0.186 -19.508 -0.124 -19.545 -0.122 -19.810 -0.140 -19.936 -0.149 -20.222 -0.105 -20.288 -0.121 -20.343 -0.146 -20.458 -0.098 -20.507 -0.129 -20.770 -0.341 6.234 0.083 6.790 0.257 43.695 42.161
60.600 -13.787 -0.400 -14.268 -0.385 -15.574 -0.364 -17.758 -0.310 -19.104 -0.185 -19.489 -0.125 -19.527 -0.123 -19.794 -0.141 -19.921 -0.149 -20.209 -0.107 -20.275 -0.122 -20.330 -0.147 -20.448 -0.100 -20.497 -0.130 -20.761 -0.338 6.206 0.084 6.821 0.261 43.692 42.169
61.000 -13.736 -0.396 -14.218 -0.381 -15.531 -0.360 -17.727 -0.308 -19.082 -0.185 -19.470 -0.127 -19.508 -0.124 -19.779 -0.141 -19.907 -0.149 -20.195 -0.109 -20.263 -0.123 -20.318 -0.147 -20.438 -0.101 -20.486 -0.131 -20.753 -0.334 6.179 0.084 6.853 0.266 43.688 42.176
61.400 -13.684 -0.391 -14.169 -0.376 -15.487 -0.356 -17.696 -0.305 -19.059 -0.185 -19.451 -0.128 -19.490 -0.126 -19.763 -0.142 -19.892 -0.150 -20.182 -0.110 -20.250 -0.124 -20.306 -0.147 -20.428 -0.103 -20.477 -0.131 -20.744 -0.331 6.152 0.084 6.887 0.271 43.685 42.184
61.800 -13.633 -0.387 -14.119 -0.372 -15.443 -0.353 -17.665 -0.303 -19.037 -0.184 -19.433 -0.129 -19.471 -0.127 -19.747 -0.142 -19.877 -0.150 -20.169 -0.112 -20.238 -0.125 -20.294 -0.148 -20.418 -0.105 -20.467 -0.132 -20.736 -0.327 6.125 0.084 6.923 0.276 43.682 42.191
62.200 -13.583 -0.382 -14.070 -0.367 -15.400 -0.349 -17.634 -0.300 -19.015 -0.184 -19.414 -0.130 -19.453 -0.128 -19.731 -0.142 -19.863 -0.150 -20.156 -0.114 -20.225 -0.126 -20.282 -0.148 -20.409 -0.107 -20.458 -0.133 -20.728 -0.323 6.097 0.084 6.960 0.281 43.679 42.198
62.600 -13.532 -0.377 -14.020 -0.363 -15.356 -0.345 -17.603 -0.297 -18.993 -0.183 -19.395 -0.131 -19.435 -0.129 -19.716 -0.143 -19.848 -0.150 -20.143 -0.116 -20.213 -0.127 -20.271 -0.148 -20.399 -0.109 -20.448 -0.134 -20.719 -0.319 6.070 0.084 6.998 0.286 43.676 42.206
63.000 -13.481 -0.373 -13.971 -0.358 -15.313 -0.341 -17.572 -0.294 -18.971 -0.183 -19.377 -0.132 -19.416 -0.130 -19.700 -0.143 -19.834 -0.150 -20.131 -0.117 -20.201 -0.128 -20.259 -0.148 -20.391 -0.111 -20.440 -0.135 -20.711 -0.315 6.043 0.084 7.037 0.291 43.673 42.213
63.400 -13.430 -0.368 -13.922 -0.353 -15.270 -0.336 -17.541 -0.291 -18.949 -0.182 -19.358 -0.133 -19.398 -0.131 -19.684 -0.143 -19.819 -0.150 -20.118 -0.119 -20.189 -0.129 -20.248 -0.149 -20.382 -0.112 -20.431 -0.135 -20.703 -0.310 6.016 0.084 7.077 0.297 43.670 42.220
63.800 -13.380 -0.362 -13.873 -0.348 -15.227 -0.332 -17.510 -0.288 -18.928 -0.182 -19.340 -0.134 -19.380 -0.132 -19.669 -0.143 -19.805 -0.150 -20.105 -0.120 -20.177 -0.130 -20.237 -0.149 -20.374 -0.114 -20.423 -0.136 -20.695 -0.306 5.989 0.084 7.118 0.302 43.667 42.228
64.200 -13.329 -0.357 -13.824 -0.343 -15.183 -0.327 -17.479 -0.285 -18.906 -0.181 -19.322 -0.135 -19.362 -0.133 -19.654 -0.143 -19.791 -0.150 -20.093 -0.122 -20.165 -0.130 -20.226 -0.149 -20.366 -0.116 -20.414 -0.137 -20.688 -0.301 5.963 0.084 7.160 0.307 43.664 42.235
64.600 -13.279 -0.352 -13.775 -0.337 -15.140 -0.322 -17.448 -0.282 -18.884 -0.180 -19.303 -0.135 -19.344 -0.134 -19.638 -0.143 -19.776 -0.150 -20.080 -0.123 -20.153 -0.131 -20.215 -0.149 -20.358 -0.117 -20.406 -0.137 -20.680 -0.297 5.936 0.084 7.202 0.313 43.662 42.242
65.000 -13.228 -0.346 -13.726 -0.332 -15.098 -0.318 -17.417 -0.278 -18.862 -0.179 -19.285 -0.136 -19.326 -0.134 -19.623 -0.143 -19.762 -0.150 -20.068 -0.124 -20.141 -0.131 -20.205 -0.148 -20.350 -0.118 -20.399 -0.138 -20.672 -0.292 5.910 0.084 7.245 0.318 43.659 42.248
65.400 -13.178 -0.341 -13.677 -0.326 -15.055 -0.313 -17.386 -0.275 -18.841 -0.178 -19.267 -0.136 -19.309 -0.135 -19.608 -0.143 -19.748 -0.149 -20.056 -0.125 -20.130 -0.132 -20.194 -0.148 -20.343 -0.120 -20.391 -0.138 -20.665 -0.287 5.884 0.083 7.289 0.324 43.657 42.255
65.800 -13.128 -0.335 -13.629 -0.320 -15.012 -0.308 -17.355 -0.271 -18.819 -0.177 -19.248 -0.136 -19.291 -0.135 -19.592 -0.143 -19.734 -0.149 -20.043 -0.126 -20.118 -0.132 -20.183 -0.148 -20.335 -0.121 -20.384 -0.138 -20.657 -0.282 5.858 0.083 7.334 0.329 43.654 42.262
66.200 -13.078 -0.329 -13.580 -0.314 -14.969 -0.302 -17.325 -0.267 -18.797 -0.176 -19.230 -0.137 -19.273 -0.135 -19.577 -0.142 -19.720 -0.148 -20.031 -0.127 -20.107 -0.132 -20.173 -0.147 -20.328 -0.122 -20.377 -0.139 -20.650 -0.277 5.832 0.083 7.379 0.335 43.652 42.268
66.600 -13.029 -0.323 -13.532 -0.308 -14.927 -0.297 -17.294 -0.264 -18.776 -0.175 -19.212 -0.137 -19.255 -0.135 -19.562 -0.142 -19.706 -0.148 -20.019 -0.128 -20.096 -0.132 -20.163 -0.147 -20.322 -0.122 -20.370 -0.139 -20.642 -0.272 5.807 0.083 7.424 0.341 43.650 42.275
67.000 -12.979 -0.317 -13.484 -0.302 -14.884 -0.292 -17.263 -0.260 -18.754 -0.173 -19.194 -0.136 -19.237 -0.135 -19.547 -0.141 -19.691 -0.147 -20.007 -0.128 -20.084 -0.132 -20.153 -0.146 -20.315 -0.123 -20.363 -0.138 -20.635 -0.267 5.782 0.083 7.470 0.346 43.648 42.281
67.400 -12.929 -0.311 -13.435 -0.296 -14.842 -0.286 -17.233 -0.256 -18.732 -0.172 -19.176 -0.136 -19.219 -0.135 -19.531 -0.140 -19.677 -0.146 -19.995 -0.129 -20.073 -0.132 -20.143 -0.145 -20.308 -0.123 -20.357 -0.138 -20.628 -0.261 5.757 0.083 7.516 0.352 43.646 42.287
67.800 -12.880 -0.305 -13.387 -0.290 -14.800 -0.281 -17.202 -0.252 -18.711 -0.170 -19.157 -0.136 -19.201 -0.134 -19.516 -0.140 -19.663 -0.145 -19.983 -0.129 -20.062 -0.132 -20.133 -0.144 -20.302 -0.124 -20.350 -0.138 -20.621 -0.256 5.732 0.083 7.563 0.358 43.644 42.293
68.200 -12.831 -0.298 -13.340 -0.283 -14.758 -0.275 -17.171 -0.248 -18.689 -0.169 -19.139 -0.135 -19.184 -0.133 -19.501 -0.139 -19.649 -0.144 -19.971 -0.129 -20.051 -0.131 -20.123 -0.143 -20.296 -0.124 -20.344 -0.137 -20.614 -0.250 5.708 0.083 7.610 0.364 43.641 42.299
68.600 -12.782 -0.292 -13.292 -0.277 -14.716 -0.269 -17.140 -0.244 -18.667 -0.167 -19.121 -0.134 -19.166 -0.133 -19.486 -0.137 -19.635 -0.143 -19.959 -0.129 -20.040 -0.130 -20.114 -0.142 -20.290 -0.124 -20.338 -0.136 -20.607 -0.245 5.684 0.083 7.657 0.370 43.639 42.305
69.000 -12.733 -0.286 -13.244 -0.270 -14.674 -0.263 -17.110 -0.239 -18.646 -0.165 -19.103 -0.133 -19.148 -0.132 -19.471 -0.136 -19.621 -0.141 -19.947 -0.129 -20.029 -0.130 -20.104 -0.140 -20.284 -0.123 -20.332 -0.135 -20.600 -0.239 5.660 0.082 7.704 0.376 43.638 42.311
69.400 -12.684 -0.279 -13.197 -0.264 -14.632 -0.257 -17.079 -0.235 -18.624 -0.163 -19.084 -0.132 -19.130 -0.131 -19.455 -0.135 -19.607 -0.140 -19.936 -0.128 -20.018 -0.129 -20.094 -0.139 -20.278 -0.123 -20.326 -0.134 -20.593 -0.233 5.636 0.082 7.752 0.382 43.636 42.316
69.800 -12.636 -0.273 -13.150 -0.257 -14.590 -0.251 -17.048 -0.231 -18.602 -0.161 -19.066 -0.131 -19.112 -0.129 -19.440 -0.133 -19.593 -0.138 -19.924 -0.128 -20.008 -0.128 -20.085 -0.138 -20.273 -0.122 -20.321 -0.133 -20.586 -0.227 5.613 0.082 7.799 0.388 43.634 42.322
70.200 -12.588 -0.266 -13.103 -0.250 -14.549 -0.245 -17.018 -0.226 -18.580 -0.159 -19.047 -0.129 -19.094 -0.128 -19.425 -0.131 -19.579 -0.137 -19.912 -0.127 -19.997 -0.126 -20.076 -0.136 -20.267 -0.121 -20.315 -0.132 -20.580 -0.221 5.590 0.082 7.847 0.394 43.632 42.327
70.600 -12.540 -0.260 -13.056 -0.243 -14.507 -0.239 -16.987 -0.222 -18.558 -0.156 -19.029 -0.127 -19.076 -0.126 -19.410 -0.129 -19.565 -0.135 -19.901 -0.127 -19.986 -0.125 -20.066 -0.134 -20.262 -0.120 -20.310 -0.130 -20.573 -0.215 5.567 0.082 7.894 0.400 43.630 42.332
71.000 -12.492 -0.253 -13.009 -0.237 -14.466 -0.233 -16.956 -0.218 -18.536 -0.154 -19.010 -0.126 -19.057 -0.124 -19.394 -0.127 -19.551 -0.133 -19.889 -0.126 -19.976 -0.123 -20.057 -0.132 -20.256 -0.119 -20.304 -0.129 -20.567 -0.209 5.545 0.082 7.942 0.406 43.628 42.337
71.400 -12.444 -0.247 -12.963 -0.230 -14.425 -0.227 -16.925 -0.213 -18.514 -0.152 -18.992 -0.124 -19.039 -0.122 -19.379 -0.125 -19.536 -0.131 -19.877 -0.125 -19.965 -0.122 -20.048 -0.130 -20.251 -0.118 -20.299 -0.127 -20.560 -0.203 5.523 0.082 7.989 0.412 43.626 42.342
71.800 -12.397 -0.240 -12.916 -0.223 -14.384 -0.221 -16.894 -0.209 -18.492 -0.149 -18.973 -0.122 -19.021 -0.120 -19.363 -0.123 -19.522 -0.129 -19.866 -0.124 -19.954 -0.120 -20.039 -0.128 -20.246 -0.116 -20.294 -0.125 -20.554 -0.197 5.501 0.082 8.037 0.418 43.625 42.347
72.200 -12.349 -0.234 -12.870 -0.216 -14.343 -0.215 -16.863 -0.205 -18.470 -0.147 -18.954 -0.120 -19.002 -0.118 -19.348 -0.121 -19.508 -0.127 -19.854 -0.122 -19.944 -0.118 -20.030 -0.126 -20.241 -0.115 -20.289 -0.123 -20.548 -0.191 5.479 0.081 8.084 0.424 43.623 42.351
72.600 -12.303 -0.228 -12.824 -0.210 -14.303 -0.209 -16.832 -0.200 -18.448 -0.144 -18.935 -0.117 -18.984 -0.116 -19.332 -0.119 -19.494 -0.125 -19.842 -0.121 -19.933 -0.116 -20.021 -0.124 -20.236 -0.113 -20.284 -0.121 -20.541 -0.185 5.458 0.081 8.132 0.430 43.621 42.355
73.000 -12.256 -0.222 -12.779 -0.203 -14.262 -0.203 -16.801 -0.196 -18.426 -0.142 -18.916 -0.115 -18.965 -0.114 -19.317 -0.116 -19.479 -0.123 -19.831 -0.120 -19.923 -0.114 -20.012 -0.121 -20.231 -0.111 -20.279 -0.119 -20.535 -0.179 5.436 0.081 8.179 0.436 43.619 42.359
73.400 -12.209 -0.216 -12.733 -0.197 -14.221 -0.197 -16.770 -0.192 -18.403 -0.139 -18.897 -0.113 -18.947 -0.111 -19.301 -0.114 -19.465 -0.121 -19.819 -0.118 -19.913 -0.112 -20.003 -0.119 -20.226 -0.110 -20.274 -0.116 -20.529 -0.173 5.415 0.081 8.226 0.442 43.618 42.363
73.800 -12.163 -0.210 -12.688 -0.190 -14.181 -0.192 -16.739 -0.188 -18.381 -0.137 -18.878 -0.110 -18.928 -0.109 -19.286 -0.111 -19.450 -0.118 -19.808 -0.117 -19.902 -0.110 -19.994 -0.117 -20.221 -0.108 -20.269 -0.114 -20.523 -0.168 5.395 0.081 8.273 0.448 43.616 42.367
74.200 -12.118 -0.205 -12.643 -0.184 -14.141 -0.186 -16.708 -0.184 -18.358 -0.134 -18.859 -0.108 -18.909 -0.107 -19.270 -0.109 -19.436 -0.116 -19.796 -0.116 -19.892 -0.108 -19.985 -0.115 -20.216 -0.106 -20.264 -0.112 -20.517 -0.162 5.374 0.081 8.320 0.454 43.614 42.371
74.600 -12.072 -0.200 -12.598 -0.179 -14.101 -0.181 -16.676 -0.181 -18.335 -0.132 -18.839 -0.105 -18.890 -0.104 -19.254 -0.106 -19.421 -0.114 -19.784 -0.114 -19.881 -0.106 -19.977 -0.112 -20.211 -0.104 -20.259 -0.110 -20.511 -0.157 5.354 0.081 8.367 0.460 43.613 42.374
75.000 -12.027 -0.195 -12.554 -0.173 -14.061 -0.176 -16.645 -0.177 -18.312 -0.130 -18.820 -0.103 -18.871 -0.102 -19.238 -0.104 -19.407 -0.112 -19.773 -0.113 -19.871 -0.104 -19.968 -0.110 -20.206 -0.102 -20.254 -0.107 -20.505 -0.152 5.334 0.080 8.414 0.466 43.611 42.377
75.400 -11.982 -0.191 -12.510 -0.168 -14.021 -0.172 -16.614 -0.174 -18.289 -0.128 -18.800 -0.101 -18.851 -0.100 -19.222 -0.102 -19.392 -0.110 -19.761 -0.112 -19.860 -0.102 -19.959 -0.108 -20.201 -0.100 -20.249 -0.105 -20.499 -0.147 5.314 0.080 8.461 0.471 43.609 42.380
75.800 -11.937 -0.187 -12.466 -0.164 -13.982 -0.167 -16.582 -0.172 -18.266 -0.126 -18.780 -0.099 -18.832 -0.098 -19.206 -0.100 -19.377 -0.108 -19.750 -0.111 -19.850 -0.100 -19.950 -0.107 -20.196 -0.099 -20.244 -0.104 -20.493 -0.143 5.294 0.080 8.508 0.477 43.608 42.383
76.200 -11.893 -0.184 -12.422 -0.160 -13.942 -0.164 -16.550 -0.169 -18.243 -0.124 -18.761 -0.097 -18.813 -0.096 -19.189 -0.098 -19.362 -0.107 -19.738 -0.110 -19.840 -0.099 -19.941 -0.105 -20.191 -0.098 -20.239 -0.102 -20.487 -0.139 5.274 0.080 8.556 0.484 43.606 42.386
76.600 -11.849 -0.182 -12.379 -0.157 -13.903 -0.160 -16.519 -0.167 -18.219 -0.123 -18.741 -0.096 -18.793 -0.095 -19.173 -0.097 -19.347 -0.106 -19.726 -0.110 -19.829 -0.098 -19.932 -0.104 -20.186 -0.097 -20.235 -0.101 -20.481 -0.136 5.254 0.080 8.604 0.490 43.604 42.389
77.000 -11.806 -0.180 -12.336 -0.154 -13.864 -0.158 -16.487 -0.165 -18.196 -0.122 -18.720 -0.095 -18.773 -0.094 -19.156 -0.096 -19.332 -0.105 -19.715 -0.109 -19.819 -0.097 -19.923 -0.103 -20.181 -0.096 -20.230 -0.100 -20.475 -0.133 5.235 0.080 8.653 0.497 43.603 42.393
77.400 -11.763 -0.179 -12.294 -0.152 -13.824 -0.155 -16.455 -0.164 -18.172 -0.122 -18.700 -0.094 -18.753 -0.093 -19.140 -0.095 -19.317 -0.104 -19.703 -0.109 -19.808 -0.097 -19.915 -0.102 -20.176 -0.096 -20.225 -0.099 -20.469 -0.131 5.215 0.080 8.703 0.504 43.601 42.396
77.800 -11.720 -0.178 -12.252 -0.151 -13.785 -0.154 -16.422 -0.164 -18.148 -0.122 -18.680 -0.094 -18.733 -0.093 -19.123 -0.095 -19.301 -0.104 -19.692 -0.110 -19.798 -0.097 -19.906 -0.102 -20.171 -0.096 -20.220 -0.099 -20.464 -0.130 5.195 0.080 8.753 0.511 43.600 42.400
78.200 -11.678 -0.179 -12.210 -0.151 -13.746 -0.153 -16.390 -0.163 -18.124 -0.122 -18.659 -0.095 -18.713 -0.093 -19.106 -0.095 -19.286 -0.105 -19.680 -0.110 -19.787 -0.097 -19.897 -0.103 -20.166 -0.097 -20.215 -0.100 -20.458 -0.130 5.175 0.080 8.805 0.520 43.598 42.404
78.600 -11.636 -0.180 -12.169 -0.151 -13.707 -0.153 -16.358 -0.164 -18.099 -0.123 -18.639 -0.096 -18.693 -0.094 -19.089 -0.096 -19.270 -0.106 -19.668 -0.112 -19.777 -0.098 -19.888 -0.103 -20.161 -0.098 -20.210 -0.101 -20.452 -0.130 5.155 0.080 8.857 0.529 43.596 42.409
79.000 -11.594 -0.182 -12.128 -0.153 -13.669 -0.154 -16.325 -0.165 -18.075 -0.125 -18.618 -0.097 -18.673 -0.096 -19.071 -0.097 -19.254 -0.107 -19.657 -0.113 -19.767 -0.100 -19.878 -0.105 -20.155 -0.100 -20.205 -0.103 -20.447 -0.132 5.135 0.081 8.910 0.539 43.595 42.414
79.400 -11.553 -0.185 -12.087 -0.156 -13.630 -0.156 -16.293 -0.166 -18.050 -0.127 -18.597 -0.100 -18.652 -0.098 -19.054 -0.099 -19.238 -0.109 -19.645 -0.115 -19.756 -0.102 -19.869 -0.107 -20.150 -0.102 -20.200 -0.105 -20.441 -0.134 5.115 0.081 8.963 0.549 43.593 42.420
79.800 -11.512 -0.188 -12.047 -0.159 -13.591 -0.158 -16.260 -0.168 -18.025 -0.129 -18.576 -0.103 -18.632 -0.101 -19.036 -0.102 -19.222 -0.112 -19.633 -0.118 -19.746 -0.105 -19.860 -0.109 -20.145 -0.105 -20.195 -0.108 -20.435 -0.138 5.096 0.082 9.017 0.561 43.592 42.426
