"Time (MJD)" cyan-5182.42 cyan-5182.42_err g-4746.48 g-4746.48_err g-4793.46 g-4793.46_err i-7589.41 i-7589.41_err i-7829.03 i-7829.03_err orange-6629.82 orange-6629.82_err r-6120.65 r-6120.65_err r-6366.38 r-6366.38_err z-8970.57 z-8970.57_err "Temp./1e3 (K)" "Temp. Err." "Radius/1e15 (cm)" "Radius Err." "Log10(Bol. Lum)" "Log10(Bol. Err)"
-18.000 -19.841 -0.108 -19.837 -0.105 -19.800 -0.093 -19.685 -0.090 -19.652 -0.091 -19.617 -0.092 -19.479 -0.098 -19.442 -0.102 -19.247 -0.156 14.237 0.089 1.334 0.009 43.717 41.763
-17.600 -19.872 -0.103 -19.868 -0.100 -19.833 -0.088 -19.721 -0.085 -19.689 -0.086 -19.655 -0.087 -19.520 -0.092 -19.483 -0.096 -19.288 -0.150 14.060 0.097 1.376 0.011 43.722 41.809
-17.200 -19.903 -0.099 -19.899 -0.097 -19.865 -0.085 -19.757 -0.081 -19.726 -0.082 -19.693 -0.082 -19.562 -0.086 -19.525 -0.090 -19.328 -0.145 13.875 0.106 1.420 0.012 43.726 41.854
-16.800 -19.932 -0.097 -19.929 -0.094 -19.896 -0.083 -19.793 -0.078 -19.763 -0.078 -19.731 -0.079 -19.603 -0.081 -19.567 -0.085 -19.369 -0.141 13.682 0.116 1.468 0.014 43.731 41.898
-16.400 -19.962 -0.096 -19.959 -0.093 -19.928 -0.082 -19.829 -0.076 -19.800 -0.076 -19.769 -0.076 -19.645 -0.077 -19.610 -0.080 -19.410 -0.137 13.483 0.127 1.518 0.017 43.734 41.942
-16.000 -19.990 -0.096 -19.987 -0.094 -19.958 -0.082 -19.864 -0.075 -19.837 -0.074 -19.807 -0.073 -19.687 -0.073 -19.652 -0.076 -19.450 -0.134 13.282 0.137 1.570 0.019 43.738 41.985
-15.600 -20.019 -0.097 -20.016 -0.095 -19.989 -0.083 -19.899 -0.075 -19.873 -0.073 -19.845 -0.072 -19.729 -0.069 -19.694 -0.072 -19.491 -0.131 13.079 0.149 1.626 0.022 43.741 42.027
-15.200 -20.046 -0.099 -20.044 -0.097 -20.018 -0.084 -19.934 -0.074 -19.909 -0.072 -19.882 -0.070 -19.770 -0.066 -19.736 -0.069 -19.531 -0.129 12.877 0.161 1.683 0.025 43.744 42.067
-14.800 -20.073 -0.101 -20.071 -0.099 -20.047 -0.087 -19.968 -0.075 -19.945 -0.072 -19.919 -0.070 -19.811 -0.063 -19.777 -0.066 -19.570 -0.127 12.678 0.172 1.743 0.028 43.748 42.106
-14.400 -20.099 -0.104 -20.097 -0.102 -20.076 -0.090 -20.002 -0.076 -19.979 -0.072 -19.955 -0.069 -19.852 -0.061 -19.818 -0.063 -19.609 -0.126 12.484 0.184 1.804 0.032 43.751 42.141
-14.000 -20.125 -0.108 -20.123 -0.106 -20.104 -0.093 -20.035 -0.076 -20.014 -0.073 -19.990 -0.069 -19.891 -0.059 -19.858 -0.061 -19.648 -0.126 12.297 0.195 1.867 0.035 43.754 42.174
-13.600 -20.150 -0.112 -20.148 -0.110 -20.131 -0.096 -20.067 -0.078 -20.047 -0.073 -20.025 -0.069 -19.930 -0.057 -19.897 -0.059 -19.685 -0.125 12.119 0.205 1.930 0.039 43.758 42.203
-13.200 -20.174 -0.115 -20.173 -0.113 -20.157 -0.099 -20.098 -0.079 -20.080 -0.074 -20.059 -0.069 -19.967 -0.056 -19.936 -0.058 -19.722 -0.126 11.952 0.214 1.993 0.043 43.762 42.228
-12.800 -20.197 -0.119 -20.196 -0.117 -20.183 -0.103 -20.129 -0.080 -20.111 -0.074 -20.092 -0.069 -20.004 -0.055 -19.972 -0.057 -19.758 -0.126 11.798 0.221 2.055 0.047 43.766 42.249
-12.400 -20.220 -0.123 -20.219 -0.121 -20.208 -0.106 -20.158 -0.081 -20.142 -0.075 -20.124 -0.069 -20.039 -0.055 -20.008 -0.057 -19.792 -0.127 11.659 0.227 2.116 0.050 43.770 42.266
-12.000 -20.242 -0.127 -20.241 -0.124 -20.232 -0.109 -20.187 -0.082 -20.172 -0.076 -20.155 -0.070 -20.072 -0.056 -20.041 -0.058 -19.826 -0.128 11.536 0.230 2.173 0.053 43.775 42.278
-11.600 -20.263 -0.130 -20.263 -0.128 -20.255 -0.112 -20.215 -0.083 -20.201 -0.076 -20.184 -0.070 -20.104 -0.057 -20.073 -0.060 -19.858 -0.130 11.429 0.232 2.228 0.056 43.781 42.286
-11.200 -20.284 -0.133 -20.283 -0.131 -20.278 -0.114 -20.242 -0.084 -20.229 -0.077 -20.213 -0.071 -20.134 -0.059 -20.104 -0.063 -19.889 -0.131 11.335 0.232 2.280 0.058 43.786 42.291
-10.800 -20.303 -0.136 -20.303 -0.134 -20.299 -0.117 -20.268 -0.084 -20.255 -0.077 -20.240 -0.071 -20.163 -0.062 -20.132 -0.066 -19.918 -0.133 11.252 0.232 2.329 0.060 43.792 42.294
-10.400 -20.322 -0.139 -20.322 -0.137 -20.320 -0.119 -20.292 -0.085 -20.281 -0.078 -20.267 -0.071 -20.190 -0.064 -20.159 -0.069 -19.946 -0.135 11.178 0.230 2.375 0.062 43.798 42.294
-10.000 -20.340 -0.142 -20.340 -0.139 -20.339 -0.121 -20.316 -0.086 -20.305 -0.078 -20.292 -0.072 -20.215 -0.067 -20.185 -0.072 -19.973 -0.138 11.111 0.228 2.419 0.063 43.803 42.294
-9.600 -20.357 -0.144 -20.357 -0.142 -20.358 -0.123 -20.338 -0.086 -20.329 -0.078 -20.316 -0.072 -20.239 -0.070 -20.209 -0.076 -19.999 -0.140 11.050 0.225 2.462 0.064 43.809 42.292
-9.200 -20.373 -0.146 -20.374 -0.144 -20.376 -0.124 -20.360 -0.086 -20.351 -0.078 -20.338 -0.072 -20.262 -0.073 -20.232 -0.079 -20.023 -0.142 10.994 0.222 2.502 0.065 43.814 42.290
-8.800 -20.388 -0.148 -20.389 -0.146 -20.393 -0.126 -20.380 -0.086 -20.371 -0.078 -20.360 -0.073 -20.283 -0.076 -20.253 -0.082 -20.045 -0.144 10.942 0.220 2.541 0.066 43.819 42.288
-8.400 -20.402 -0.150 -20.403 -0.147 -20.408 -0.127 -20.399 -0.086 -20.391 -0.078 -20.380 -0.073 -20.303 -0.079 -20.273 -0.086 -20.067 -0.146 10.894 0.217 2.577 0.067 43.824 42.285
-8.000 -20.416 -0.151 -20.417 -0.148 -20.423 -0.128 -20.416 -0.086 -20.409 -0.078 -20.398 -0.073 -20.321 -0.081 -20.291 -0.089 -20.087 -0.149 10.849 0.214 2.612 0.067 43.828 42.281
-7.600 -20.428 -0.152 -20.429 -0.149 -20.437 -0.128 -20.432 -0.085 -20.426 -0.077 -20.415 -0.072 -20.338 -0.084 -20.308 -0.091 -20.106 -0.150 10.807 0.211 2.645 0.068 43.833 42.277
-7.200 -20.440 -0.153 -20.441 -0.150 -20.449 -0.128 -20.447 -0.084 -20.441 -0.077 -20.431 -0.072 -20.354 -0.086 -20.324 -0.094 -20.123 -0.152 10.769 0.207 2.676 0.068 43.836 42.271
-6.800 -20.450 -0.153 -20.452 -0.150 -20.461 -0.128 -20.460 -0.084 -20.455 -0.076 -20.445 -0.072 -20.368 -0.088 -20.338 -0.096 -20.139 -0.154 10.733 0.203 2.704 0.068 43.840 42.264
-6.400 -20.460 -0.153 -20.462 -0.151 -20.472 -0.128 -20.472 -0.083 -20.467 -0.075 -20.457 -0.071 -20.380 -0.089 -20.351 -0.098 -20.155 -0.155 10.700 0.198 2.731 0.067 43.843 42.254
-6.000 -20.469 -0.153 -20.471 -0.151 -20.481 -0.128 -20.483 -0.081 -20.478 -0.074 -20.468 -0.070 -20.392 -0.091 -20.363 -0.100 -20.169 -0.156 10.669 0.192 2.755 0.066 43.846 42.242
-5.600 -20.477 -0.153 -20.479 -0.150 -20.490 -0.127 -20.493 -0.080 -20.487 -0.073 -20.477 -0.069 -20.402 -0.092 -20.373 -0.101 -20.182 -0.157 10.642 0.186 2.777 0.065 43.848 42.229
-5.200 -20.484 -0.153 -20.486 -0.150 -20.498 -0.126 -20.501 -0.078 -20.495 -0.071 -20.486 -0.068 -20.411 -0.092 -20.383 -0.102 -20.193 -0.157 10.617 0.179 2.796 0.063 43.850 42.214
-4.800 -20.490 -0.152 -20.492 -0.149 -20.505 -0.125 -20.508 -0.076 -20.502 -0.069 -20.493 -0.067 -20.419 -0.093 -20.391 -0.103 -20.204 -0.158 10.594 0.172 2.814 0.062 43.852 42.197
-4.400 -20.496 -0.151 -20.498 -0.148 -20.511 -0.124 -20.514 -0.074 -20.508 -0.067 -20.499 -0.065 -20.426 -0.093 -20.398 -0.103 -20.214 -0.157 10.573 0.165 2.830 0.060 43.853 42.179
-4.000 -20.501 -0.150 -20.503 -0.147 -20.516 -0.123 -20.519 -0.072 -20.513 -0.065 -20.504 -0.063 -20.432 -0.093 -20.405 -0.104 -20.223 -0.157 10.554 0.158 2.844 0.058 43.854 42.160
-3.600 -20.505 -0.149 -20.507 -0.146 -20.520 -0.121 -20.523 -0.069 -20.518 -0.062 -20.508 -0.061 -20.437 -0.093 -20.410 -0.104 -20.231 -0.156 10.536 0.151 2.856 0.056 43.855 42.141
-3.200 -20.508 -0.147 -20.510 -0.144 -20.524 -0.119 -20.527 -0.067 -20.521 -0.059 -20.511 -0.059 -20.442 -0.093 -20.415 -0.103 -20.238 -0.155 10.520 0.145 2.867 0.054 43.856 42.122
-2.800 -20.511 -0.146 -20.513 -0.143 -20.527 -0.118 -20.530 -0.064 -20.524 -0.057 -20.514 -0.056 -20.445 -0.092 -20.418 -0.103 -20.244 -0.154 10.506 0.139 2.877 0.052 43.856 42.103
-2.400 -20.513 -0.144 -20.515 -0.141 -20.530 -0.116 -20.532 -0.061 -20.526 -0.054 -20.516 -0.053 -20.448 -0.091 -20.422 -0.102 -20.250 -0.153 10.492 0.133 2.885 0.050 43.857 42.084
-2.000 -20.514 -0.142 -20.517 -0.139 -20.531 -0.114 -20.534 -0.059 -20.528 -0.051 -20.518 -0.051 -20.450 -0.090 -20.424 -0.101 -20.255 -0.151 10.480 0.128 2.892 0.048 43.857 42.067
-1.600 -20.515 -0.140 -20.518 -0.137 -20.533 -0.112 -20.535 -0.056 -20.529 -0.049 -20.519 -0.049 -20.452 -0.089 -20.426 -0.100 -20.259 -0.149 10.468 0.123 2.899 0.046 43.857 42.050
-1.200 -20.516 -0.138 -20.518 -0.135 -20.534 -0.110 -20.536 -0.055 -20.530 -0.047 -20.520 -0.047 -20.453 -0.088 -20.427 -0.099 -20.262 -0.146 10.457 0.119 2.904 0.045 43.856 42.033
-0.800 -20.515 -0.135 -20.518 -0.132 -20.534 -0.108 -20.537 -0.053 -20.531 -0.045 -20.521 -0.046 -20.454 -0.087 -20.428 -0.097 -20.265 -0.143 10.447 0.115 2.909 0.044 43.856 42.018
-0.400 -20.515 -0.133 -20.517 -0.130 -20.534 -0.106 -20.538 -0.053 -20.531 -0.045 -20.521 -0.045 -20.454 -0.086 -20.429 -0.096 -20.267 -0.140 10.438 0.111 2.913 0.042 43.856 42.003
-0.000 -20.513 -0.130 -20.516 -0.127 -20.534 -0.104 -20.538 -0.053 -20.532 -0.045 -20.522 -0.046 -20.454 -0.085 -20.429 -0.094 -20.269 -0.137 10.429 0.108 2.917 0.041 43.856 41.990
0.400 -20.512 -0.128 -20.515 -0.125 -20.533 -0.102 -20.539 -0.053 -20.532 -0.046 -20.522 -0.046 -20.453 -0.084 -20.428 -0.093 -20.270 -0.133 10.420 0.105 2.920 0.040 43.855 41.978
0.800 -20.510 -0.125 -20.513 -0.122 -20.532 -0.100 -20.539 -0.053 -20.532 -0.047 -20.522 -0.048 -20.453 -0.082 -20.427 -0.091 -20.270 -0.129 10.410 0.104 2.923 0.040 43.854 41.970
1.200 -20.507 -0.122 -20.510 -0.119 -20.530 -0.097 -20.539 -0.054 -20.532 -0.049 -20.522 -0.049 -20.451 -0.081 -20.426 -0.089 -20.271 -0.125 10.400 0.103 2.926 0.040 43.854 41.966
1.600 -20.504 -0.118 -20.507 -0.116 -20.528 -0.095 -20.538 -0.055 -20.532 -0.050 -20.521 -0.050 -20.450 -0.080 -20.425 -0.087 -20.270 -0.121 10.389 0.103 2.929 0.040 43.852 41.966
2.000 -20.500 -0.115 -20.503 -0.112 -20.526 -0.093 -20.537 -0.055 -20.531 -0.051 -20.520 -0.052 -20.448 -0.078 -20.423 -0.085 -20.270 -0.117 10.377 0.104 2.931 0.041 43.851 41.969
2.400 -20.496 -0.111 -20.499 -0.109 -20.523 -0.090 -20.536 -0.056 -20.530 -0.052 -20.519 -0.053 -20.446 -0.077 -20.421 -0.083 -20.269 -0.112 10.363 0.106 2.934 0.042 43.850 41.976
2.800 -20.491 -0.108 -20.495 -0.105 -20.520 -0.087 -20.535 -0.056 -20.529 -0.053 -20.518 -0.054 -20.444 -0.075 -20.418 -0.081 -20.267 -0.107 10.347 0.109 2.937 0.043 43.848 41.986
3.200 -20.486 -0.104 -20.490 -0.101 -20.516 -0.084 -20.533 -0.056 -20.527 -0.053 -20.516 -0.054 -20.441 -0.073 -20.415 -0.078 -20.265 -0.102 10.328 0.113 2.941 0.045 43.846 41.998
3.600 -20.480 -0.100 -20.484 -0.097 -20.511 -0.081 -20.531 -0.055 -20.525 -0.053 -20.514 -0.054 -20.438 -0.071 -20.412 -0.076 -20.263 -0.097 10.306 0.117 2.946 0.046 43.843 42.011
4.000 -20.473 -0.095 -20.477 -0.093 -20.506 -0.078 -20.529 -0.054 -20.523 -0.052 -20.512 -0.054 -20.435 -0.069 -20.409 -0.073 -20.261 -0.092 10.282 0.121 2.950 0.049 43.841 42.024
4.400 -20.466 -0.091 -20.470 -0.089 -20.501 -0.074 -20.526 -0.053 -20.520 -0.052 -20.509 -0.053 -20.432 -0.067 -20.406 -0.070 -20.259 -0.088 10.254 0.126 2.956 0.051 43.838 42.036
4.800 -20.458 -0.087 -20.463 -0.085 -20.495 -0.071 -20.523 -0.052 -20.517 -0.050 -20.506 -0.052 -20.428 -0.065 -20.402 -0.067 -20.256 -0.083 10.222 0.130 2.962 0.053 43.834 42.047
5.200 -20.450 -0.082 -20.454 -0.080 -20.488 -0.067 -20.519 -0.050 -20.514 -0.049 -20.503 -0.051 -20.424 -0.062 -20.398 -0.065 -20.253 -0.079 10.186 0.134 2.970 0.055 43.831 42.055
5.600 -20.440 -0.078 -20.445 -0.076 -20.480 -0.064 -20.514 -0.048 -20.510 -0.047 -20.499 -0.049 -20.420 -0.060 -20.394 -0.062 -20.250 -0.075 10.145 0.138 2.980 0.057 43.826 42.060
6.000 -20.430 -0.074 -20.435 -0.072 -20.472 -0.061 -20.509 -0.046 -20.505 -0.045 -20.494 -0.047 -20.415 -0.058 -20.389 -0.059 -20.247 -0.072 10.104 0.140 2.989 0.059 43.822 42.061
6.400 -20.420 -0.070 -20.425 -0.068 -20.463 -0.057 -20.503 -0.044 -20.499 -0.044 -20.489 -0.046 -20.411 -0.056 -20.384 -0.057 -20.244 -0.069 10.044 0.140 3.006 0.060 43.816 42.054
6.800 -20.408 -0.066 -20.414 -0.064 -20.453 -0.055 -20.497 -0.042 -20.493 -0.042 -20.483 -0.044 -20.406 -0.054 -20.380 -0.055 -20.240 -0.068 9.984 0.139 3.022 0.061 43.811 42.041
7.200 -20.396 -0.063 -20.401 -0.061 -20.442 -0.052 -20.489 -0.040 -20.486 -0.040 -20.476 -0.043 -20.400 -0.052 -20.375 -0.054 -20.238 -0.067 9.916 0.136 3.041 0.061 43.804 42.021
7.600 -20.383 -0.061 -20.388 -0.059 -20.431 -0.051 -20.481 -0.039 -20.478 -0.039 -20.469 -0.042 -20.395 -0.052 -20.370 -0.053 -20.235 -0.067 9.843 0.131 3.063 0.060 43.798 41.991
8.000 -20.369 -0.059 -20.375 -0.057 -20.418 -0.050 -20.471 -0.039 -20.470 -0.038 -20.461 -0.041 -20.389 -0.051 -20.365 -0.054 -20.233 -0.069 9.764 0.123 3.086 0.058 43.790 41.952
8.400 -20.354 -0.058 -20.360 -0.057 -20.405 -0.050 -20.460 -0.039 -20.460 -0.038 -20.452 -0.041 -20.384 -0.052 -20.360 -0.054 -20.231 -0.072 9.682 0.114 3.111 0.055 43.783 41.904
8.800 -20.338 -0.058 -20.344 -0.057 -20.390 -0.050 -20.449 -0.040 -20.449 -0.039 -20.443 -0.041 -20.378 -0.053 -20.354 -0.056 -20.229 -0.075 9.596 0.103 3.138 0.051 43.774 41.847
9.200 -20.321 -0.058 -20.327 -0.057 -20.375 -0.050 -20.437 -0.041 -20.438 -0.040 -20.433 -0.042 -20.371 -0.055 -20.349 -0.058 -20.228 -0.079 9.507 0.092 3.166 0.047 43.766 41.783
9.600 -20.303 -0.059 -20.310 -0.058 -20.358 -0.051 -20.423 -0.043 -20.426 -0.042 -20.422 -0.043 -20.365 -0.057 -20.344 -0.060 -20.227 -0.083 9.415 0.081 3.195 0.042 43.757 41.710
10.000 -20.284 -0.060 -20.291 -0.059 -20.341 -0.053 -20.410 -0.044 -20.413 -0.043 -20.411 -0.044 -20.359 -0.059 -20.339 -0.062 -20.226 -0.088 9.320 0.070 3.226 0.038 43.748 41.630
10.400 -20.264 -0.062 -20.271 -0.060 -20.323 -0.054 -20.395 -0.046 -20.400 -0.045 -20.399 -0.046 -20.352 -0.061 -20.333 -0.065 -20.225 -0.093 9.223 0.059 3.259 0.033 43.739 41.543
10.800 -20.244 -0.063 -20.251 -0.061 -20.304 -0.055 -20.380 -0.048 -20.386 -0.046 -20.387 -0.047 -20.346 -0.064 -20.328 -0.068 -20.225 -0.098 9.124 0.050 3.294 0.029 43.729 41.453
11.200 -20.222 -0.064 -20.229 -0.063 -20.284 -0.056 -20.364 -0.049 -20.372 -0.048 -20.374 -0.049 -20.339 -0.066 -20.322 -0.071 -20.224 -0.103 9.024 0.043 3.330 0.026 43.719 41.367
11.600 -20.200 -0.065 -20.207 -0.064 -20.263 -0.057 -20.348 -0.051 -20.357 -0.049 -20.361 -0.050 -20.332 -0.069 -20.317 -0.074 -20.223 -0.108 8.923 0.038 3.368 0.024 43.710 41.300
12.000 -20.177 -0.066 -20.184 -0.064 -20.241 -0.058 -20.332 -0.052 -20.342 -0.051 -20.348 -0.052 -20.325 -0.071 -20.311 -0.077 -20.223 -0.112 8.849 0.039 3.389 0.025 43.700 41.289
12.400 -20.153 -0.067 -20.161 -0.065 -20.219 -0.059 -20.315 -0.053 -20.327 -0.052 -20.335 -0.053 -20.318 -0.074 -20.306 -0.080 -20.222 -0.117 8.719 0.039 3.447 0.026 43.690 41.269
12.800 -20.128 -0.067 -20.136 -0.066 -20.197 -0.059 -20.297 -0.054 -20.311 -0.053 -20.321 -0.054 -20.311 -0.076 -20.300 -0.083 -20.222 -0.121 8.617 0.043 3.488 0.030 43.680 41.293
13.200 -20.103 -0.068 -20.111 -0.066 -20.173 -0.059 -20.279 -0.055 -20.295 -0.054 -20.307 -0.055 -20.304 -0.078 -20.294 -0.086 -20.221 -0.125 8.516 0.049 3.531 0.035 43.669 41.325
13.600 -20.077 -0.068 -20.086 -0.067 -20.149 -0.059 -20.261 -0.055 -20.279 -0.055 -20.293 -0.056 -20.296 -0.080 -20.288 -0.088 -20.221 -0.129 8.415 0.055 3.574 0.041 43.659 41.356
14.000 -20.051 -0.069 -20.060 -0.067 -20.125 -0.059 -20.243 -0.056 -20.262 -0.056 -20.278 -0.057 -20.288 -0.082 -20.281 -0.090 -20.220 -0.133 8.316 0.062 3.618 0.047 43.649 41.383
14.400 -20.024 -0.069 -20.033 -0.067 -20.100 -0.059 -20.224 -0.056 -20.246 -0.056 -20.263 -0.058 -20.280 -0.084 -20.275 -0.092 -20.219 -0.136 8.218 0.068 3.662 0.054 43.639 41.406
14.800 -19.997 -0.069 -20.006 -0.067 -20.074 -0.059 -20.205 -0.057 -20.228 -0.057 -20.248 -0.059 -20.272 -0.086 -20.268 -0.094 -20.218 -0.139 8.122 0.075 3.707 0.061 43.629 41.424
15.200 -19.969 -0.069 -19.978 -0.067 -20.048 -0.058 -20.185 -0.057 -20.211 -0.057 -20.233 -0.060 -20.264 -0.087 -20.261 -0.096 -20.217 -0.142 8.027 0.081 3.752 0.069 43.620 41.439
15.600 -19.941 -0.069 -19.950 -0.067 -20.022 -0.058 -20.165 -0.057 -20.193 -0.058 -20.217 -0.060 -20.255 -0.088 -20.254 -0.097 -20.215 -0.145 7.934 0.087 3.797 0.077 43.610 41.451
16.000 -19.913 -0.069 -19.922 -0.067 -19.995 -0.058 -20.145 -0.057 -20.175 -0.058 -20.201 -0.061 -20.246 -0.089 -20.246 -0.098 -20.213 -0.147 7.843 0.092 3.842 0.085 43.600 41.462
16.400 -19.884 -0.069 -19.893 -0.067 -19.968 -0.057 -20.125 -0.057 -20.157 -0.058 -20.185 -0.061 -20.236 -0.090 -20.239 -0.099 -20.211 -0.149 7.755 0.098 3.887 0.093 43.590 41.472
16.800 -19.855 -0.069 -19.865 -0.067 -19.941 -0.057 -20.104 -0.057 -20.138 -0.058 -20.169 -0.061 -20.227 -0.091 -20.230 -0.100 -20.209 -0.151 7.670 0.103 3.930 0.101 43.581 41.482
17.200 -19.826 -0.069 -19.836 -0.067 -19.914 -0.057 -20.084 -0.057 -20.119 -0.058 -20.152 -0.061 -20.217 -0.091 -20.222 -0.101 -20.207 -0.152 7.587 0.108 3.973 0.109 43.571 41.492
17.600 -19.797 -0.069 -19.807 -0.067 -19.886 -0.056 -20.063 -0.056 -20.100 -0.058 -20.135 -0.061 -20.206 -0.091 -20.213 -0.101 -20.204 -0.153 7.508 0.112 4.014 0.117 43.562 41.502
18.000 -19.768 -0.069 -19.778 -0.067 -19.859 -0.056 -20.041 -0.056 -20.081 -0.058 -20.117 -0.061 -20.196 -0.091 -20.204 -0.101 -20.201 -0.154 7.433 0.117 4.052 0.126 43.553 41.513
18.400 -19.740 -0.069 -19.750 -0.067 -19.832 -0.056 -20.020 -0.056 -20.061 -0.057 -20.100 -0.061 -20.185 -0.091 -20.195 -0.101 -20.197 -0.154 7.361 0.121 4.089 0.134 43.544 41.524
18.800 -19.712 -0.069 -19.722 -0.067 -19.805 -0.056 -19.999 -0.056 -20.042 -0.057 -20.082 -0.061 -20.173 -0.091 -20.185 -0.101 -20.193 -0.155 7.294 0.126 4.123 0.142 43.535 41.536
19.200 -19.684 -0.070 -19.694 -0.067 -19.779 -0.056 -19.978 -0.056 -20.022 -0.057 -20.064 -0.061 -20.162 -0.091 -20.174 -0.100 -20.189 -0.155 7.229 0.130 4.155 0.151 43.526 41.548
19.600 -19.656 -0.070 -19.667 -0.068 -19.753 -0.057 -19.956 -0.056 -20.002 -0.057 -20.046 -0.061 -20.150 -0.090 -20.164 -0.100 -20.185 -0.154 7.168 0.134 4.185 0.159 43.518 41.560
20.000 -19.629 -0.071 -19.640 -0.069 -19.728 -0.058 -19.935 -0.056 -19.982 -0.057 -20.027 -0.061 -20.137 -0.090 -20.153 -0.099 -20.180 -0.154 7.111 0.138 4.212 0.167 43.510 41.572
20.400 -19.602 -0.073 -19.613 -0.070 -19.703 -0.059 -19.914 -0.057 -19.962 -0.058 -20.009 -0.061 -20.125 -0.089 -20.142 -0.098 -20.174 -0.153 7.055 0.142 4.239 0.175 43.501 41.584
20.800 -19.576 -0.074 -19.587 -0.072 -19.679 -0.061 -19.893 -0.057 -19.942 -0.058 -19.990 -0.061 -20.112 -0.088 -20.130 -0.097 -20.168 -0.152 7.001 0.146 4.265 0.183 43.493 41.596
21.200 -19.550 -0.076 -19.561 -0.074 -19.655 -0.062 -19.872 -0.058 -19.922 -0.059 -19.971 -0.061 -20.098 -0.087 -20.118 -0.096 -20.162 -0.151 6.949 0.150 4.290 0.191 43.485 41.608
21.600 -19.524 -0.078 -19.536 -0.076 -19.631 -0.064 -19.851 -0.059 -19.902 -0.060 -19.952 -0.062 -20.085 -0.087 -20.106 -0.095 -20.155 -0.150 6.898 0.153 4.314 0.199 43.478 41.619
22.000 -19.499 -0.080 -19.511 -0.078 -19.607 -0.066 -19.830 -0.060 -19.882 -0.061 -19.933 -0.063 -20.071 -0.086 -20.093 -0.094 -20.148 -0.149 6.849 0.157 4.339 0.207 43.470 41.630
22.400 -19.474 -0.082 -19.485 -0.080 -19.583 -0.068 -19.809 -0.062 -19.862 -0.062 -19.914 -0.064 -20.057 -0.085 -20.080 -0.093 -20.140 -0.148 6.800 0.160 4.363 0.215 43.462 41.640
22.800 -19.448 -0.085 -19.460 -0.083 -19.559 -0.071 -19.788 -0.063 -19.841 -0.063 -19.895 -0.065 -20.042 -0.085 -20.067 -0.092 -20.132 -0.146 6.752 0.164 4.387 0.222 43.455 41.649
23.200 -19.423 -0.087 -19.435 -0.085 -19.536 -0.073 -19.766 -0.065 -19.821 -0.064 -19.876 -0.066 -20.027 -0.084 -20.053 -0.091 -20.123 -0.145 6.705 0.167 4.410 0.230 43.447 41.657
23.600 -19.398 -0.090 -19.410 -0.088 -19.512 -0.076 -19.745 -0.066 -19.801 -0.066 -19.856 -0.067 -20.012 -0.084 -20.039 -0.091 -20.114 -0.143 6.658 0.169 4.434 0.237 43.440 41.665
24.000 -19.372 -0.093 -19.385 -0.091 -19.488 -0.079 -19.724 -0.068 -19.780 -0.067 -19.836 -0.068 -19.997 -0.084 -20.025 -0.090 -20.104 -0.141 6.612 0.171 4.457 0.243 43.432 41.671
24.400 -19.347 -0.096 -19.360 -0.094 -19.464 -0.081 -19.702 -0.070 -19.759 -0.069 -19.817 -0.070 -19.981 -0.083 -20.010 -0.090 -20.093 -0.140 6.568 0.173 4.480 0.249 43.425 41.677
24.800 -19.321 -0.099 -19.334 -0.097 -19.440 -0.084 -19.681 -0.072 -19.738 -0.071 -19.796 -0.071 -19.964 -0.083 -19.994 -0.089 -20.082 -0.138 6.524 0.175 4.500 0.255 43.417 41.682
25.200 -19.295 -0.102 -19.308 -0.100 -19.415 -0.087 -19.658 -0.074 -19.717 -0.073 -19.776 -0.073 -19.947 -0.083 -19.978 -0.089 -20.070 -0.136 6.482 0.176 4.519 0.260 43.410 41.685
25.600 -19.268 -0.105 -19.281 -0.103 -19.390 -0.090 -19.635 -0.076 -19.695 -0.075 -19.754 -0.075 -19.929 -0.084 -19.961 -0.088 -20.057 -0.135 6.441 0.177 4.536 0.265 43.402 41.688
26.000 -19.241 -0.108 -19.255 -0.106 -19.364 -0.093 -19.612 -0.079 -19.672 -0.077 -19.733 -0.076 -19.911 -0.084 -19.944 -0.088 -20.043 -0.134 6.401 0.178 4.550 0.270 43.394 41.690
26.400 -19.213 -0.111 -19.227 -0.109 -19.338 -0.096 -19.588 -0.081 -19.649 -0.079 -19.710 -0.078 -19.891 -0.084 -19.925 -0.088 -20.029 -0.132 6.363 0.179 4.560 0.274 43.386 41.691
26.800 -19.185 -0.114 -19.199 -0.112 -19.311 -0.099 -19.563 -0.083 -19.625 -0.081 -19.687 -0.080 -19.871 -0.085 -19.905 -0.088 -20.013 -0.131 6.327 0.180 4.568 0.278 43.377 41.692
27.200 -19.156 -0.118 -19.170 -0.115 -19.283 -0.102 -19.538 -0.085 -19.600 -0.083 -19.663 -0.082 -19.850 -0.085 -19.885 -0.089 -19.997 -0.131 6.292 0.181 4.571 0.282 43.368 41.691
27.600 -19.126 -0.121 -19.140 -0.119 -19.254 -0.105 -19.511 -0.088 -19.574 -0.085 -19.638 -0.084 -19.827 -0.086 -19.863 -0.089 -19.980 -0.130 6.259 0.182 4.571 0.285 43.359 41.691
28.000 -19.096 -0.124 -19.110 -0.122 -19.225 -0.108 -19.484 -0.090 -19.547 -0.088 -19.612 -0.086 -19.804 -0.087 -19.841 -0.090 -19.962 -0.130 6.228 0.182 4.566 0.288 43.349 41.690
28.400 -19.064 -0.127 -19.078 -0.125 -19.194 -0.111 -19.456 -0.093 -19.520 -0.090 -19.584 -0.088 -19.779 -0.088 -19.817 -0.091 -19.943 -0.130 6.198 0.183 4.557 0.291 43.339 41.688
28.800 -19.031 -0.130 -19.046 -0.128 -19.163 -0.114 -19.427 -0.095 -19.491 -0.092 -19.556 -0.090 -19.753 -0.089 -19.792 -0.092 -19.923 -0.131 6.170 0.184 4.543 0.294 43.329 41.686
29.200 -18.998 -0.133 -19.012 -0.131 -19.130 -0.117 -19.397 -0.098 -19.461 -0.095 -19.527 -0.092 -19.726 -0.091 -19.766 -0.093 -19.902 -0.132 6.143 0.185 4.526 0.296 43.318 41.683
29.600 -18.963 -0.137 -18.978 -0.134 -19.097 -0.120 -19.365 -0.100 -19.431 -0.097 -19.497 -0.095 -19.698 -0.092 -19.738 -0.095 -19.880 -0.133 6.118 0.186 4.504 0.299 43.306 41.681
30.000 -18.928 -0.140 -18.943 -0.138 -19.063 -0.123 -19.333 -0.103 -19.399 -0.100 -19.466 -0.097 -19.669 -0.094 -19.710 -0.096 -19.858 -0.135 6.093 0.188 4.480 0.301 43.295 41.679
30.400 -18.892 -0.143 -18.907 -0.141 -19.028 -0.126 -19.300 -0.106 -19.366 -0.102 -19.433 -0.099 -19.639 -0.096 -19.681 -0.098 -19.835 -0.137 6.070 0.189 4.452 0.304 43.283 41.676
30.800 -18.855 -0.146 -18.870 -0.144 -18.992 -0.129 -19.267 -0.108 -19.333 -0.105 -19.400 -0.102 -19.609 -0.098 -19.651 -0.100 -19.811 -0.139 6.047 0.191 4.422 0.307 43.270 41.674
31.200 -18.817 -0.149 -18.833 -0.147 -18.955 -0.132 -19.232 -0.111 -19.299 -0.107 -19.367 -0.104 -19.577 -0.100 -19.621 -0.102 -19.787 -0.141 6.024 0.193 4.391 0.309 43.257 41.671
31.600 -18.779 -0.151 -18.794 -0.149 -18.918 -0.134 -19.197 -0.113 -19.264 -0.109 -19.332 -0.106 -19.545 -0.102 -19.590 -0.104 -19.762 -0.143 6.002 0.195 4.358 0.312 43.245 41.669
32.000 -18.740 -0.154 -18.756 -0.152 -18.880 -0.137 -19.161 -0.115 -19.229 -0.111 -19.298 -0.108 -19.513 -0.103 -19.559 -0.105 -19.737 -0.145 5.979 0.196 4.325 0.315 43.231 41.666
32.400 -18.701 -0.156 -18.716 -0.154 -18.841 -0.139 -19.125 -0.117 -19.193 -0.113 -19.262 -0.110 -19.480 -0.105 -19.527 -0.107 -19.711 -0.148 5.957 0.198 4.292 0.318 43.218 41.664
32.800 -18.661 -0.159 -18.676 -0.156 -18.802 -0.141 -19.088 -0.119 -19.157 -0.115 -19.227 -0.112 -19.447 -0.107 -19.495 -0.109 -19.685 -0.150 5.934 0.200 4.258 0.321 43.205 41.662
33.200 -18.621 -0.160 -18.636 -0.158 -18.762 -0.143 -19.051 -0.120 -19.120 -0.117 -19.191 -0.113 -19.414 -0.108 -19.463 -0.110 -19.659 -0.152 5.911 0.202 4.225 0.324 43.191 41.660
33.600 -18.580 -0.162 -18.595 -0.160 -18.722 -0.145 -19.013 -0.122 -19.083 -0.118 -19.155 -0.114 -19.382 -0.109 -19.431 -0.111 -19.633 -0.154 5.887 0.204 4.194 0.328 43.178 41.658
34.000 -18.539 -0.164 -18.554 -0.162 -18.682 -0.146 -18.975 -0.123 -19.046 -0.119 -19.119 -0.116 -19.349 -0.111 -19.400 -0.113 -19.607 -0.156 5.862 0.206 4.164 0.331 43.164 41.656
34.400 -18.497 -0.165 -18.513 -0.163 -18.642 -0.147 -18.938 -0.124 -19.009 -0.120 -19.083 -0.116 -19.317 -0.112 -19.368 -0.114 -19.581 -0.158 5.837 0.208 4.135 0.335 43.151 41.654
34.800 -18.456 -0.166 -18.471 -0.164 -18.601 -0.148 -18.900 -0.125 -18.972 -0.121 -19.047 -0.117 -19.285 -0.112 -19.337 -0.115 -19.555 -0.160 5.811 0.210 4.109 0.339 43.137 41.653
35.200 -18.414 -0.167 -18.430 -0.164 -18.560 -0.149 -18.862 -0.125 -18.935 -0.121 -19.011 -0.117 -19.253 -0.113 -19.307 -0.116 -19.529 -0.162 5.784 0.212 4.083 0.342 43.124 41.652
35.600 -18.372 -0.167 -18.388 -0.165 -18.519 -0.149 -18.824 -0.125 -18.898 -0.121 -18.975 -0.117 -19.222 -0.113 -19.277 -0.116 -19.504 -0.164 5.757 0.213 4.060 0.346 43.110 41.650
36.000 -18.330 -0.167 -18.346 -0.165 -18.478 -0.149 -18.786 -0.125 -18.862 -0.121 -18.939 -0.117 -19.191 -0.113 -19.247 -0.116 -19.478 -0.165 5.729 0.215 4.037 0.350 43.097 41.649
36.400 -18.289 -0.167 -18.305 -0.165 -18.437 -0.148 -18.749 -0.124 -18.825 -0.120 -18.904 -0.117 -19.160 -0.113 -19.217 -0.116 -19.453 -0.166 5.701 0.216 4.017 0.354 43.084 41.648
36.800 -18.247 -0.167 -18.263 -0.165 -18.397 -0.148 -18.711 -0.123 -18.789 -0.119 -18.869 -0.116 -19.130 -0.113 -19.188 -0.116 -19.427 -0.168 5.672 0.217 3.997 0.358 43.071 41.646
37.200 -18.205 -0.167 -18.222 -0.164 -18.356 -0.147 -18.674 -0.122 -18.753 -0.118 -18.834 -0.115 -19.100 -0.112 -19.159 -0.115 -19.402 -0.169 5.644 0.218 3.978 0.361 43.059 41.644
37.600 -18.164 -0.166 -18.180 -0.164 -18.316 -0.146 -18.637 -0.120 -18.717 -0.117 -18.800 -0.113 -19.070 -0.111 -19.130 -0.115 -19.377 -0.170 5.615 0.219 3.961 0.365 43.046 41.642
38.000 -18.123 -0.165 -18.139 -0.163 -18.276 -0.145 -18.601 -0.119 -18.682 -0.115 -18.766 -0.111 -19.041 -0.109 -19.102 -0.113 -19.353 -0.170 5.587 0.220 3.944 0.368 43.033 41.639
38.400 -18.082 -0.164 -18.099 -0.162 -18.236 -0.143 -18.565 -0.117 -18.647 -0.113 -18.732 -0.109 -19.012 -0.108 -19.074 -0.112 -19.328 -0.171 5.558 0.221 3.929 0.372 43.021 41.636
38.800 -18.042 -0.163 -18.058 -0.161 -18.197 -0.142 -18.529 -0.114 -18.613 -0.110 -18.699 -0.107 -18.983 -0.106 -19.046 -0.110 -19.304 -0.172 5.530 0.222 3.914 0.375 43.009 41.633
39.200 -18.002 -0.162 -18.018 -0.159 -18.158 -0.140 -18.494 -0.112 -18.579 -0.108 -18.666 -0.105 -18.955 -0.103 -19.019 -0.108 -19.280 -0.172 5.501 0.222 3.900 0.378 42.997 41.629
39.600 -17.962 -0.161 -17.979 -0.158 -18.119 -0.138 -18.459 -0.109 -18.545 -0.105 -18.634 -0.102 -18.927 -0.101 -18.992 -0.106 -19.256 -0.173 5.473 0.223 3.887 0.381 42.985 41.625
40.000 -17.923 -0.160 -17.940 -0.157 -18.081 -0.137 -18.425 -0.107 -18.512 -0.103 -18.602 -0.099 -18.899 -0.099 -18.965 -0.104 -19.232 -0.173 5.445 0.223 3.875 0.384 42.973 41.621
40.400 -17.885 -0.159 -17.902 -0.156 -18.044 -0.135 -18.391 -0.104 -18.479 -0.100 -18.571 -0.096 -18.872 -0.096 -18.938 -0.102 -19.208 -0.174 5.417 0.223 3.864 0.387 42.962 41.617
40.800 -17.847 -0.158 -17.864 -0.155 -18.007 -0.133 -18.358 -0.102 -18.447 -0.097 -18.540 -0.094 -18.845 -0.094 -18.912 -0.100 -19.185 -0.175 5.390 0.224 3.853 0.390 42.951 41.612
41.200 -17.810 -0.157 -17.827 -0.154 -17.971 -0.132 -18.326 -0.099 -18.415 -0.095 -18.509 -0.091 -18.818 -0.091 -18.886 -0.098 -19.161 -0.175 5.364 0.224 3.841 0.392 42.940 41.608
41.600 -17.774 -0.157 -17.791 -0.154 -17.936 -0.131 -18.293 -0.097 -18.384 -0.093 -18.479 -0.089 -18.791 -0.089 -18.860 -0.097 -19.138 -0.176 5.339 0.225 3.829 0.395 42.929 41.603
42.000 -17.738 -0.156 -17.756 -0.153 -17.901 -0.131 -18.262 -0.096 -18.354 -0.091 -18.449 -0.088 -18.765 -0.088 -18.834 -0.096 -19.115 -0.177 5.316 0.225 3.816 0.397 42.918 41.599
42.400 -17.704 -0.157 -17.721 -0.154 -17.868 -0.131 -18.231 -0.095 -18.324 -0.090 -18.420 -0.087 -18.739 -0.087 -18.809 -0.095 -19.092 -0.179 5.295 0.225 3.800 0.399 42.908 41.595
42.800 -17.670 -0.157 -17.688 -0.154 -17.835 -0.131 -18.201 -0.095 -18.294 -0.090 -18.391 -0.086 -18.713 -0.087 -18.784 -0.095 -19.070 -0.180 5.277 0.226 3.780 0.400 42.897 41.591
43.200 -17.638 -0.158 -17.655 -0.155 -17.803 -0.132 -18.171 -0.095 -18.265 -0.091 -18.363 -0.087 -18.687 -0.088 -18.758 -0.096 -19.047 -0.182 5.262 0.226 3.756 0.401 42.887 41.588
43.600 -17.606 -0.160 -17.624 -0.157 -17.772 -0.134 -18.142 -0.097 -18.236 -0.092 -18.335 -0.089 -18.662 -0.090 -18.734 -0.098 -19.025 -0.184 5.252 0.227 3.726 0.400 42.877 41.585
44.000 -17.576 -0.162 -17.593 -0.159 -17.742 -0.136 -18.113 -0.099 -18.208 -0.095 -18.308 -0.091 -18.637 -0.093 -18.709 -0.101 -19.003 -0.187 5.244 0.227 3.693 0.400 42.866 41.582
44.400 -17.546 -0.165 -17.564 -0.162 -17.713 -0.138 -18.085 -0.103 -18.181 -0.098 -18.281 -0.094 -18.612 -0.097 -18.685 -0.105 -18.981 -0.189 5.240 0.228 3.657 0.399 42.856 41.579
44.800 -17.517 -0.168 -17.535 -0.165 -17.685 -0.142 -18.058 -0.107 -18.154 -0.102 -18.254 -0.098 -18.587 -0.101 -18.660 -0.110 -18.959 -0.192 5.237 0.229 3.619 0.397 42.846 41.576
45.200 -17.490 -0.171 -17.507 -0.168 -17.657 -0.145 -18.031 -0.111 -18.128 -0.107 -18.228 -0.103 -18.563 -0.106 -18.637 -0.115 -18.937 -0.195 5.235 0.229 3.581 0.395 42.837 41.573
45.600 -17.463 -0.175 -17.480 -0.172 -17.631 -0.150 -18.005 -0.116 -18.102 -0.112 -18.203 -0.108 -18.539 -0.112 -18.613 -0.120 -18.916 -0.199 5.235 0.230 3.542 0.393 42.827 41.570
46.000 -17.437 -0.178 -17.454 -0.176 -17.605 -0.154 -17.980 -0.122 -18.077 -0.117 -18.178 -0.114 -18.515 -0.118 -18.590 -0.126 -18.894 -0.202 5.235 0.231 3.505 0.391 42.818 41.567
46.400 -17.412 -0.183 -17.429 -0.180 -17.580 -0.159 -17.955 -0.127 -18.052 -0.123 -18.153 -0.120 -18.491 -0.124 -18.567 -0.132 -18.873 -0.206 5.235 0.231 3.467 0.388 42.808 41.563
46.800 -17.387 -0.187 -17.405 -0.184 -17.556 -0.164 -17.931 -0.133 -18.028 -0.129 -18.129 -0.126 -18.469 -0.131 -18.544 -0.138 -18.852 -0.210 5.235 0.231 3.431 0.386 42.799 41.560
47.200 -17.363 -0.191 -17.381 -0.188 -17.532 -0.169 -17.908 -0.139 -18.005 -0.135 -18.106 -0.132 -18.446 -0.137 -18.522 -0.144 -18.832 -0.214 5.236 0.232 3.396 0.383 42.791 41.556
47.600 -17.341 -0.196 -17.358 -0.193 -17.510 -0.174 -17.885 -0.145 -17.982 -0.142 -18.083 -0.139 -18.424 -0.144 -18.500 -0.151 -18.811 -0.218 5.237 0.232 3.362 0.380 42.782 41.551
48.000 -17.318 -0.200 -17.336 -0.198 -17.488 -0.179 -17.863 -0.151 -17.960 -0.148 -18.061 -0.145 -18.402 -0.151 -18.479 -0.157 -18.791 -0.222 5.237 0.232 3.328 0.378 42.774 41.547
48.400 -17.297 -0.205 -17.315 -0.202 -17.466 -0.184 -17.841 -0.157 -17.938 -0.154 -18.040 -0.151 -18.381 -0.157 -18.457 -0.163 -18.771 -0.227 5.239 0.232 3.296 0.375 42.766 41.542
48.800 -17.276 -0.209 -17.294 -0.207 -17.445 -0.189 -17.820 -0.163 -17.917 -0.160 -18.019 -0.158 -18.360 -0.163 -18.437 -0.169 -18.751 -0.231 5.240 0.232 3.264 0.372 42.758 41.537
49.200 -17.256 -0.213 -17.274 -0.211 -17.425 -0.194 -17.800 -0.169 -17.897 -0.166 -17.998 -0.164 -18.339 -0.169 -18.416 -0.175 -18.731 -0.235 5.241 0.232 3.233 0.368 42.750 41.531
49.600 -17.236 -0.218 -17.254 -0.215 -17.406 -0.198 -17.780 -0.175 -17.877 -0.172 -17.978 -0.170 -18.319 -0.175 -18.396 -0.181 -18.712 -0.238 5.243 0.232 3.202 0.365 42.742 41.525
50.000 -17.217 -0.222 -17.235 -0.219 -17.387 -0.203 -17.761 -0.180 -17.857 -0.177 -17.959 -0.175 -18.300 -0.181 -18.377 -0.187 -18.693 -0.242 5.245 0.232 3.173 0.362 42.735 41.519
50.400 -17.199 -0.225 -17.217 -0.223 -17.369 -0.207 -17.742 -0.185 -17.839 -0.182 -17.940 -0.181 -18.281 -0.186 -18.358 -0.192 -18.674 -0.246 5.247 0.232 3.143 0.358 42.727 41.513
50.800 -17.181 -0.229 -17.199 -0.227 -17.351 -0.212 -17.724 -0.190 -17.820 -0.187 -17.921 -0.186 -18.262 -0.192 -18.339 -0.197 -18.655 -0.249 5.249 0.232 3.115 0.355 42.720 41.507
51.200 -17.163 -0.232 -17.182 -0.230 -17.334 -0.215 -17.707 -0.195 -17.803 -0.192 -17.904 -0.191 -18.244 -0.196 -18.321 -0.201 -18.637 -0.253 5.252 0.232 3.087 0.351 42.713 41.500
51.600 -17.147 -0.236 -17.165 -0.234 -17.317 -0.219 -17.690 -0.199 -17.786 -0.197 -17.886 -0.195 -18.226 -0.201 -18.303 -0.206 -18.619 -0.256 5.254 0.231 3.059 0.347 42.706 41.493
52.000 -17.130 -0.239 -17.149 -0.237 -17.301 -0.222 -17.673 -0.203 -17.769 -0.201 -17.869 -0.199 -18.208 -0.205 -18.285 -0.210 -18.601 -0.258 5.257 0.231 3.032 0.343 42.699 41.486
52.400 -17.115 -0.241 -17.133 -0.239 -17.285 -0.225 -17.657 -0.207 -17.753 -0.204 -17.853 -0.203 -18.191 -0.209 -18.268 -0.214 -18.584 -0.261 5.260 0.230 3.006 0.339 42.693 41.478
52.800 -17.099 -0.244 -17.117 -0.242 -17.270 -0.228 -17.642 -0.210 -17.737 -0.208 -17.837 -0.206 -18.175 -0.212 -18.251 -0.217 -18.566 -0.263 5.264 0.230 2.980 0.335 42.686 41.471
53.200 -17.084 -0.246 -17.103 -0.244 -17.255 -0.230 -17.627 -0.213 -17.722 -0.211 -17.822 -0.210 -18.159 -0.215 -18.235 -0.220 -18.549 -0.265 5.267 0.229 2.954 0.331 42.680 41.463
53.600 -17.070 -0.247 -17.088 -0.245 -17.241 -0.232 -17.613 -0.215 -17.708 -0.213 -17.807 -0.212 -18.143 -0.218 -18.219 -0.223 -18.532 -0.267 5.271 0.228 2.930 0.327 42.674 41.455
54.000 -17.056 -0.249 -17.074 -0.247 -17.227 -0.234 -17.599 -0.217 -17.693 -0.215 -17.793 -0.214 -18.127 -0.220 -18.203 -0.225 -18.516 -0.269 5.275 0.227 2.905 0.323 42.668 41.447
54.400 -17.043 -0.250 -17.061 -0.248 -17.214 -0.235 -17.585 -0.219 -17.680 -0.217 -17.779 -0.216 -18.112 -0.222 -18.188 -0.227 -18.499 -0.270 5.279 0.227 2.881 0.319 42.662 41.439
54.800 -17.029 -0.250 -17.048 -0.248 -17.201 -0.236 -17.572 -0.220 -17.666 -0.219 -17.765 -0.218 -18.098 -0.224 -18.173 -0.228 -18.483 -0.271 5.283 0.226 2.857 0.314 42.656 41.431
55.200 -17.017 -0.251 -17.035 -0.249 -17.188 -0.236 -17.559 -0.221 -17.653 -0.219 -17.752 -0.219 -18.083 -0.225 -18.158 -0.229 -18.467 -0.271 5.287 0.225 2.834 0.310 42.651 41.423
55.600 -17.004 -0.250 -17.023 -0.249 -17.176 -0.237 -17.547 -0.221 -17.641 -0.220 -17.739 -0.219 -18.069 -0.225 -18.144 -0.230 -18.451 -0.271 5.292 0.223 2.811 0.306 42.645 41.414
56.000 -16.992 -0.250 -17.011 -0.248 -17.164 -0.236 -17.535 -0.221 -17.629 -0.220 -17.727 -0.219 -18.056 -0.226 -18.130 -0.230 -18.436 -0.271 5.297 0.222 2.789 0.301 42.640 41.405
56.400 -16.980 -0.249 -16.999 -0.247 -17.153 -0.236 -17.523 -0.221 -17.617 -0.220 -17.715 -0.219 -18.042 -0.225 -18.116 -0.230 -18.420 -0.271 5.301 0.221 2.767 0.297 42.634 41.397
56.800 -16.969 -0.248 -16.987 -0.246 -17.142 -0.234 -17.512 -0.220 -17.606 -0.219 -17.703 -0.218 -18.029 -0.225 -18.103 -0.229 -18.405 -0.270 5.306 0.220 2.745 0.292 42.629 41.388
57.200 -16.958 -0.247 -16.976 -0.245 -17.131 -0.233 -17.501 -0.219 -17.595 -0.218 -17.692 -0.217 -18.017 -0.224 -18.090 -0.228 -18.390 -0.269 5.311 0.218 2.724 0.288 42.624 41.378
57.600 -16.947 -0.245 -16.966 -0.243 -17.120 -0.231 -17.491 -0.217 -17.584 -0.216 -17.681 -0.215 -18.004 -0.222 -18.077 -0.226 -18.376 -0.268 5.317 0.217 2.703 0.283 42.619 41.369
58.000 -16.936 -0.242 -16.955 -0.241 -17.110 -0.229 -17.480 -0.215 -17.574 -0.214 -17.671 -0.213 -17.992 -0.220 -18.064 -0.224 -18.361 -0.266 5.322 0.215 2.682 0.278 42.614 41.360
58.400 -16.926 -0.240 -16.945 -0.238 -17.100 -0.226 -17.471 -0.212 -17.564 -0.211 -17.660 -0.211 -17.980 -0.218 -18.052 -0.222 -18.346 -0.264 5.328 0.214 2.662 0.274 42.609 41.350
58.800 -16.916 -0.237 -16.935 -0.235 -17.090 -0.223 -17.461 -0.209 -17.554 -0.208 -17.650 -0.208 -17.969 -0.215 -18.040 -0.219 -18.332 -0.262 5.334 0.212 2.641 0.269 42.605 41.340
59.200 -16.906 -0.233 -16.925 -0.232 -17.081 -0.219 -17.452 -0.205 -17.544 -0.205 -17.641 -0.204 -17.957 -0.212 -18.028 -0.216 -18.318 -0.260 5.340 0.210 2.621 0.264 42.600 41.330
59.600 -16.897 -0.230 -16.915 -0.228 -17.071 -0.215 -17.443 -0.201 -17.535 -0.201 -17.631 -0.201 -17.946 -0.208 -18.016 -0.213 -18.304 -0.257 5.346 0.209 2.601 0.259 42.595 41.319
60.000 -16.887 -0.226 -16.906 -0.224 -17.062 -0.211 -17.434 -0.197 -17.526 -0.196 -17.622 -0.196 -17.935 -0.204 -18.004 -0.209 -18.290 -0.254 5.352 0.207 2.581 0.255 42.591 41.309
60.400 -16.878 -0.222 -16.897 -0.220 -17.053 -0.206 -17.425 -0.192 -17.517 -0.192 -17.613 -0.192 -17.924 -0.200 -17.993 -0.205 -18.276 -0.251 5.359 0.205 2.561 0.250 42.586 41.298
60.800 -16.869 -0.217 -16.888 -0.215 -17.045 -0.201 -17.417 -0.187 -17.509 -0.186 -17.604 -0.187 -17.913 -0.195 -17.982 -0.200 -18.262 -0.248 5.366 0.203 2.541 0.245 42.581 41.287
61.200 -16.860 -0.212 -16.879 -0.210 -17.036 -0.196 -17.408 -0.182 -17.501 -0.181 -17.595 -0.181 -17.903 -0.191 -17.970 -0.196 -18.249 -0.244 5.373 0.201 2.521 0.240 42.577 41.275
61.600 -16.851 -0.208 -16.870 -0.205 -17.028 -0.191 -17.400 -0.176 -17.492 -0.175 -17.587 -0.175 -17.892 -0.185 -17.959 -0.191 -18.235 -0.241 5.380 0.199 2.501 0.235 42.572 41.264
62.000 -16.843 -0.203 -16.862 -0.200 -17.019 -0.185 -17.392 -0.170 -17.484 -0.169 -17.579 -0.169 -17.882 -0.180 -17.948 -0.185 -18.221 -0.238 5.388 0.197 2.481 0.231 42.568 41.252
62.400 -16.834 -0.198 -16.853 -0.195 -17.011 -0.179 -17.385 -0.163 -17.476 -0.163 -17.570 -0.163 -17.872 -0.174 -17.937 -0.180 -18.208 -0.234 5.395 0.195 2.461 0.226 42.563 41.239
62.800 -16.826 -0.193 -16.845 -0.190 -17.003 -0.174 -17.377 -0.157 -17.468 -0.156 -17.562 -0.157 -17.861 -0.169 -17.926 -0.175 -18.194 -0.231 5.403 0.194 2.441 0.221 42.558 41.227
63.200 -16.818 -0.188 -16.837 -0.185 -16.995 -0.168 -17.369 -0.150 -17.461 -0.149 -17.554 -0.150 -17.851 -0.163 -17.915 -0.169 -18.181 -0.228 5.411 0.192 2.420 0.217 42.554 41.214
63.600 -16.810 -0.183 -16.829 -0.180 -16.987 -0.162 -17.362 -0.143 -17.453 -0.143 -17.546 -0.143 -17.841 -0.157 -17.905 -0.164 -18.168 -0.225 5.420 0.190 2.400 0.212 42.549 41.201
64.000 -16.802 -0.178 -16.821 -0.176 -16.979 -0.157 -17.354 -0.137 -17.445 -0.136 -17.538 -0.137 -17.830 -0.152 -17.894 -0.159 -18.154 -0.222 5.428 0.189 2.379 0.208 42.544 41.187
64.400 -16.794 -0.174 -16.813 -0.171 -16.971 -0.151 -17.346 -0.131 -17.437 -0.130 -17.529 -0.131 -17.820 -0.146 -17.883 -0.154 -18.141 -0.220 5.437 0.187 2.359 0.204 42.540 41.174
64.800 -16.786 -0.171 -16.805 -0.168 -16.963 -0.147 -17.339 -0.125 -17.429 -0.124 -17.521 -0.125 -17.809 -0.142 -17.872 -0.150 -18.128 -0.218 5.446 0.186 2.338 0.200 42.535 41.161
65.200 -16.778 -0.168 -16.797 -0.165 -16.956 -0.143 -17.331 -0.119 -17.421 -0.118 -17.513 -0.119 -17.799 -0.138 -17.860 -0.146 -18.115 -0.217 5.455 0.185 2.318 0.197 42.530 41.147
65.600 -16.771 -0.166 -16.789 -0.162 -16.948 -0.140 -17.323 -0.115 -17.413 -0.114 -17.504 -0.115 -17.788 -0.134 -17.849 -0.144 -18.101 -0.217 5.463 0.185 2.298 0.193 42.525 41.135
66.000 -16.763 -0.165 -16.782 -0.161 -16.940 -0.138 -17.315 -0.111 -17.405 -0.110 -17.495 -0.112 -17.777 -0.132 -17.838 -0.142 -18.088 -0.217 5.473 0.184 2.278 0.190 42.521 41.123
66.400 -16.756 -0.165 -16.775 -0.161 -16.933 -0.137 -17.306 -0.109 -17.396 -0.108 -17.486 -0.110 -17.766 -0.131 -17.827 -0.141 -18.075 -0.218 5.482 0.184 2.258 0.187 42.516 41.112
66.800 -16.749 -0.166 -16.767 -0.162 -16.925 -0.137 -17.297 -0.109 -17.387 -0.108 -17.477 -0.109 -17.755 -0.132 -17.815 -0.142 -18.062 -0.220 5.491 0.184 2.238 0.185 42.511 41.102
67.200 -16.742 -0.168 -16.760 -0.164 -16.918 -0.140 -17.288 -0.111 -17.377 -0.109 -17.467 -0.111 -17.744 -0.133 -17.803 -0.144 -18.049 -0.222 5.501 0.184 2.219 0.183 42.507 41.094
67.600 -16.735 -0.172 -16.754 -0.168 -16.910 -0.143 -17.279 -0.114 -17.368 -0.113 -17.457 -0.114 -17.733 -0.137 -17.792 -0.147 -18.036 -0.226 5.511 0.184 2.200 0.181 42.503 41.088
