"Time (MJD)" B-4345.28 B-4345.28_err U-3520.88 U-3520.88_err UVM2-2245.03 UVM2-2245.03_err UVW1-2681.67 UVW1-2681.67_err UVW2-2083.95 UVW2-2083.95_err V-5411.45 V-5411.45_err cyan-5182.42 cyan-5182.42_err g-4671.78 g-4671.78_err g-4735.89 g-4735.89_err g-4746.48 g-4746.48_err g-4793.46 g-4793.46_err i-7457.89 i-7457.89_err i-7589.41 i-7589.41_err i-7645.77 i-7645.77_err i-7829.03 i-7829.03_err orange-6629.82 orange-6629.82_err r-6120.65 r-6120.65_err r-6141.12 r-6141.12_err r-6198.96 r-6198.96_err r-6366.38 r-6366.38_err u-3513.68 u-3513.68_err z-8970.57 z-8970.57_err "Temp./1e3 (K)" "Temp. Err." "Radius/1e15 (cm)" "Radius Err." "Log10(Bol. Lum)" "Log10(Bol. Err)"
-28.000 -17.112 -0.137 -17.250 -0.116 -17.548 -0.104 -17.813 -0.093 -17.813 -0.093 -17.734 -0.080 -17.676 -0.065 -17.666 -0.064 -17.664 -0.064 -17.657 -0.064 -17.605 -0.074 -17.583 -0.080 -17.500 -0.070 -17.496 -0.070 -17.482 -0.069 -17.438 -0.073 -17.352 -0.084 -17.123 -0.081 -17.101 -0.079 -17.093 -0.079 -17.069 -0.087 -16.791 -0.152 15.501 0.285 0.439 0.010 42.900 41.409
-27.600 -17.219 -0.131 -17.360 -0.110 -17.666 -0.100 -17.943 -0.089 -17.943 -0.089 -17.872 -0.076 -17.818 -0.060 -17.808 -0.058 -17.807 -0.058 -17.800 -0.058 -17.752 -0.069 -17.733 -0.076 -17.657 -0.063 -17.652 -0.063 -17.639 -0.063 -17.594 -0.067 -17.505 -0.080 -17.272 -0.076 -17.250 -0.073 -17.242 -0.074 -17.218 -0.081 -16.926 -0.147 15.289 0.294 0.478 0.011 42.948 41.475
-27.200 -17.324 -0.127 -17.468 -0.107 -17.782 -0.098 -18.071 -0.087 -18.072 -0.087 -18.010 -0.074 -17.959 -0.057 -17.950 -0.055 -17.948 -0.055 -17.942 -0.055 -17.899 -0.066 -17.882 -0.073 -17.812 -0.059 -17.808 -0.058 -17.794 -0.058 -17.748 -0.063 -17.655 -0.076 -17.420 -0.073 -17.399 -0.069 -17.390 -0.069 -17.366 -0.076 -17.060 -0.142 15.083 0.306 0.519 0.013 42.997 41.544
-26.800 -17.428 -0.126 -17.575 -0.106 -17.897 -0.098 -18.198 -0.087 -18.199 -0.087 -18.146 -0.073 -18.099 -0.056 -18.090 -0.055 -18.089 -0.055 -18.083 -0.055 -18.044 -0.065 -18.029 -0.071 -17.966 -0.055 -17.961 -0.055 -17.948 -0.055 -17.900 -0.060 -17.804 -0.074 -17.568 -0.070 -17.546 -0.066 -17.538 -0.066 -17.513 -0.073 -17.193 -0.139 14.886 0.318 0.563 0.015 43.045 41.613
-26.400 -17.530 -0.126 -17.681 -0.108 -18.011 -0.101 -18.324 -0.089 -18.325 -0.089 -18.280 -0.074 -18.237 -0.058 -18.229 -0.057 -18.228 -0.056 -18.223 -0.056 -18.188 -0.066 -18.175 -0.071 -18.118 -0.054 -18.113 -0.054 -18.099 -0.053 -18.049 -0.059 -17.951 -0.073 -17.714 -0.069 -17.692 -0.065 -17.684 -0.065 -17.659 -0.070 -17.324 -0.138 14.703 0.331 0.609 0.017 43.092 41.683
-26.000 -17.631 -0.129 -17.785 -0.112 -18.123 -0.104 -18.448 -0.092 -18.449 -0.092 -18.413 -0.077 -18.373 -0.061 -18.366 -0.060 -18.365 -0.059 -18.361 -0.059 -18.329 -0.067 -18.318 -0.072 -18.266 -0.054 -18.262 -0.054 -18.248 -0.053 -18.196 -0.059 -18.095 -0.074 -17.858 -0.069 -17.837 -0.065 -17.829 -0.064 -17.803 -0.068 -17.454 -0.137 14.534 0.342 0.659 0.019 43.140 41.750
-25.600 -17.731 -0.133 -17.888 -0.116 -18.234 -0.109 -18.570 -0.096 -18.571 -0.096 -18.545 -0.080 -18.508 -0.065 -18.502 -0.064 -18.501 -0.063 -18.496 -0.063 -18.469 -0.070 -18.459 -0.074 -18.411 -0.055 -18.407 -0.055 -18.392 -0.055 -18.339 -0.060 -18.236 -0.075 -18.001 -0.070 -17.980 -0.065 -17.972 -0.064 -17.946 -0.067 -17.582 -0.138 14.382 0.350 0.710 0.022 43.187 41.812
-25.200 -17.829 -0.138 -17.989 -0.122 -18.343 -0.115 -18.690 -0.101 -18.691 -0.101 -18.674 -0.084 -18.640 -0.069 -18.635 -0.068 -18.634 -0.068 -18.630 -0.067 -18.606 -0.073 -18.597 -0.077 -18.551 -0.057 -18.547 -0.057 -18.532 -0.057 -18.478 -0.062 -18.374 -0.076 -18.141 -0.071 -18.122 -0.065 -18.114 -0.064 -18.087 -0.066 -17.708 -0.139 14.245 0.355 0.763 0.024 43.233 41.869
-24.800 -17.925 -0.143 -18.088 -0.129 -18.451 -0.121 -18.809 -0.107 -18.810 -0.106 -18.801 -0.088 -18.770 -0.074 -18.765 -0.073 -18.765 -0.072 -18.761 -0.072 -18.740 -0.076 -18.732 -0.080 -18.686 -0.060 -18.682 -0.060 -18.667 -0.060 -18.612 -0.064 -18.509 -0.078 -18.280 -0.072 -18.260 -0.066 -18.253 -0.064 -18.226 -0.066 -17.832 -0.140 14.120 0.356 0.819 0.026 43.279 41.920
-24.400 -18.020 -0.150 -18.186 -0.136 -18.556 -0.128 -18.926 -0.112 -18.927 -0.112 -18.926 -0.092 -18.898 -0.078 -18.893 -0.077 -18.893 -0.077 -18.890 -0.076 -18.871 -0.079 -18.863 -0.082 -18.816 -0.064 -18.812 -0.063 -18.797 -0.063 -18.742 -0.067 -18.639 -0.079 -18.415 -0.074 -18.397 -0.067 -18.389 -0.065 -18.363 -0.065 -17.955 -0.142 14.006 0.355 0.877 0.028 43.324 41.967
-24.000 -18.112 -0.156 -18.282 -0.143 -18.660 -0.134 -19.041 -0.117 -19.042 -0.117 -19.049 -0.096 -19.023 -0.082 -19.019 -0.081 -19.018 -0.081 -19.015 -0.080 -18.998 -0.083 -18.991 -0.085 -18.941 -0.067 -18.937 -0.067 -18.922 -0.066 -18.868 -0.070 -18.766 -0.081 -18.548 -0.075 -18.530 -0.068 -18.523 -0.065 -18.496 -0.065 -18.075 -0.144 13.900 0.351 0.936 0.030 43.368 42.011
-23.600 -18.204 -0.163 -18.376 -0.151 -18.763 -0.140 -19.154 -0.122 -19.155 -0.122 -19.169 -0.100 -19.145 -0.086 -19.141 -0.085 -19.140 -0.084 -19.138 -0.084 -19.122 -0.085 -19.115 -0.088 -19.062 -0.070 -19.057 -0.070 -19.043 -0.069 -18.989 -0.072 -18.889 -0.083 -18.677 -0.076 -18.661 -0.068 -18.654 -0.066 -18.627 -0.064 -18.194 -0.147 13.802 0.346 0.998 0.032 43.411 42.051
-23.200 -18.293 -0.169 -18.469 -0.158 -18.863 -0.146 -19.265 -0.127 -19.266 -0.126 -19.287 -0.103 -19.264 -0.089 -19.260 -0.088 -19.260 -0.088 -19.257 -0.087 -19.242 -0.088 -19.234 -0.090 -19.178 -0.073 -19.173 -0.072 -19.159 -0.072 -19.106 -0.074 -19.008 -0.085 -18.803 -0.077 -18.788 -0.069 -18.781 -0.066 -18.755 -0.063 -18.310 -0.149 13.710 0.340 1.063 0.033 43.454 42.089
-22.800 -18.381 -0.176 -18.559 -0.164 -18.962 -0.152 -19.374 -0.131 -19.375 -0.130 -19.402 -0.106 -19.380 -0.092 -19.376 -0.091 -19.375 -0.090 -19.373 -0.090 -19.358 -0.090 -19.350 -0.092 -19.289 -0.075 -19.285 -0.075 -19.270 -0.074 -19.218 -0.076 -19.123 -0.086 -18.926 -0.078 -18.911 -0.070 -18.904 -0.066 -18.879 -0.063 -18.424 -0.151 13.624 0.334 1.129 0.035 43.495 42.125
-22.400 -18.466 -0.182 -18.648 -0.171 -19.058 -0.157 -19.480 -0.134 -19.482 -0.134 -19.514 -0.109 -19.492 -0.095 -19.489 -0.093 -19.488 -0.093 -19.485 -0.092 -19.470 -0.092 -19.461 -0.094 -19.396 -0.077 -19.392 -0.077 -19.377 -0.076 -19.327 -0.078 -19.234 -0.087 -19.044 -0.079 -19.030 -0.070 -19.024 -0.067 -18.999 -0.062 -18.535 -0.153 13.544 0.327 1.197 0.036 43.536 42.159
-22.000 -18.550 -0.188 -18.735 -0.177 -19.153 -0.162 -19.585 -0.137 -19.587 -0.137 -19.623 -0.111 -19.601 -0.097 -19.598 -0.095 -19.597 -0.095 -19.594 -0.094 -19.578 -0.094 -19.568 -0.095 -19.500 -0.079 -19.495 -0.079 -19.481 -0.078 -19.431 -0.079 -19.341 -0.088 -19.159 -0.080 -19.146 -0.071 -19.140 -0.067 -19.115 -0.062 -18.644 -0.155 13.470 0.320 1.266 0.038 43.575 42.191
-21.600 -18.632 -0.193 -18.820 -0.182 -19.245 -0.166 -19.687 -0.140 -19.689 -0.140 -19.729 -0.112 -19.707 -0.098 -19.703 -0.096 -19.702 -0.096 -19.700 -0.095 -19.681 -0.095 -19.671 -0.096 -19.599 -0.080 -19.594 -0.080 -19.580 -0.079 -19.531 -0.080 -19.444 -0.088 -19.270 -0.081 -19.257 -0.071 -19.251 -0.068 -19.227 -0.062 -18.750 -0.156 13.404 0.314 1.337 0.040 43.614 42.223
-21.200 -18.712 -0.199 -18.903 -0.187 -19.336 -0.170 -19.787 -0.142 -19.789 -0.142 -19.832 -0.114 -19.809 -0.099 -19.805 -0.097 -19.804 -0.097 -19.801 -0.096 -19.781 -0.096 -19.770 -0.097 -19.694 -0.081 -19.690 -0.080 -19.675 -0.080 -19.628 -0.081 -19.543 -0.089 -19.376 -0.081 -19.364 -0.072 -19.358 -0.068 -19.334 -0.063 -18.854 -0.157 13.344 0.309 1.409 0.041 43.652 42.253
-20.800 -18.790 -0.203 -18.984 -0.192 -19.424 -0.173 -19.885 -0.143 -19.887 -0.143 -19.933 -0.114 -19.908 -0.100 -19.903 -0.098 -19.903 -0.097 -19.899 -0.096 -19.876 -0.096 -19.865 -0.097 -19.786 -0.081 -19.781 -0.080 -19.767 -0.080 -19.721 -0.081 -19.638 -0.089 -19.478 -0.082 -19.467 -0.073 -19.461 -0.069 -19.437 -0.063 -18.955 -0.158 13.292 0.304 1.481 0.043 43.688 42.284
-20.400 -18.866 -0.207 -19.063 -0.196 -19.511 -0.176 -19.980 -0.144 -19.982 -0.144 -20.029 -0.115 -20.003 -0.100 -19.998 -0.098 -19.997 -0.097 -19.994 -0.096 -19.968 -0.095 -19.955 -0.096 -19.874 -0.080 -19.870 -0.080 -19.856 -0.079 -19.810 -0.080 -19.730 -0.088 -19.576 -0.082 -19.565 -0.073 -19.560 -0.070 -19.536 -0.064 -19.053 -0.158 13.248 0.300 1.553 0.045 43.724 42.313
-20.000 -18.940 -0.211 -19.140 -0.199 -19.595 -0.179 -20.073 -0.144 -20.075 -0.144 -20.123 -0.115 -20.095 -0.099 -20.090 -0.097 -20.089 -0.097 -20.085 -0.096 -20.056 -0.095 -20.042 -0.095 -19.959 -0.079 -19.954 -0.079 -19.941 -0.078 -19.896 -0.079 -19.818 -0.088 -19.670 -0.082 -19.659 -0.074 -19.654 -0.070 -19.631 -0.065 -19.149 -0.158 13.211 0.296 1.625 0.046 43.758 42.342
-19.600 -19.011 -0.214 -19.214 -0.202 -19.676 -0.180 -20.163 -0.144 -20.165 -0.144 -20.214 -0.114 -20.184 -0.099 -20.177 -0.096 -20.176 -0.096 -20.172 -0.095 -20.139 -0.093 -20.124 -0.094 -20.040 -0.078 -20.035 -0.078 -20.022 -0.077 -19.978 -0.078 -19.902 -0.087 -19.760 -0.083 -19.750 -0.074 -19.745 -0.071 -19.722 -0.066 -19.242 -0.158 13.182 0.293 1.696 0.048 43.792 42.371
-19.200 -19.081 -0.217 -19.287 -0.205 -19.756 -0.181 -20.251 -0.143 -20.253 -0.143 -20.301 -0.113 -20.268 -0.097 -20.262 -0.095 -20.260 -0.095 -20.255 -0.093 -20.220 -0.092 -20.203 -0.092 -20.118 -0.076 -20.113 -0.076 -20.100 -0.075 -20.057 -0.077 -19.983 -0.086 -19.846 -0.082 -19.836 -0.074 -19.831 -0.071 -19.809 -0.066 -19.332 -0.157 13.161 0.291 1.766 0.049 43.824 42.399
-18.800 -19.148 -0.219 -19.357 -0.207 -19.833 -0.182 -20.336 -0.141 -20.338 -0.141 -20.386 -0.112 -20.350 -0.096 -20.342 -0.093 -20.341 -0.093 -20.336 -0.092 -20.296 -0.089 -20.278 -0.090 -20.192 -0.074 -20.188 -0.073 -20.175 -0.073 -20.132 -0.074 -20.060 -0.084 -19.927 -0.082 -19.918 -0.073 -19.913 -0.070 -19.893 -0.065 -19.419 -0.156 13.147 0.289 1.835 0.051 43.855 42.428
-18.400 -19.213 -0.220 -19.425 -0.208 -19.908 -0.182 -20.419 -0.139 -20.421 -0.139 -20.467 -0.111 -20.428 -0.094 -20.420 -0.091 -20.418 -0.091 -20.412 -0.090 -20.369 -0.087 -20.349 -0.088 -20.263 -0.071 -20.259 -0.070 -20.246 -0.070 -20.205 -0.072 -20.134 -0.082 -20.005 -0.081 -19.996 -0.073 -19.992 -0.069 -19.972 -0.065 -19.503 -0.154 13.141 0.288 1.902 0.053 43.886 42.456
-18.000 -19.276 -0.222 -19.491 -0.209 -19.980 -0.182 -20.499 -0.136 -20.501 -0.136 -20.545 -0.109 -20.503 -0.092 -20.494 -0.089 -20.492 -0.089 -20.485 -0.087 -20.438 -0.084 -20.417 -0.085 -20.331 -0.067 -20.327 -0.067 -20.314 -0.067 -20.274 -0.069 -20.204 -0.080 -20.080 -0.080 -20.071 -0.072 -20.067 -0.068 -20.048 -0.063 -19.585 -0.152 13.140 0.287 1.967 0.054 43.915 42.484
-17.600 -19.337 -0.222 -19.554 -0.209 -20.050 -0.181 -20.576 -0.133 -20.578 -0.133 -20.620 -0.107 -20.574 -0.089 -20.564 -0.086 -20.563 -0.086 -20.555 -0.084 -20.504 -0.080 -20.481 -0.082 -20.396 -0.064 -20.392 -0.063 -20.380 -0.063 -20.339 -0.066 -20.271 -0.078 -20.150 -0.079 -20.142 -0.070 -20.138 -0.067 -20.121 -0.061 -19.664 -0.149 13.147 0.287 2.030 0.056 43.943 42.511
-17.200 -19.395 -0.222 -19.615 -0.209 -20.117 -0.180 -20.650 -0.129 -20.652 -0.129 -20.692 -0.104 -20.642 -0.086 -20.632 -0.083 -20.630 -0.083 -20.622 -0.081 -20.566 -0.076 -20.543 -0.078 -20.458 -0.060 -20.454 -0.059 -20.442 -0.059 -20.402 -0.063 -20.335 -0.076 -20.217 -0.077 -20.210 -0.068 -20.206 -0.065 -20.190 -0.059 -19.739 -0.146 13.159 0.287 2.091 0.057 43.971 42.539
-16.800 -19.451 -0.222 -19.674 -0.209 -20.182 -0.178 -20.721 -0.125 -20.724 -0.124 -20.760 -0.102 -20.707 -0.083 -20.696 -0.080 -20.694 -0.079 -20.686 -0.078 -20.625 -0.072 -20.601 -0.074 -20.517 -0.055 -20.513 -0.055 -20.501 -0.055 -20.462 -0.060 -20.396 -0.074 -20.281 -0.075 -20.274 -0.066 -20.271 -0.062 -20.257 -0.056 -19.812 -0.143 13.177 0.289 2.149 0.058 43.997 42.567
-16.400 -19.505 -0.221 -19.730 -0.208 -20.244 -0.176 -20.790 -0.120 -20.792 -0.120 -20.826 -0.099 -20.769 -0.080 -20.757 -0.076 -20.755 -0.076 -20.746 -0.074 -20.681 -0.068 -20.655 -0.070 -20.573 -0.051 -20.569 -0.051 -20.557 -0.051 -20.519 -0.056 -20.453 -0.072 -20.341 -0.073 -20.335 -0.063 -20.333 -0.059 -20.320 -0.052 -19.883 -0.139 13.201 0.291 2.205 0.060 44.022 42.596
-16.000 -19.556 -0.220 -19.784 -0.206 -20.304 -0.174 -20.856 -0.114 -20.858 -0.114 -20.889 -0.096 -20.828 -0.076 -20.815 -0.073 -20.813 -0.072 -20.804 -0.070 -20.735 -0.063 -20.707 -0.066 -20.626 -0.047 -20.622 -0.046 -20.611 -0.047 -20.573 -0.053 -20.508 -0.069 -20.398 -0.071 -20.394 -0.060 -20.391 -0.056 -20.380 -0.048 -19.950 -0.135 13.229 0.293 2.258 0.061 44.046 42.624
-15.600 -19.605 -0.218 -19.835 -0.204 -20.361 -0.171 -20.919 -0.109 -20.921 -0.108 -20.948 -0.093 -20.884 -0.073 -20.871 -0.069 -20.868 -0.069 -20.858 -0.066 -20.785 -0.058 -20.757 -0.062 -20.676 -0.043 -20.673 -0.042 -20.661 -0.043 -20.624 -0.050 -20.560 -0.067 -20.452 -0.069 -20.449 -0.058 -20.447 -0.053 -20.438 -0.044 -20.014 -0.131 13.261 0.297 2.308 0.063 44.070 42.653
-15.200 -19.652 -0.216 -19.884 -0.202 -20.416 -0.168 -20.978 -0.102 -20.981 -0.102 -21.005 -0.090 -20.938 -0.069 -20.923 -0.066 -20.921 -0.065 -20.910 -0.063 -20.832 -0.052 -20.803 -0.058 -20.724 -0.039 -20.720 -0.039 -20.709 -0.039 -20.672 -0.047 -20.609 -0.064 -20.503 -0.066 -20.501 -0.055 -20.500 -0.050 -20.492 -0.040 -20.076 -0.126 13.296 0.301 2.356 0.065 44.092 42.682
-14.800 -19.696 -0.213 -19.931 -0.199 -20.468 -0.164 -21.035 -0.096 -21.038 -0.095 -21.059 -0.087 -20.988 -0.066 -20.973 -0.062 -20.970 -0.061 -20.959 -0.059 -20.877 -0.047 -20.847 -0.053 -20.769 -0.036 -20.765 -0.036 -20.754 -0.036 -20.718 -0.044 -20.655 -0.061 -20.552 -0.064 -20.550 -0.052 -20.550 -0.047 -20.545 -0.035 -20.135 -0.121 13.333 0.307 2.401 0.067 44.113 42.712
-14.400 -19.738 -0.210 -19.975 -0.196 -20.517 -0.161 -21.089 -0.088 -21.091 -0.088 -21.110 -0.083 -21.036 -0.062 -21.020 -0.058 -21.017 -0.058 -21.005 -0.055 -20.920 -0.042 -20.889 -0.049 -20.811 -0.035 -20.807 -0.034 -20.797 -0.034 -20.761 -0.042 -20.698 -0.058 -20.597 -0.062 -20.597 -0.050 -20.597 -0.044 -20.594 -0.032 -20.190 -0.115 13.371 0.315 2.444 0.069 44.134 42.742
-14.000 -19.777 -0.206 -20.017 -0.192 -20.563 -0.157 -21.140 -0.081 -21.142 -0.081 -21.158 -0.080 -21.081 -0.059 -21.064 -0.055 -21.062 -0.054 -21.049 -0.052 -20.960 -0.036 -20.928 -0.046 -20.850 -0.034 -20.847 -0.034 -20.837 -0.034 -20.802 -0.040 -20.740 -0.056 -20.640 -0.060 -20.641 -0.048 -20.642 -0.042 -20.641 -0.029 -20.244 -0.110 13.412 0.324 2.484 0.072 44.153 42.773
-13.600 -19.814 -0.202 -20.056 -0.188 -20.607 -0.152 -21.188 -0.073 -21.190 -0.073 -21.203 -0.077 -21.124 -0.056 -21.106 -0.051 -21.103 -0.051 -21.091 -0.048 -20.999 -0.031 -20.965 -0.043 -20.888 -0.035 -20.885 -0.034 -20.875 -0.034 -20.841 -0.039 -20.778 -0.053 -20.680 -0.059 -20.683 -0.046 -20.684 -0.041 -20.686 -0.028 -20.294 -0.104 13.463 0.336 2.521 0.076 44.173 42.805
-13.200 -19.848 -0.198 -20.092 -0.184 -20.648 -0.148 -21.232 -0.065 -21.234 -0.065 -21.245 -0.074 -21.164 -0.052 -21.146 -0.048 -21.143 -0.047 -21.130 -0.045 -21.035 -0.027 -21.001 -0.040 -20.923 -0.036 -20.920 -0.035 -20.910 -0.034 -20.877 -0.038 -20.815 -0.049 -20.718 -0.057 -20.722 -0.045 -20.724 -0.040 -20.728 -0.028 -20.341 -0.098 13.533 0.352 2.551 0.080 44.192 42.838
-12.800 -19.880 -0.193 -20.127 -0.179 -20.686 -0.144 -21.274 -0.057 -21.276 -0.057 -21.285 -0.071 -21.201 -0.049 -21.183 -0.045 -21.180 -0.044 -21.167 -0.041 -21.070 -0.024 -21.034 -0.038 -20.956 -0.036 -20.953 -0.036 -20.944 -0.035 -20.912 -0.037 -20.849 -0.046 -20.753 -0.056 -20.759 -0.045 -20.762 -0.040 -20.768 -0.030 -20.386 -0.092 13.628 0.369 2.573 0.085 44.212 42.871
-12.400 -19.910 -0.188 -20.158 -0.174 -20.722 -0.139 -21.312 -0.048 -21.314 -0.048 -21.322 -0.068 -21.237 -0.045 -21.218 -0.041 -21.215 -0.040 -21.201 -0.038 -21.103 -0.022 -21.066 -0.037 -20.987 -0.037 -20.984 -0.036 -20.975 -0.035 -20.944 -0.036 -20.881 -0.043 -20.787 -0.055 -20.793 -0.044 -20.797 -0.040 -20.806 -0.031 -20.428 -0.086 13.754 0.387 2.587 0.090 44.232 42.905
-12.000 -19.937 -0.183 -20.187 -0.169 -20.755 -0.134 -21.347 -0.040 -21.349 -0.040 -21.356 -0.066 -21.270 -0.042 -21.251 -0.038 -21.248 -0.037 -21.234 -0.034 -21.134 -0.022 -21.096 -0.036 -21.016 -0.037 -21.014 -0.037 -21.005 -0.035 -20.975 -0.034 -20.912 -0.039 -20.818 -0.054 -20.826 -0.044 -20.830 -0.040 -20.842 -0.033 -20.467 -0.080 13.919 0.405 2.592 0.093 44.255 42.938
-11.600 -19.962 -0.177 -20.214 -0.163 -20.785 -0.130 -21.378 -0.031 -21.381 -0.031 -21.388 -0.063 -21.300 -0.038 -21.281 -0.034 -21.278 -0.034 -21.264 -0.031 -21.164 -0.022 -21.124 -0.036 -21.044 -0.037 -21.042 -0.037 -21.034 -0.035 -21.005 -0.033 -20.940 -0.036 -20.847 -0.053 -20.856 -0.043 -20.861 -0.040 -20.875 -0.034 -20.504 -0.075 14.137 0.418 2.586 0.096 44.280 42.965
-11.200 -19.984 -0.171 -20.238 -0.157 -20.812 -0.125 -21.407 -0.023 -21.409 -0.023 -21.417 -0.061 -21.328 -0.035 -21.309 -0.031 -21.306 -0.030 -21.292 -0.028 -21.191 -0.022 -21.151 -0.035 -21.070 -0.037 -21.068 -0.036 -21.061 -0.035 -21.033 -0.032 -20.967 -0.033 -20.874 -0.051 -20.885 -0.043 -20.891 -0.039 -20.907 -0.034 -20.538 -0.070 14.425 0.425 2.566 0.097 44.308 42.981
-10.800 -20.004 -0.164 -20.260 -0.151 -20.837 -0.120 -21.432 -0.015 -21.434 -0.015 -21.443 -0.059 -21.354 -0.032 -21.335 -0.028 -21.331 -0.028 -21.317 -0.026 -21.217 -0.021 -21.175 -0.035 -21.095 -0.036 -21.093 -0.036 -21.086 -0.034 -21.059 -0.030 -20.992 -0.031 -20.899 -0.050 -20.911 -0.042 -20.918 -0.038 -20.937 -0.034 -20.569 -0.065 14.775 0.417 2.534 0.095 44.339 42.970
-10.400 -20.021 -0.158 -20.280 -0.144 -20.859 -0.115 -21.453 -0.010 -21.455 -0.010 -21.467 -0.057 -21.378 -0.030 -21.358 -0.026 -21.355 -0.025 -21.340 -0.023 -21.241 -0.019 -21.198 -0.034 -21.118 -0.036 -21.116 -0.035 -21.110 -0.033 -21.084 -0.029 -21.016 -0.030 -20.922 -0.049 -20.936 -0.041 -20.944 -0.037 -20.965 -0.033 -20.597 -0.061 15.024 0.401 2.520 0.093 44.363 42.933
-10.000 -20.036 -0.151 -20.297 -0.137 -20.879 -0.110 -21.471 -0.011 -21.474 -0.011 -21.488 -0.055 -21.399 -0.028 -21.379 -0.024 -21.376 -0.024 -21.361 -0.022 -21.262 -0.017 -21.219 -0.033 -21.140 -0.036 -21.139 -0.035 -21.133 -0.032 -21.108 -0.028 -21.037 -0.029 -20.944 -0.048 -20.959 -0.039 -20.967 -0.036 -20.990 -0.031 -20.623 -0.058 14.871 0.406 2.572 0.096 44.363 42.958
-9.600 -20.048 -0.143 -20.311 -0.130 -20.896 -0.105 -21.486 -0.016 -21.489 -0.016 -21.507 -0.054 -21.418 -0.027 -21.398 -0.023 -21.395 -0.023 -21.380 -0.022 -21.281 -0.014 -21.237 -0.033 -21.161 -0.036 -21.159 -0.035 -21.154 -0.032 -21.130 -0.027 -21.058 -0.028 -20.964 -0.046 -20.981 -0.038 -20.989 -0.034 -21.014 -0.029 -20.646 -0.056 14.453 0.420 2.673 0.102 44.347 42.997
-9.200 -20.059 -0.136 -20.323 -0.123 -20.910 -0.100 -21.498 -0.021 -21.501 -0.021 -21.523 -0.052 -21.434 -0.026 -21.414 -0.023 -21.411 -0.022 -21.396 -0.021 -21.298 -0.013 -21.254 -0.032 -21.180 -0.036 -21.178 -0.035 -21.174 -0.032 -21.150 -0.026 -21.076 -0.028 -20.983 -0.045 -21.000 -0.036 -21.009 -0.033 -21.035 -0.026 -20.667 -0.055 14.056 0.419 2.776 0.106 44.331 43.001
-8.800 -20.066 -0.128 -20.333 -0.115 -20.922 -0.095 -21.508 -0.025 -21.510 -0.025 -21.537 -0.051 -21.448 -0.025 -21.428 -0.022 -21.424 -0.022 -21.410 -0.021 -21.312 -0.013 -21.269 -0.032 -21.197 -0.036 -21.196 -0.035 -21.191 -0.032 -21.167 -0.026 -21.092 -0.027 -20.999 -0.043 -21.018 -0.035 -21.027 -0.031 -21.054 -0.024 -20.686 -0.053 13.748 0.404 2.868 0.108 44.321 42.986
-8.400 -20.072 -0.120 -20.341 -0.107 -20.932 -0.089 -21.515 -0.028 -21.517 -0.029 -21.548 -0.050 -21.459 -0.024 -21.439 -0.021 -21.435 -0.021 -21.421 -0.021 -21.323 -0.014 -21.281 -0.032 -21.212 -0.037 -21.211 -0.036 -21.206 -0.033 -21.183 -0.026 -21.107 -0.026 -21.014 -0.041 -21.033 -0.033 -21.043 -0.030 -21.071 -0.023 -20.703 -0.052 13.523 0.385 2.945 0.108 44.315 42.966
-8.000 -20.075 -0.112 -20.346 -0.099 -20.939 -0.084 -21.519 -0.031 -21.522 -0.031 -21.558 -0.049 -21.467 -0.023 -21.447 -0.020 -21.444 -0.020 -21.429 -0.020 -21.333 -0.016 -21.292 -0.032 -21.226 -0.037 -21.225 -0.036 -21.220 -0.033 -21.196 -0.026 -21.120 -0.025 -21.027 -0.039 -21.046 -0.032 -21.056 -0.028 -21.084 -0.023 -20.718 -0.051 13.357 0.367 3.006 0.107 44.312 42.944
-7.600 -20.075 -0.104 -20.348 -0.092 -20.944 -0.079 -21.522 -0.032 -21.525 -0.032 -21.565 -0.048 -21.473 -0.022 -21.453 -0.020 -21.450 -0.020 -21.435 -0.020 -21.341 -0.018 -21.302 -0.032 -21.238 -0.037 -21.236 -0.036 -21.232 -0.033 -21.208 -0.027 -21.132 -0.025 -21.038 -0.037 -21.057 -0.030 -21.066 -0.027 -21.094 -0.025 -20.731 -0.050 13.223 0.351 3.055 0.106 44.308 42.922
-7.200 -20.073 -0.096 -20.349 -0.084 -20.946 -0.074 -21.523 -0.032 -21.526 -0.032 -21.571 -0.046 -21.478 -0.022 -21.458 -0.020 -21.454 -0.019 -21.440 -0.019 -21.347 -0.018 -21.310 -0.032 -21.248 -0.037 -21.247 -0.036 -21.242 -0.033 -21.219 -0.027 -21.143 -0.025 -21.048 -0.035 -21.066 -0.029 -21.075 -0.027 -21.103 -0.028 -20.743 -0.049 13.098 0.335 3.101 0.105 44.305 42.899
-6.800 -20.069 -0.088 -20.347 -0.076 -20.946 -0.068 -21.523 -0.032 -21.525 -0.032 -21.575 -0.045 -21.481 -0.021 -21.461 -0.019 -21.458 -0.019 -21.444 -0.019 -21.353 -0.017 -21.318 -0.032 -21.257 -0.037 -21.256 -0.036 -21.252 -0.033 -21.229 -0.027 -21.153 -0.026 -21.056 -0.033 -21.073 -0.027 -21.082 -0.026 -21.109 -0.031 -20.754 -0.048 12.974 0.321 3.146 0.105 44.301 42.875
-6.400 -20.063 -0.080 -20.343 -0.068 -20.943 -0.063 -21.521 -0.031 -21.524 -0.031 -21.578 -0.045 -21.483 -0.021 -21.463 -0.019 -21.460 -0.019 -21.446 -0.019 -21.357 -0.016 -21.324 -0.032 -21.265 -0.037 -21.264 -0.036 -21.260 -0.033 -21.237 -0.027 -21.163 -0.027 -21.063 -0.030 -21.079 -0.027 -21.088 -0.027 -21.114 -0.034 -20.763 -0.047 12.848 0.307 3.190 0.104 44.296 42.850
-6.000 -20.054 -0.073 -20.337 -0.060 -20.938 -0.059 -21.519 -0.030 -21.522 -0.030 -21.580 -0.044 -21.486 -0.022 -21.466 -0.020 -21.463 -0.019 -21.449 -0.019 -21.362 -0.014 -21.331 -0.032 -21.272 -0.036 -21.270 -0.035 -21.267 -0.033 -21.245 -0.028 -21.171 -0.028 -21.069 -0.029 -21.084 -0.026 -21.092 -0.027 -21.118 -0.037 -20.772 -0.046 12.715 0.295 3.237 0.104 44.290 42.825
-5.600 -20.043 -0.066 -20.328 -0.053 -20.931 -0.054 -21.516 -0.029 -21.519 -0.029 -21.580 -0.043 -21.488 -0.023 -21.468 -0.020 -21.465 -0.020 -21.452 -0.020 -21.366 -0.013 -21.336 -0.032 -21.278 -0.036 -21.276 -0.035 -21.272 -0.033 -21.252 -0.028 -21.178 -0.029 -21.075 -0.028 -21.089 -0.027 -21.096 -0.029 -21.121 -0.039 -20.780 -0.045 12.574 0.281 3.287 0.104 44.284 42.798
-5.200 -20.029 -0.060 -20.317 -0.047 -20.922 -0.051 -21.513 -0.028 -21.516 -0.028 -21.580 -0.042 -21.489 -0.024 -21.470 -0.021 -21.467 -0.021 -21.454 -0.021 -21.371 -0.015 -21.342 -0.032 -21.283 -0.036 -21.281 -0.035 -21.277 -0.033 -21.257 -0.028 -21.185 -0.030 -21.080 -0.029 -21.093 -0.028 -21.100 -0.030 -21.124 -0.041 -20.787 -0.045 12.425 0.266 3.344 0.104 44.279 42.771
-4.800 -20.013 -0.055 -20.303 -0.042 -20.910 -0.048 -21.509 -0.028 -21.512 -0.028 -21.578 -0.041 -21.490 -0.024 -21.472 -0.022 -21.469 -0.022 -21.456 -0.022 -21.375 -0.018 -21.348 -0.033 -21.287 -0.036 -21.286 -0.035 -21.281 -0.033 -21.260 -0.028 -21.190 -0.030 -21.084 -0.030 -21.097 -0.030 -21.104 -0.032 -21.126 -0.044 -20.794 -0.045 12.283 0.252 3.401 0.105 44.273 42.747
-4.400 -19.995 -0.051 -20.286 -0.038 -20.896 -0.046 -21.505 -0.027 -21.508 -0.027 -21.574 -0.041 -21.491 -0.025 -21.473 -0.023 -21.470 -0.023 -21.458 -0.022 -21.380 -0.022 -21.353 -0.035 -21.290 -0.035 -21.289 -0.035 -21.285 -0.033 -21.263 -0.029 -21.195 -0.030 -21.088 -0.032 -21.100 -0.032 -21.107 -0.034 -21.128 -0.045 -20.800 -0.045 12.161 0.242 3.453 0.106 44.269 42.729
-4.000 -19.975 -0.049 -20.267 -0.037 -20.879 -0.045 -21.501 -0.027 -21.504 -0.027 -21.570 -0.041 -21.490 -0.025 -21.474 -0.024 -21.471 -0.023 -21.459 -0.023 -21.385 -0.026 -21.358 -0.037 -21.294 -0.035 -21.292 -0.034 -21.288 -0.032 -21.266 -0.029 -21.198 -0.029 -21.091 -0.034 -21.103 -0.034 -21.109 -0.036 -21.129 -0.046 -20.806 -0.045 12.066 0.238 3.494 0.109 44.266 42.720
-3.600 -19.953 -0.048 -20.245 -0.037 -20.860 -0.046 -21.496 -0.026 -21.499 -0.026 -21.564 -0.041 -21.489 -0.025 -21.473 -0.024 -21.471 -0.023 -21.460 -0.023 -21.389 -0.030 -21.363 -0.040 -21.296 -0.034 -21.295 -0.033 -21.290 -0.032 -21.269 -0.029 -21.202 -0.028 -21.094 -0.036 -21.105 -0.035 -21.111 -0.037 -21.130 -0.047 -20.812 -0.045 11.998 0.238 3.525 0.112 44.264 42.720
-3.200 -19.929 -0.049 -20.220 -0.039 -20.839 -0.047 -21.491 -0.025 -21.494 -0.025 -21.556 -0.041 -21.487 -0.025 -21.472 -0.023 -21.470 -0.023 -21.460 -0.022 -21.394 -0.033 -21.368 -0.042 -21.299 -0.033 -21.297 -0.033 -21.293 -0.031 -21.271 -0.028 -21.204 -0.027 -21.097 -0.037 -21.107 -0.037 -21.113 -0.038 -21.131 -0.048 -20.817 -0.046 11.949 0.243 3.548 0.115 44.262 42.724
-2.800 -19.903 -0.051 -20.193 -0.041 -20.816 -0.049 -21.484 -0.025 -21.487 -0.025 -21.548 -0.041 -21.484 -0.025 -21.470 -0.022 -21.468 -0.022 -21.459 -0.022 -21.398 -0.036 -21.373 -0.045 -21.302 -0.032 -21.300 -0.032 -21.296 -0.030 -21.274 -0.028 -21.207 -0.027 -21.099 -0.039 -21.109 -0.038 -21.114 -0.039 -21.132 -0.049 -20.822 -0.046 11.908 0.248 3.568 0.118 44.261 42.729
-2.400 -19.875 -0.053 -20.163 -0.044 -20.791 -0.051 -21.477 -0.025 -21.480 -0.025 -21.539 -0.042 -21.480 -0.024 -21.468 -0.022 -21.466 -0.021 -21.457 -0.021 -21.401 -0.039 -21.377 -0.047 -21.305 -0.032 -21.304 -0.031 -21.299 -0.029 -21.278 -0.027 -21.210 -0.026 -21.100 -0.040 -21.110 -0.039 -21.115 -0.040 -21.132 -0.049 -20.826 -0.046 11.858 0.251 3.590 0.120 44.259 42.730
-2.000 -19.845 -0.055 -20.132 -0.046 -20.763 -0.053 -21.469 -0.025 -21.472 -0.025 -21.529 -0.042 -21.476 -0.024 -21.465 -0.021 -21.463 -0.021 -21.456 -0.021 -21.404 -0.042 -21.381 -0.049 -21.309 -0.031 -21.307 -0.030 -21.303 -0.029 -21.281 -0.026 -21.213 -0.026 -21.101 -0.041 -21.111 -0.040 -21.116 -0.041 -21.132 -0.050 -20.831 -0.047 11.787 0.250 3.619 0.121 44.256 42.725
-1.600 -19.812 -0.057 -20.099 -0.049 -20.734 -0.055 -21.459 -0.027 -21.462 -0.027 -21.518 -0.042 -21.471 -0.024 -21.462 -0.022 -21.460 -0.022 -21.453 -0.022 -21.406 -0.044 -21.384 -0.051 -21.313 -0.031 -21.312 -0.030 -21.307 -0.028 -21.286 -0.025 -21.215 -0.026 -21.102 -0.043 -21.111 -0.041 -21.116 -0.042 -21.131 -0.050 -20.835 -0.048 11.697 0.246 3.653 0.121 44.250 42.715
-1.200 -19.778 -0.059 -20.064 -0.051 -20.703 -0.056 -21.448 -0.029 -21.451 -0.029 -21.508 -0.043 -21.466 -0.025 -21.458 -0.023 -21.456 -0.023 -21.450 -0.023 -21.408 -0.046 -21.387 -0.053 -21.317 -0.032 -21.316 -0.031 -21.312 -0.028 -21.290 -0.024 -21.217 -0.026 -21.102 -0.044 -21.111 -0.042 -21.116 -0.043 -21.129 -0.051 -20.839 -0.050 11.595 0.240 3.691 0.120 44.244 42.704
-0.800 -19.742 -0.060 -20.027 -0.053 -20.670 -0.058 -21.436 -0.030 -21.439 -0.030 -21.497 -0.044 -21.460 -0.026 -21.453 -0.024 -21.451 -0.024 -21.446 -0.025 -21.408 -0.048 -21.388 -0.055 -21.321 -0.032 -21.320 -0.031 -21.315 -0.028 -21.294 -0.023 -21.219 -0.026 -21.102 -0.045 -21.110 -0.043 -21.114 -0.044 -21.127 -0.052 -20.842 -0.051 11.489 0.234 3.729 0.119 44.237 42.692
-0.400 -19.705 -0.062 -19.989 -0.054 -20.636 -0.059 -21.422 -0.032 -21.426 -0.032 -21.486 -0.044 -21.453 -0.028 -21.447 -0.026 -21.446 -0.026 -21.441 -0.027 -21.408 -0.049 -21.388 -0.056 -21.323 -0.032 -21.322 -0.031 -21.318 -0.027 -21.297 -0.021 -21.219 -0.025 -21.101 -0.046 -21.109 -0.044 -21.113 -0.045 -21.124 -0.053 -20.845 -0.052 11.383 0.228 3.766 0.118 44.230 42.681
-0.000 -19.665 -0.063 -19.949 -0.055 -20.600 -0.060 -21.407 -0.033 -21.411 -0.033 -21.475 -0.045 -21.445 -0.030 -21.440 -0.028 -21.439 -0.028 -21.435 -0.029 -21.406 -0.050 -21.388 -0.057 -21.324 -0.032 -21.323 -0.031 -21.320 -0.027 -21.298 -0.019 -21.219 -0.024 -21.100 -0.047 -21.107 -0.045 -21.111 -0.046 -21.121 -0.054 -20.848 -0.053 11.280 0.223 3.802 0.117 44.222 42.670
0.400 -19.624 -0.064 -19.907 -0.056 -20.562 -0.060 -21.391 -0.034 -21.394 -0.034 -21.463 -0.046 -21.437 -0.031 -21.432 -0.030 -21.432 -0.030 -21.428 -0.030 -21.403 -0.052 -21.386 -0.059 -21.323 -0.033 -21.322 -0.031 -21.319 -0.027 -21.298 -0.018 -21.218 -0.023 -21.098 -0.047 -21.105 -0.045 -21.108 -0.046 -21.117 -0.054 -20.851 -0.053 11.181 0.218 3.837 0.117 44.215 42.660
0.800 -19.582 -0.065 -19.864 -0.057 -20.523 -0.061 -21.373 -0.034 -21.376 -0.034 -21.451 -0.047 -21.428 -0.032 -21.424 -0.031 -21.423 -0.031 -21.421 -0.032 -21.399 -0.052 -21.383 -0.059 -21.320 -0.033 -21.319 -0.031 -21.316 -0.027 -21.296 -0.017 -21.216 -0.023 -21.096 -0.047 -21.102 -0.045 -21.105 -0.046 -21.113 -0.055 -20.853 -0.053 11.085 0.216 3.871 0.118 44.207 42.651
1.200 -19.539 -0.066 -19.820 -0.057 -20.483 -0.061 -21.353 -0.033 -21.357 -0.033 -21.439 -0.048 -21.418 -0.033 -21.415 -0.032 -21.414 -0.032 -21.412 -0.032 -21.394 -0.053 -21.378 -0.060 -21.315 -0.033 -21.314 -0.032 -21.311 -0.027 -21.291 -0.018 -21.213 -0.024 -21.094 -0.047 -21.098 -0.045 -21.101 -0.046 -21.109 -0.055 -20.855 -0.053 10.993 0.215 3.905 0.121 44.200 42.644
1.600 -19.494 -0.066 -19.775 -0.057 -20.442 -0.061 -21.332 -0.032 -21.336 -0.032 -21.425 -0.049 -21.407 -0.033 -21.404 -0.032 -21.404 -0.032 -21.402 -0.032 -21.388 -0.054 -21.373 -0.061 -21.307 -0.034 -21.306 -0.032 -21.303 -0.028 -21.283 -0.020 -21.209 -0.026 -21.091 -0.046 -21.095 -0.044 -21.097 -0.045 -21.104 -0.055 -20.857 -0.052 10.906 0.215 3.936 0.126 44.194 42.638
2.000 -19.448 -0.066 -19.729 -0.056 -20.399 -0.060 -21.310 -0.031 -21.314 -0.031 -21.411 -0.049 -21.395 -0.033 -21.393 -0.032 -21.393 -0.032 -21.391 -0.032 -21.380 -0.054 -21.366 -0.061 -21.298 -0.034 -21.297 -0.033 -21.293 -0.029 -21.274 -0.023 -21.205 -0.028 -21.087 -0.045 -21.091 -0.043 -21.093 -0.044 -21.100 -0.055 -20.858 -0.051 10.827 0.216 3.965 0.131 44.187 42.634
2.400 -19.401 -0.066 -19.682 -0.056 -20.356 -0.060 -21.286 -0.029 -21.290 -0.029 -21.396 -0.049 -21.382 -0.033 -21.381 -0.031 -21.381 -0.031 -21.380 -0.031 -21.371 -0.054 -21.357 -0.062 -21.286 -0.035 -21.285 -0.033 -21.282 -0.030 -21.263 -0.025 -21.199 -0.029 -21.084 -0.044 -21.087 -0.042 -21.089 -0.043 -21.095 -0.055 -20.859 -0.050 10.753 0.218 3.990 0.136 44.181 42.630
2.800 -19.354 -0.067 -19.634 -0.056 -20.311 -0.059 -21.259 -0.027 -21.264 -0.027 -21.380 -0.049 -21.368 -0.032 -21.367 -0.030 -21.367 -0.030 -21.367 -0.030 -21.361 -0.054 -21.348 -0.062 -21.274 -0.035 -21.273 -0.034 -21.269 -0.031 -21.251 -0.027 -21.192 -0.031 -21.080 -0.043 -21.083 -0.041 -21.085 -0.042 -21.090 -0.055 -20.860 -0.049 10.684 0.219 4.012 0.141 44.174 42.624
3.200 -19.305 -0.067 -19.586 -0.056 -20.266 -0.059 -21.231 -0.025 -21.236 -0.025 -21.363 -0.049 -21.354 -0.032 -21.353 -0.030 -21.353 -0.030 -21.353 -0.030 -21.349 -0.055 -21.337 -0.062 -21.261 -0.035 -21.259 -0.034 -21.255 -0.032 -21.239 -0.028 -21.185 -0.032 -21.076 -0.043 -21.078 -0.040 -21.080 -0.041 -21.086 -0.055 -20.860 -0.048 10.613 0.219 4.033 0.144 44.167 42.614
3.600 -19.256 -0.069 -19.537 -0.057 -20.220 -0.059 -21.201 -0.025 -21.206 -0.025 -21.344 -0.050 -21.338 -0.032 -21.337 -0.030 -21.337 -0.030 -21.337 -0.030 -21.336 -0.055 -21.325 -0.063 -21.247 -0.036 -21.245 -0.035 -21.242 -0.033 -21.226 -0.029 -21.176 -0.032 -21.072 -0.043 -21.074 -0.040 -21.076 -0.041 -21.081 -0.055 -20.860 -0.048 10.534 0.216 4.055 0.146 44.159 42.600
4.000 -19.206 -0.071 -19.487 -0.058 -20.174 -0.060 -21.169 -0.024 -21.174 -0.024 -21.325 -0.050 -21.321 -0.033 -21.321 -0.030 -21.321 -0.030 -21.321 -0.030 -21.321 -0.055 -21.311 -0.063 -21.233 -0.036 -21.231 -0.035 -21.227 -0.033 -21.213 -0.030 -21.167 -0.032 -21.068 -0.043 -21.070 -0.040 -21.071 -0.041 -21.077 -0.055 -20.859 -0.049 10.455 0.211 4.075 0.145 44.150 42.582
4.400 -19.155 -0.074 -19.437 -0.061 -20.127 -0.061 -21.136 -0.024 -21.141 -0.024 -21.305 -0.051 -21.302 -0.033 -21.303 -0.031 -21.303 -0.031 -21.303 -0.031 -21.305 -0.056 -21.296 -0.064 -21.218 -0.037 -21.217 -0.036 -21.213 -0.034 -21.199 -0.030 -21.158 -0.031 -21.063 -0.043 -21.065 -0.040 -21.067 -0.042 -21.073 -0.055 -20.858 -0.050 10.381 0.206 4.090 0.144 44.141 42.563
4.800 -19.104 -0.077 -19.385 -0.064 -20.081 -0.063 -21.101 -0.024 -21.106 -0.024 -21.284 -0.052 -21.283 -0.034 -21.284 -0.032 -21.284 -0.032 -21.285 -0.032 -21.288 -0.057 -21.279 -0.065 -21.203 -0.037 -21.202 -0.036 -21.198 -0.034 -21.185 -0.030 -21.148 -0.030 -21.059 -0.043 -21.061 -0.041 -21.063 -0.042 -21.069 -0.055 -20.857 -0.051 10.319 0.201 4.099 0.142 44.133 42.542
5.200 -19.052 -0.082 -19.334 -0.069 -20.034 -0.066 -21.064 -0.023 -21.069 -0.023 -21.261 -0.053 -21.263 -0.035 -21.264 -0.033 -21.264 -0.033 -21.265 -0.033 -21.270 -0.057 -21.262 -0.066 -21.187 -0.038 -21.186 -0.037 -21.183 -0.034 -21.171 -0.030 -21.138 -0.030 -21.055 -0.044 -21.057 -0.041 -21.059 -0.042 -21.065 -0.054 -20.855 -0.053 10.268 0.197 4.103 0.140 44.125 42.519
5.600 -19.000 -0.086 -19.282 -0.073 -19.987 -0.069 -21.026 -0.022 -21.031 -0.022 -21.238 -0.054 -21.242 -0.036 -21.243 -0.034 -21.243 -0.034 -21.244 -0.034 -21.251 -0.058 -21.243 -0.067 -21.172 -0.038 -21.170 -0.037 -21.167 -0.035 -21.157 -0.030 -21.127 -0.030 -21.051 -0.044 -21.053 -0.041 -21.055 -0.042 -21.062 -0.054 -20.853 -0.055 10.227 0.191 4.102 0.138 44.118 42.492
6.000 -18.948 -0.092 -19.230 -0.079 -19.939 -0.073 -20.987 -0.020 -20.992 -0.020 -21.213 -0.056 -21.220 -0.037 -21.221 -0.034 -21.221 -0.034 -21.223 -0.034 -21.231 -0.059 -21.224 -0.068 -21.156 -0.039 -21.154 -0.038 -21.151 -0.036 -21.142 -0.031 -21.116 -0.031 -21.047 -0.045 -21.049 -0.042 -21.052 -0.042 -21.059 -0.054 -20.851 -0.057 10.187 0.184 4.102 0.136 44.111 42.458
6.400 -18.895 -0.097 -19.177 -0.084 -19.890 -0.076 -20.946 -0.019 -20.951 -0.019 -21.187 -0.057 -21.197 -0.037 -21.199 -0.035 -21.199 -0.035 -21.200 -0.035 -21.210 -0.060 -21.204 -0.070 -21.139 -0.040 -21.138 -0.039 -21.135 -0.037 -21.127 -0.033 -21.105 -0.032 -21.043 -0.046 -21.046 -0.042 -21.049 -0.042 -21.057 -0.053 -20.848 -0.060 10.132 0.175 4.109 0.132 44.103 42.416
6.800 -18.842 -0.102 -19.124 -0.089 -19.841 -0.080 -20.903 -0.019 -20.909 -0.019 -21.160 -0.059 -21.173 -0.039 -21.175 -0.036 -21.176 -0.036 -21.177 -0.036 -21.188 -0.061 -21.183 -0.071 -21.123 -0.042 -21.122 -0.041 -21.119 -0.038 -21.113 -0.034 -21.093 -0.033 -21.040 -0.046 -21.043 -0.042 -21.046 -0.042 -21.055 -0.052 -20.846 -0.064 10.038 0.163 4.133 0.126 44.092 42.374
7.200 -18.789 -0.108 -19.071 -0.095 -19.792 -0.084 -20.859 -0.022 -20.865 -0.022 -21.132 -0.060 -21.149 -0.040 -21.152 -0.037 -21.152 -0.037 -21.154 -0.037 -21.166 -0.063 -21.162 -0.072 -21.107 -0.043 -21.106 -0.042 -21.104 -0.040 -21.098 -0.036 -21.081 -0.034 -21.036 -0.047 -21.041 -0.043 -21.044 -0.042 -21.053 -0.051 -20.843 -0.069 9.905 0.151 4.176 0.118 44.078 42.338
7.600 -18.735 -0.113 -19.018 -0.100 -19.742 -0.088 -20.814 -0.027 -20.820 -0.027 -21.103 -0.062 -21.124 -0.042 -21.127 -0.039 -21.128 -0.039 -21.130 -0.039 -21.144 -0.064 -21.140 -0.073 -21.091 -0.046 -21.090 -0.045 -21.088 -0.042 -21.083 -0.037 -21.069 -0.035 -21.033 -0.048 -21.039 -0.043 -21.042 -0.043 -21.051 -0.049 -20.840 -0.074 9.737 0.139 4.246 0.111 44.063 42.303
8.000 -18.682 -0.118 -18.965 -0.105 -19.691 -0.092 -20.767 -0.033 -20.773 -0.033 -21.073 -0.063 -21.098 -0.044 -21.102 -0.041 -21.103 -0.041 -21.105 -0.041 -21.121 -0.065 -21.119 -0.074 -21.074 -0.048 -21.074 -0.047 -21.072 -0.044 -21.068 -0.038 -21.057 -0.035 -21.030 -0.049 -21.036 -0.044 -21.040 -0.042 -21.050 -0.047 -20.837 -0.080 9.584 0.128 4.310 0.104 44.048 42.264
8.400 -18.628 -0.123 -18.911 -0.110 -19.640 -0.096 -20.719 -0.039 -20.725 -0.039 -21.042 -0.065 -21.072 -0.046 -21.076 -0.044 -21.077 -0.043 -21.080 -0.043 -21.097 -0.066 -21.096 -0.075 -21.058 -0.050 -21.058 -0.049 -21.056 -0.046 -21.053 -0.039 -21.044 -0.035 -21.026 -0.050 -21.034 -0.044 -21.038 -0.042 -21.048 -0.045 -20.833 -0.086 9.442 0.118 4.371 0.098 44.034 42.225
8.800 -18.574 -0.128 -18.857 -0.115 -19.588 -0.099 -20.670 -0.045 -20.676 -0.045 -21.010 -0.066 -21.045 -0.048 -21.050 -0.046 -21.051 -0.046 -21.054 -0.046 -21.074 -0.067 -21.074 -0.076 -21.042 -0.052 -21.041 -0.051 -21.040 -0.048 -21.038 -0.040 -21.031 -0.034 -21.022 -0.051 -21.031 -0.044 -21.035 -0.042 -21.045 -0.042 -20.830 -0.092 9.311 0.110 4.429 0.092 44.021 42.187
9.200 -18.520 -0.133 -18.804 -0.119 -19.536 -0.103 -20.621 -0.052 -20.627 -0.052 -20.977 -0.068 -21.017 -0.050 -21.023 -0.048 -21.024 -0.048 -21.028 -0.048 -21.050 -0.068 -21.052 -0.077 -21.026 -0.054 -21.025 -0.053 -21.024 -0.050 -21.023 -0.041 -21.018 -0.033 -21.017 -0.051 -21.027 -0.044 -21.032 -0.041 -21.042 -0.039 -20.826 -0.098 9.187 0.103 4.485 0.088 44.009 42.152
9.600 -18.466 -0.137 -18.750 -0.123 -19.483 -0.106 -20.571 -0.058 -20.577 -0.058 -20.943 -0.069 -20.988 -0.051 -20.995 -0.050 -20.996 -0.049 -21.000 -0.049 -21.026 -0.068 -21.029 -0.077 -21.009 -0.056 -21.009 -0.055 -21.008 -0.051 -21.007 -0.042 -21.004 -0.033 -21.011 -0.052 -21.022 -0.043 -21.027 -0.040 -21.038 -0.036 -20.821 -0.105 9.069 0.098 4.542 0.086 43.997 42.123
10.000 -18.412 -0.141 -18.696 -0.127 -19.430 -0.109 -20.520 -0.063 -20.526 -0.063 -20.909 -0.070 -20.959 -0.053 -20.967 -0.051 -20.968 -0.051 -20.973 -0.051 -21.001 -0.068 -21.007 -0.077 -20.993 -0.057 -20.992 -0.056 -20.992 -0.052 -20.991 -0.042 -20.990 -0.032 -21.004 -0.052 -21.016 -0.043 -21.022 -0.038 -21.033 -0.032 -20.817 -0.111 8.953 0.095 4.600 0.084 43.986 42.100
10.400 -18.358 -0.144 -18.642 -0.130 -19.377 -0.111 -20.469 -0.069 -20.475 -0.069 -20.874 -0.072 -20.930 -0.054 -20.938 -0.052 -20.939 -0.052 -20.945 -0.052 -20.977 -0.068 -20.984 -0.077 -20.976 -0.058 -20.976 -0.057 -20.976 -0.053 -20.976 -0.042 -20.974 -0.032 -20.996 -0.052 -21.009 -0.042 -21.015 -0.037 -21.026 -0.028 -20.812 -0.118 8.838 0.093 4.661 0.084 43.975 42.084
10.800 -18.305 -0.147 -18.588 -0.133 -19.324 -0.113 -20.418 -0.073 -20.424 -0.073 -20.838 -0.072 -20.899 -0.055 -20.909 -0.053 -20.910 -0.053 -20.916 -0.053 -20.952 -0.068 -20.962 -0.076 -20.959 -0.059 -20.959 -0.057 -20.959 -0.054 -20.959 -0.042 -20.959 -0.032 -20.987 -0.052 -21.000 -0.041 -21.006 -0.036 -21.018 -0.024 -20.806 -0.124 8.724 0.092 4.726 0.085 43.965 42.073
11.200 -18.251 -0.150 -18.535 -0.135 -19.271 -0.115 -20.366 -0.078 -20.373 -0.078 -20.801 -0.073 -20.869 -0.055 -20.879 -0.054 -20.880 -0.053 -20.887 -0.053 -20.927 -0.067 -20.939 -0.075 -20.943 -0.059 -20.943 -0.058 -20.943 -0.054 -20.943 -0.042 -20.943 -0.032 -20.976 -0.052 -20.990 -0.041 -20.996 -0.035 -21.008 -0.020 -20.801 -0.130 8.614 0.092 4.789 0.085 43.954 42.062
11.600 -18.198 -0.152 -18.481 -0.137 -19.217 -0.117 -20.315 -0.082 -20.321 -0.082 -20.764 -0.074 -20.838 -0.056 -20.849 -0.054 -20.850 -0.054 -20.858 -0.053 -20.903 -0.065 -20.916 -0.074 -20.926 -0.059 -20.926 -0.058 -20.926 -0.054 -20.927 -0.042 -20.927 -0.032 -20.964 -0.053 -20.978 -0.041 -20.984 -0.035 -20.996 -0.019 -20.795 -0.136 8.518 0.090 4.837 0.085 43.943 42.044
12.000 -18.145 -0.154 -18.428 -0.139 -19.164 -0.118 -20.263 -0.085 -20.270 -0.085 -20.727 -0.074 -20.806 -0.056 -20.818 -0.054 -20.820 -0.054 -20.828 -0.053 -20.878 -0.064 -20.894 -0.072 -20.909 -0.059 -20.909 -0.058 -20.910 -0.054 -20.911 -0.042 -20.911 -0.032 -20.951 -0.053 -20.964 -0.041 -20.970 -0.035 -20.981 -0.020 -20.788 -0.142 8.444 0.087 4.859 0.084 43.932 42.012
12.400 -18.092 -0.156 -18.375 -0.140 -19.111 -0.119 -20.212 -0.088 -20.219 -0.088 -20.689 -0.074 -20.775 -0.056 -20.788 -0.054 -20.790 -0.054 -20.799 -0.053 -20.853 -0.062 -20.872 -0.070 -20.893 -0.058 -20.893 -0.057 -20.894 -0.053 -20.895 -0.042 -20.895 -0.032 -20.937 -0.053 -20.949 -0.042 -20.954 -0.036 -20.965 -0.023 -20.782 -0.148 8.383 0.082 4.866 0.081 43.921 41.970
12.800 -18.040 -0.158 -18.322 -0.141 -19.058 -0.119 -20.161 -0.090 -20.168 -0.090 -20.652 -0.074 -20.743 -0.056 -20.757 -0.054 -20.759 -0.054 -20.769 -0.053 -20.829 -0.059 -20.849 -0.068 -20.876 -0.058 -20.877 -0.056 -20.877 -0.053 -20.879 -0.042 -20.879 -0.033 -20.921 -0.052 -20.933 -0.042 -20.938 -0.037 -20.947 -0.026 -20.775 -0.153 8.324 0.076 4.871 0.078 43.909 41.923
13.200 -17.988 -0.159 -18.270 -0.142 -19.006 -0.119 -20.111 -0.092 -20.118 -0.092 -20.614 -0.074 -20.711 -0.055 -20.726 -0.053 -20.729 -0.053 -20.739 -0.052 -20.804 -0.056 -20.827 -0.065 -20.860 -0.057 -20.860 -0.055 -20.861 -0.052 -20.863 -0.041 -20.864 -0.035 -20.905 -0.052 -20.916 -0.042 -20.920 -0.038 -20.929 -0.028 -20.767 -0.158 8.265 0.071 4.879 0.074 43.898 41.874
13.600 -17.937 -0.160 -18.218 -0.142 -18.954 -0.119 -20.061 -0.094 -20.068 -0.093 -20.576 -0.073 -20.679 -0.055 -20.695 -0.052 -20.698 -0.052 -20.709 -0.051 -20.780 -0.053 -20.806 -0.062 -20.844 -0.055 -20.844 -0.054 -20.846 -0.050 -20.848 -0.041 -20.849 -0.036 -20.888 -0.052 -20.898 -0.043 -20.901 -0.038 -20.909 -0.031 -20.760 -0.163 8.205 0.066 4.889 0.071 43.888 41.827
14.000 -17.886 -0.161 -18.167 -0.143 -18.903 -0.119 -20.012 -0.095 -20.019 -0.094 -20.538 -0.073 -20.647 -0.053 -20.665 -0.051 -20.668 -0.051 -20.679 -0.049 -20.756 -0.049 -20.784 -0.059 -20.828 -0.054 -20.829 -0.052 -20.830 -0.049 -20.833 -0.040 -20.834 -0.037 -20.871 -0.051 -20.880 -0.043 -20.883 -0.039 -20.890 -0.033 -20.752 -0.168 8.145 0.062 4.901 0.068 43.877 41.782
14.400 -17.836 -0.161 -18.117 -0.143 -18.852 -0.118 -19.964 -0.095 -19.971 -0.095 -20.501 -0.072 -20.616 -0.052 -20.634 -0.050 -20.637 -0.049 -20.650 -0.048 -20.732 -0.045 -20.763 -0.056 -20.813 -0.052 -20.813 -0.050 -20.815 -0.047 -20.818 -0.039 -20.819 -0.038 -20.854 -0.050 -20.862 -0.042 -20.864 -0.039 -20.870 -0.034 -20.744 -0.172 8.085 0.059 4.915 0.066 43.867 41.742
14.800 -17.786 -0.162 -18.067 -0.143 -18.802 -0.117 -19.916 -0.096 -19.923 -0.095 -20.464 -0.070 -20.585 -0.051 -20.604 -0.048 -20.608 -0.048 -20.621 -0.046 -20.708 -0.041 -20.742 -0.053 -20.797 -0.049 -20.798 -0.048 -20.800 -0.045 -20.804 -0.037 -20.805 -0.038 -20.838 -0.049 -20.844 -0.042 -20.846 -0.039 -20.852 -0.036 -20.736 -0.176 8.025 0.057 4.931 0.064 43.857 41.706
15.200 -17.738 -0.163 -18.018 -0.143 -18.753 -0.117 -19.869 -0.096 -19.876 -0.096 -20.427 -0.069 -20.554 -0.049 -20.575 -0.046 -20.578 -0.046 -20.592 -0.044 -20.685 -0.038 -20.721 -0.050 -20.782 -0.047 -20.783 -0.046 -20.786 -0.042 -20.790 -0.036 -20.791 -0.038 -20.821 -0.048 -20.827 -0.042 -20.829 -0.039 -20.834 -0.038 -20.727 -0.180 7.965 0.055 4.949 0.064 43.847 41.677
15.600 -17.690 -0.164 -17.970 -0.143 -18.705 -0.116 -19.823 -0.096 -19.830 -0.095 -20.391 -0.068 -20.524 -0.047 -20.546 -0.044 -20.549 -0.044 -20.564 -0.043 -20.662 -0.034 -20.701 -0.047 -20.768 -0.044 -20.769 -0.043 -20.772 -0.040 -20.776 -0.033 -20.777 -0.038 -20.805 -0.047 -20.810 -0.041 -20.812 -0.040 -20.817 -0.040 -20.719 -0.183 7.904 0.055 4.971 0.065 43.837 41.652
16.000 -17.643 -0.165 -17.923 -0.143 -18.657 -0.115 -19.778 -0.095 -19.785 -0.095 -20.355 -0.067 -20.494 -0.045 -20.517 -0.043 -20.520 -0.042 -20.536 -0.041 -20.639 -0.032 -20.681 -0.045 -20.753 -0.042 -20.755 -0.040 -20.758 -0.037 -20.763 -0.031 -20.763 -0.037 -20.790 -0.046 -20.795 -0.041 -20.797 -0.040 -20.802 -0.042 -20.710 -0.187 7.842 0.055 4.996 0.067 43.828 41.633
16.400 -17.597 -0.166 -17.877 -0.144 -18.611 -0.114 -19.734 -0.095 -19.741 -0.095 -20.321 -0.066 -20.464 -0.044 -20.488 -0.041 -20.492 -0.041 -20.509 -0.039 -20.617 -0.030 -20.661 -0.044 -20.739 -0.039 -20.741 -0.038 -20.744 -0.034 -20.750 -0.027 -20.750 -0.035 -20.776 -0.045 -20.780 -0.042 -20.782 -0.041 -20.788 -0.044 -20.702 -0.189 7.779 0.056 5.026 0.069 43.819 41.618
16.800 -17.552 -0.167 -17.832 -0.144 -18.566 -0.114 -19.691 -0.095 -19.699 -0.095 -20.287 -0.065 -20.436 -0.042 -20.460 -0.040 -20.464 -0.040 -20.481 -0.038 -20.595 -0.030 -20.642 -0.043 -20.726 -0.037 -20.727 -0.036 -20.731 -0.031 -20.737 -0.024 -20.736 -0.033 -20.762 -0.045 -20.767 -0.043 -20.769 -0.042 -20.775 -0.047 -20.693 -0.192 7.714 0.057 5.060 0.072 43.810 41.608
17.200 -17.508 -0.169 -17.788 -0.146 -18.522 -0.114 -19.650 -0.096 -19.657 -0.095 -20.254 -0.065 -20.407 -0.042 -20.433 -0.039 -20.437 -0.039 -20.455 -0.038 -20.574 -0.030 -20.623 -0.043 -20.712 -0.036 -20.714 -0.034 -20.718 -0.030 -20.724 -0.021 -20.723 -0.032 -20.749 -0.046 -20.754 -0.044 -20.756 -0.044 -20.763 -0.049 -20.684 -0.194 7.649 0.059 5.098 0.075 43.802 41.602
17.600 -17.465 -0.172 -17.745 -0.147 -18.479 -0.114 -19.609 -0.096 -19.616 -0.096 -20.222 -0.065 -20.379 -0.041 -20.406 -0.039 -20.410 -0.039 -20.429 -0.037 -20.553 -0.031 -20.605 -0.043 -20.699 -0.036 -20.701 -0.034 -20.705 -0.029 -20.712 -0.018 -20.710 -0.030 -20.737 -0.047 -20.743 -0.045 -20.745 -0.045 -20.752 -0.051 -20.676 -0.196 7.583 0.061 5.139 0.079 43.794 41.600
18.000 -17.424 -0.175 -17.703 -0.149 -18.438 -0.115 -19.569 -0.097 -19.577 -0.097 -20.191 -0.066 -20.352 -0.042 -20.380 -0.039 -20.384 -0.039 -20.403 -0.038 -20.533 -0.031 -20.587 -0.043 -20.686 -0.036 -20.688 -0.035 -20.692 -0.029 -20.699 -0.018 -20.697 -0.029 -20.725 -0.049 -20.731 -0.047 -20.734 -0.047 -20.741 -0.053 -20.667 -0.198 7.521 0.063 5.179 0.084 43.786 41.607
18.400 -17.383 -0.178 -17.663 -0.152 -18.397 -0.116 -19.531 -0.098 -19.539 -0.098 -20.162 -0.067 -20.326 -0.043 -20.355 -0.040 -20.359 -0.039 -20.379 -0.038 -20.513 -0.031 -20.570 -0.044 -20.674 -0.038 -20.675 -0.036 -20.679 -0.031 -20.686 -0.020 -20.684 -0.029 -20.714 -0.051 -20.721 -0.049 -20.724 -0.049 -20.732 -0.054 -20.658 -0.199 7.462 0.065 5.216 0.090 43.779 41.625
18.800 -17.344 -0.182 -17.624 -0.155 -18.358 -0.118 -19.494 -0.100 -19.502 -0.100 -20.133 -0.068 -20.301 -0.044 -20.330 -0.041 -20.335 -0.040 -20.355 -0.039 -20.494 -0.032 -20.553 -0.044 -20.661 -0.040 -20.663 -0.038 -20.667 -0.034 -20.674 -0.023 -20.672 -0.030 -20.704 -0.053 -20.712 -0.050 -20.714 -0.050 -20.723 -0.055 -20.650 -0.200 7.407 0.068 5.250 0.096 43.772 41.646
19.200 -17.305 -0.186 -17.586 -0.159 -18.320 -0.120 -19.458 -0.102 -19.466 -0.102 -20.106 -0.070 -20.277 -0.045 -20.306 -0.042 -20.311 -0.042 -20.332 -0.040 -20.476 -0.032 -20.536 -0.046 -20.648 -0.043 -20.650 -0.041 -20.654 -0.037 -20.661 -0.027 -20.660 -0.031 -20.694 -0.055 -20.702 -0.052 -20.706 -0.052 -20.714 -0.055 -20.641 -0.201 7.355 0.070 5.281 0.102 43.765 41.666
19.600 -17.268 -0.190 -17.549 -0.163 -18.284 -0.123 -19.424 -0.104 -19.431 -0.104 -20.080 -0.071 -20.254 -0.047 -20.284 -0.044 -20.288 -0.044 -20.310 -0.042 -20.457 -0.033 -20.520 -0.047 -20.636 -0.045 -20.638 -0.044 -20.642 -0.040 -20.648 -0.030 -20.648 -0.032 -20.685 -0.057 -20.694 -0.054 -20.697 -0.053 -20.706 -0.056 -20.632 -0.201 7.306 0.072 5.311 0.107 43.758 41.683
20.000 -17.232 -0.195 -17.513 -0.167 -18.248 -0.126 -19.390 -0.106 -19.398 -0.106 -20.055 -0.073 -20.231 -0.049 -20.262 -0.046 -20.267 -0.045 -20.288 -0.044 -20.439 -0.035 -20.505 -0.049 -20.624 -0.048 -20.626 -0.046 -20.630 -0.042 -20.636 -0.033 -20.636 -0.033 -20.676 -0.058 -20.685 -0.055 -20.689 -0.054 -20.698 -0.056 -20.624 -0.201 7.259 0.074 5.341 0.112 43.752 41.698
20.400 -17.196 -0.200 -17.478 -0.172 -18.214 -0.129 -19.358 -0.108 -19.366 -0.108 -20.032 -0.075 -20.210 -0.051 -20.241 -0.048 -20.246 -0.047 -20.268 -0.046 -20.422 -0.038 -20.489 -0.051 -20.612 -0.050 -20.614 -0.049 -20.618 -0.045 -20.625 -0.035 -20.625 -0.033 -20.668 -0.060 -20.677 -0.056 -20.681 -0.055 -20.690 -0.055 -20.615 -0.201 7.213 0.075 5.370 0.116 43.745 41.711
20.800 -17.162 -0.206 -17.444 -0.177 -18.180 -0.132 -19.327 -0.110 -19.335 -0.110 -20.009 -0.077 -20.189 -0.053 -20.221 -0.050 -20.226 -0.049 -20.248 -0.048 -20.405 -0.041 -20.474 -0.054 -20.601 -0.052 -20.602 -0.050 -20.607 -0.047 -20.613 -0.037 -20.614 -0.034 -20.660 -0.062 -20.669 -0.057 -20.673 -0.055 -20.683 -0.055 -20.606 -0.200 7.169 0.077 5.400 0.119 43.739 41.721
21.200 -17.128 -0.211 -17.410 -0.182 -18.148 -0.136 -19.298 -0.113 -19.305 -0.112 -19.987 -0.079 -20.169 -0.055 -20.201 -0.052 -20.206 -0.051 -20.229 -0.049 -20.388 -0.045 -20.459 -0.057 -20.589 -0.053 -20.591 -0.052 -20.595 -0.048 -20.602 -0.038 -20.604 -0.034 -20.652 -0.063 -20.662 -0.058 -20.666 -0.056 -20.675 -0.055 -20.597 -0.199 7.127 0.077 5.429 0.122 43.734 41.728
21.600 -17.096 -0.217 -17.378 -0.188 -18.116 -0.139 -19.269 -0.115 -19.277 -0.114 -19.965 -0.080 -20.150 -0.057 -20.182 -0.054 -20.187 -0.053 -20.210 -0.051 -20.371 -0.049 -20.444 -0.060 -20.578 -0.055 -20.580 -0.053 -20.585 -0.049 -20.592 -0.039 -20.594 -0.035 -20.644 -0.065 -20.654 -0.059 -20.658 -0.057 -20.668 -0.055 -20.588 -0.198 7.092 0.078 5.448 0.125 43.728 41.733
22.000 -17.064 -0.223 -17.347 -0.193 -18.086 -0.143 -19.241 -0.117 -19.249 -0.116 -19.945 -0.082 -20.131 -0.058 -20.164 -0.055 -20.169 -0.055 -20.192 -0.053 -20.355 -0.053 -20.429 -0.064 -20.568 -0.056 -20.570 -0.054 -20.574 -0.050 -20.582 -0.039 -20.585 -0.037 -20.636 -0.066 -20.646 -0.061 -20.650 -0.058 -20.660 -0.056 -20.579 -0.196 7.045 0.079 5.489 0.128 43.723 41.738
22.400 -17.032 -0.229 -17.316 -0.199 -18.056 -0.147 -19.215 -0.118 -19.223 -0.118 -19.925 -0.083 -20.113 -0.060 -20.146 -0.057 -20.151 -0.057 -20.174 -0.055 -20.339 -0.057 -20.415 -0.067 -20.557 -0.057 -20.559 -0.055 -20.564 -0.051 -20.573 -0.040 -20.577 -0.038 -20.627 -0.067 -20.638 -0.062 -20.642 -0.059 -20.651 -0.057 -20.570 -0.194 7.013 0.079 5.507 0.131 43.718 41.742
22.800 -17.002 -0.235 -17.286 -0.204 -18.027 -0.150 -19.190 -0.120 -19.198 -0.120 -19.907 -0.085 -20.096 -0.061 -20.129 -0.058 -20.134 -0.058 -20.157 -0.057 -20.323 -0.061 -20.400 -0.071 -20.547 -0.057 -20.549 -0.056 -20.554 -0.051 -20.564 -0.040 -20.569 -0.040 -20.619 -0.069 -20.630 -0.063 -20.633 -0.060 -20.643 -0.057 -20.561 -0.192 6.978 0.080 5.533 0.133 43.714 41.745
23.200 -16.972 -0.241 -17.257 -0.210 -17.999 -0.154 -19.165 -0.121 -19.174 -0.121 -19.888 -0.086 -20.079 -0.063 -20.112 -0.060 -20.117 -0.060 -20.140 -0.058 -20.308 -0.065 -20.386 -0.074 -20.537 -0.058 -20.539 -0.056 -20.545 -0.052 -20.555 -0.041 -20.561 -0.042 -20.611 -0.070 -20.621 -0.064 -20.625 -0.061 -20.634 -0.058 -20.552 -0.189 6.943 0.080 5.559 0.136 43.709 41.748
23.600 -16.942 -0.247 -17.228 -0.216 -17.972 -0.158 -19.142 -0.122 -19.150 -0.122 -19.871 -0.087 -20.062 -0.064 -20.095 -0.061 -20.100 -0.061 -20.124 -0.060 -20.293 -0.068 -20.372 -0.077 -20.527 -0.058 -20.529 -0.057 -20.535 -0.052 -20.547 -0.041 -20.554 -0.044 -20.602 -0.071 -20.612 -0.065 -20.616 -0.062 -20.625 -0.059 -20.542 -0.187 6.909 0.081 5.583 0.138 43.704 41.750
24.000 -16.914 -0.253 -17.200 -0.222 -17.945 -0.162 -19.119 -0.123 -19.128 -0.123 -19.853 -0.087 -20.045 -0.065 -20.079 -0.063 -20.084 -0.062 -20.107 -0.062 -20.277 -0.071 -20.358 -0.080 -20.517 -0.059 -20.519 -0.057 -20.526 -0.052 -20.538 -0.042 -20.547 -0.045 -20.594 -0.072 -20.603 -0.066 -20.607 -0.063 -20.615 -0.060 -20.532 -0.183 6.878 0.081 5.605 0.140 43.700 41.751
24.400 -16.885 -0.260 -17.172 -0.227 -17.919 -0.165 -19.097 -0.124 -19.106 -0.123 -19.837 -0.088 -20.029 -0.066 -20.063 -0.064 -20.068 -0.064 -20.091 -0.063 -20.263 -0.074 -20.344 -0.082 -20.507 -0.059 -20.510 -0.058 -20.516 -0.053 -20.530 -0.042 -20.539 -0.047 -20.584 -0.072 -20.594 -0.066 -20.597 -0.063 -20.605 -0.060 -20.523 -0.180 6.849 0.081 5.624 0.141 43.695 41.751
24.800 -16.857 -0.266 -17.145 -0.233 -17.893 -0.169 -19.076 -0.124 -19.085 -0.124 -19.820 -0.088 -20.013 -0.067 -20.047 -0.065 -20.052 -0.065 -20.076 -0.064 -20.248 -0.077 -20.331 -0.085 -20.497 -0.060 -20.500 -0.058 -20.507 -0.053 -20.521 -0.043 -20.531 -0.048 -20.575 -0.073 -20.584 -0.066 -20.587 -0.064 -20.595 -0.060 -20.513 -0.176 6.821 0.081 5.640 0.142 43.691 41.750
25.200 -16.830 -0.272 -17.118 -0.239 -17.868 -0.172 -19.056 -0.123 -19.064 -0.123 -19.804 -0.088 -19.998 -0.068 -20.031 -0.066 -20.037 -0.066 -20.060 -0.065 -20.233 -0.079 -20.317 -0.087 -20.487 -0.060 -20.490 -0.058 -20.497 -0.053 -20.512 -0.043 -20.524 -0.050 -20.565 -0.073 -20.574 -0.066 -20.577 -0.063 -20.584 -0.059 -20.503 -0.172 6.795 0.080 5.653 0.143 43.686 41.747
25.600 -16.803 -0.278 -17.091 -0.244 -17.843 -0.175 -19.036 -0.123 -19.044 -0.123 -19.789 -0.088 -19.982 -0.068 -20.016 -0.067 -20.021 -0.066 -20.045 -0.066 -20.219 -0.081 -20.303 -0.089 -20.477 -0.060 -20.479 -0.058 -20.487 -0.053 -20.503 -0.043 -20.516 -0.051 -20.555 -0.073 -20.563 -0.066 -20.566 -0.063 -20.573 -0.059 -20.492 -0.168 6.771 0.080 5.663 0.143 43.682 41.744
26.000 -16.776 -0.284 -17.065 -0.250 -17.819 -0.179 -19.016 -0.122 -19.024 -0.121 -19.774 -0.088 -19.967 -0.069 -20.001 -0.067 -20.006 -0.067 -20.030 -0.067 -20.205 -0.082 -20.290 -0.090 -20.466 -0.061 -20.469 -0.059 -20.477 -0.054 -20.494 -0.044 -20.507 -0.052 -20.544 -0.072 -20.552 -0.065 -20.555 -0.062 -20.561 -0.058 -20.482 -0.164 6.747 0.079 5.673 0.142 43.677 41.739
26.400 -16.749 -0.290 -17.039 -0.255 -17.794 -0.181 -18.997 -0.120 -19.005 -0.120 -19.758 -0.088 -19.952 -0.069 -19.986 -0.068 -19.991 -0.067 -20.015 -0.068 -20.190 -0.084 -20.276 -0.092 -20.455 -0.061 -20.458 -0.059 -20.466 -0.054 -20.484 -0.044 -20.498 -0.053 -20.533 -0.072 -20.540 -0.064 -20.543 -0.061 -20.549 -0.056 -20.471 -0.159 6.728 0.078 5.672 0.142 43.672 41.734
26.800 -16.723 -0.296 -17.014 -0.260 -17.771 -0.184 -18.978 -0.118 -18.986 -0.118 -19.744 -0.088 -19.937 -0.069 -19.971 -0.068 -19.976 -0.068 -20.000 -0.068 -20.176 -0.085 -20.263 -0.093 -20.444 -0.061 -20.447 -0.060 -20.455 -0.055 -20.474 -0.045 -20.489 -0.054 -20.522 -0.071 -20.528 -0.063 -20.531 -0.060 -20.537 -0.055 -20.461 -0.154 6.712 0.077 5.666 0.140 43.667 41.729
27.200 -16.697 -0.301 -16.988 -0.265 -17.747 -0.187 -18.959 -0.116 -18.967 -0.115 -19.729 -0.087 -19.923 -0.069 -19.956 -0.068 -19.962 -0.068 -19.986 -0.069 -20.162 -0.086 -20.249 -0.094 -20.432 -0.062 -20.435 -0.060 -20.444 -0.055 -20.463 -0.046 -20.479 -0.055 -20.510 -0.070 -20.516 -0.062 -20.518 -0.058 -20.524 -0.053 -20.450 -0.149 6.698 0.076 5.656 0.138 43.662 41.722
27.600 -16.671 -0.307 -16.963 -0.270 -17.723 -0.189 -18.940 -0.113 -18.949 -0.113 -19.714 -0.087 -19.908 -0.070 -19.942 -0.069 -19.947 -0.069 -19.971 -0.069 -20.148 -0.087 -20.236 -0.095 -20.420 -0.062 -20.424 -0.061 -20.432 -0.056 -20.452 -0.048 -20.469 -0.056 -20.497 -0.068 -20.503 -0.060 -20.505 -0.057 -20.510 -0.051 -20.439 -0.144 6.685 0.075 5.641 0.136 43.656 41.715
28.000 -16.645 -0.313 -16.937 -0.275 -17.700 -0.192 -18.922 -0.109 -18.930 -0.109 -19.699 -0.086 -19.894 -0.070 -19.927 -0.069 -19.933 -0.069 -19.957 -0.070 -20.134 -0.088 -20.222 -0.096 -20.408 -0.063 -20.411 -0.061 -20.420 -0.057 -20.440 -0.049 -20.459 -0.056 -20.485 -0.067 -20.490 -0.058 -20.492 -0.055 -20.497 -0.049 -20.428 -0.139 6.674 0.073 5.624 0.133 43.650 41.706
28.400 -16.619 -0.318 -16.912 -0.280 -17.676 -0.194 -18.903 -0.106 -18.912 -0.105 -19.684 -0.086 -19.879 -0.070 -19.913 -0.070 -19.918 -0.070 -19.942 -0.070 -20.121 -0.089 -20.209 -0.097 -20.395 -0.063 -20.399 -0.062 -20.408 -0.058 -20.428 -0.050 -20.448 -0.057 -20.472 -0.065 -20.476 -0.056 -20.478 -0.052 -20.482 -0.046 -20.417 -0.134 6.663 0.072 5.604 0.130 43.645 41.697
28.800 -16.594 -0.323 -16.887 -0.285 -17.653 -0.196 -18.884 -0.101 -18.893 -0.101 -19.669 -0.085 -19.865 -0.071 -19.899 -0.070 -19.904 -0.070 -19.928 -0.071 -20.107 -0.089 -20.196 -0.097 -20.383 -0.064 -20.386 -0.062 -20.395 -0.058 -20.416 -0.051 -20.436 -0.057 -20.458 -0.063 -20.462 -0.054 -20.464 -0.050 -20.468 -0.044 -20.405 -0.129 6.652 0.071 5.584 0.127 43.639 41.687
29.200 -16.568 -0.329 -16.862 -0.290 -17.629 -0.198 -18.865 -0.097 -18.874 -0.097 -19.654 -0.085 -19.850 -0.071 -19.884 -0.070 -19.890 -0.070 -19.914 -0.071 -20.093 -0.090 -20.182 -0.097 -20.370 -0.064 -20.373 -0.063 -20.382 -0.059 -20.403 -0.052 -20.425 -0.058 -20.445 -0.061 -20.448 -0.052 -20.450 -0.048 -20.454 -0.043 -20.394 -0.124 6.640 0.069 5.565 0.124 43.633 41.678
29.600 -16.542 -0.334 -16.837 -0.294 -17.605 -0.200 -18.846 -0.092 -18.855 -0.092 -19.638 -0.084 -19.836 -0.071 -19.869 -0.070 -19.875 -0.070 -19.899 -0.071 -20.079 -0.090 -20.169 -0.098 -20.356 -0.064 -20.360 -0.063 -20.369 -0.059 -20.391 -0.053 -20.413 -0.058 -20.431 -0.059 -20.434 -0.050 -20.435 -0.047 -20.439 -0.042 -20.382 -0.119 6.628 0.068 5.548 0.121 43.626 41.671
30.000 -16.516 -0.339 -16.811 -0.299 -17.581 -0.202 -18.826 -0.087 -18.835 -0.087 -19.622 -0.084 -19.821 -0.071 -19.855 -0.070 -19.860 -0.070 -19.885 -0.071 -20.066 -0.090 -20.156 -0.098 -20.343 -0.065 -20.347 -0.063 -20.356 -0.060 -20.378 -0.053 -20.400 -0.057 -20.416 -0.057 -20.419 -0.048 -20.421 -0.045 -20.425 -0.043 -20.371 -0.115 6.613 0.067 5.534 0.120 43.620 41.666
30.400 -16.490 -0.344 -16.786 -0.303 -17.557 -0.204 -18.806 -0.082 -18.815 -0.081 -19.605 -0.083 -19.806 -0.071 -19.840 -0.070 -19.846 -0.070 -19.870 -0.071 -20.052 -0.090 -20.142 -0.098 -20.330 -0.065 -20.333 -0.064 -20.342 -0.060 -20.364 -0.054 -20.388 -0.057 -20.402 -0.055 -20.405 -0.047 -20.406 -0.044 -20.410 -0.044 -20.359 -0.111 6.595 0.066 5.524 0.119 43.614 41.664
30.800 -16.464 -0.349 -16.760 -0.308 -17.532 -0.206 -18.786 -0.076 -18.795 -0.076 -19.589 -0.083 -19.790 -0.071 -19.825 -0.070 -19.831 -0.070 -19.855 -0.071 -20.038 -0.091 -20.129 -0.098 -20.316 -0.065 -20.320 -0.064 -20.329 -0.060 -20.351 -0.054 -20.375 -0.057 -20.387 -0.053 -20.390 -0.046 -20.391 -0.044 -20.395 -0.046 -20.347 -0.109 6.576 0.064 5.517 0.118 43.608 41.665
31.200 -16.438 -0.354 -16.734 -0.312 -17.507 -0.208 -18.765 -0.071 -18.774 -0.071 -19.571 -0.083 -19.775 -0.071 -19.810 -0.070 -19.816 -0.070 -19.840 -0.071 -20.024 -0.091 -20.115 -0.098 -20.303 -0.066 -20.306 -0.065 -20.315 -0.061 -20.338 -0.055 -20.362 -0.057 -20.373 -0.051 -20.375 -0.045 -20.376 -0.044 -20.380 -0.049 -20.336 -0.106 6.555 0.063 5.513 0.117 43.602 41.667
31.600 -16.412 -0.359 -16.708 -0.316 -17.482 -0.210 -18.743 -0.066 -18.752 -0.066 -19.554 -0.083 -19.760 -0.071 -19.795 -0.070 -19.800 -0.071 -19.825 -0.071 -20.011 -0.091 -20.102 -0.099 -20.289 -0.067 -20.293 -0.065 -20.302 -0.062 -20.324 -0.056 -20.349 -0.057 -20.358 -0.049 -20.360 -0.045 -20.362 -0.045 -20.366 -0.052 -20.324 -0.105 6.533 0.062 5.512 0.117 43.596 41.671
32.000 -16.385 -0.364 -16.682 -0.321 -17.457 -0.213 -18.720 -0.062 -18.729 -0.062 -19.536 -0.083 -19.744 -0.071 -19.779 -0.071 -19.785 -0.071 -19.810 -0.071 -19.997 -0.091 -20.088 -0.099 -20.275 -0.068 -20.279 -0.066 -20.288 -0.063 -20.311 -0.057 -20.335 -0.057 -20.343 -0.048 -20.346 -0.045 -20.347 -0.046 -20.351 -0.056 -20.312 -0.105 6.510 0.061 5.513 0.117 43.590 41.676
32.400 -16.359 -0.369 -16.655 -0.325 -17.430 -0.215 -18.697 -0.059 -18.706 -0.059 -19.517 -0.084 -19.728 -0.072 -19.764 -0.071 -19.769 -0.071 -19.795 -0.072 -19.983 -0.091 -20.074 -0.099 -20.262 -0.069 -20.265 -0.068 -20.274 -0.064 -20.297 -0.058 -20.321 -0.057 -20.329 -0.047 -20.331 -0.046 -20.332 -0.048 -20.337 -0.059 -20.301 -0.106 6.487 0.060 5.514 0.118 43.584 41.683
32.800 -16.332 -0.373 -16.628 -0.329 -17.404 -0.218 -18.673 -0.058 -18.682 -0.058 -19.498 -0.084 -19.711 -0.072 -19.748 -0.072 -19.754 -0.072 -19.779 -0.072 -19.969 -0.091 -20.061 -0.099 -20.248 -0.070 -20.251 -0.069 -20.260 -0.066 -20.283 -0.059 -20.307 -0.057 -20.314 -0.047 -20.317 -0.048 -20.318 -0.050 -20.323 -0.063 -20.289 -0.108 6.465 0.060 5.515 0.119 43.578 41.690
33.200 -16.305 -0.378 -16.601 -0.333 -17.377 -0.221 -18.648 -0.058 -18.657 -0.058 -19.478 -0.085 -19.694 -0.073 -19.731 -0.073 -19.737 -0.073 -19.763 -0.073 -19.954 -0.091 -20.047 -0.099 -20.234 -0.071 -20.237 -0.070 -20.246 -0.067 -20.269 -0.060 -20.293 -0.058 -20.300 -0.047 -20.302 -0.050 -20.304 -0.053 -20.309 -0.066 -20.277 -0.110 6.445 0.061 5.513 0.122 43.572 41.697
33.600 -16.277 -0.383 -16.574 -0.337 -17.349 -0.224 -18.622 -0.061 -18.631 -0.060 -19.458 -0.085 -19.677 -0.074 -19.714 -0.073 -19.720 -0.073 -19.747 -0.074 -19.940 -0.091 -20.033 -0.098 -20.219 -0.072 -20.223 -0.071 -20.232 -0.068 -20.255 -0.061 -20.278 -0.058 -20.286 -0.049 -20.289 -0.052 -20.290 -0.056 -20.295 -0.070 -20.266 -0.113 6.426 0.062 5.510 0.126 43.567 41.704
34.000 -16.249 -0.387 -16.546 -0.342 -17.321 -0.227 -18.595 -0.064 -18.604 -0.064 -19.437 -0.086 -19.659 -0.075 -19.697 -0.074 -19.703 -0.074 -19.730 -0.075 -19.925 -0.091 -20.019 -0.098 -20.205 -0.073 -20.208 -0.072 -20.218 -0.069 -20.240 -0.062 -20.264 -0.058 -20.272 -0.051 -20.275 -0.055 -20.276 -0.059 -20.282 -0.073 -20.254 -0.117 6.409 0.064 5.506 0.130 43.562 41.710
34.400 -16.221 -0.392 -16.518 -0.346 -17.293 -0.230 -18.567 -0.069 -18.576 -0.069 -19.416 -0.087 -19.641 -0.076 -19.679 -0.075 -19.686 -0.075 -19.713 -0.076 -19.910 -0.091 -20.004 -0.098 -20.190 -0.074 -20.194 -0.073 -20.203 -0.070 -20.225 -0.063 -20.249 -0.059 -20.259 -0.054 -20.262 -0.059 -20.263 -0.062 -20.268 -0.077 -20.242 -0.120 6.392 0.066 5.502 0.135 43.556 41.715
34.800 -16.193 -0.396 -16.489 -0.350 -17.264 -0.233 -18.539 -0.074 -18.548 -0.074 -19.393 -0.088 -19.622 -0.077 -19.661 -0.076 -19.668 -0.076 -19.695 -0.076 -19.895 -0.091 -19.990 -0.097 -20.176 -0.075 -20.179 -0.073 -20.188 -0.071 -20.210 -0.063 -20.233 -0.059 -20.246 -0.058 -20.248 -0.062 -20.250 -0.066 -20.255 -0.080 -20.231 -0.123 6.375 0.068 5.499 0.139 43.551 41.719
35.200 -16.165 -0.401 -16.461 -0.354 -17.234 -0.236 -18.509 -0.080 -18.519 -0.080 -19.371 -0.089 -19.603 -0.078 -19.642 -0.077 -19.649 -0.077 -19.677 -0.077 -19.880 -0.090 -19.975 -0.096 -20.160 -0.075 -20.164 -0.074 -20.173 -0.071 -20.195 -0.064 -20.218 -0.059 -20.232 -0.061 -20.235 -0.066 -20.237 -0.069 -20.243 -0.083 -20.219 -0.126 6.358 0.070 5.497 0.144 43.546 41.721
35.600 -16.136 -0.405 -16.431 -0.358 -17.204 -0.240 -18.479 -0.086 -18.488 -0.086 -19.347 -0.090 -19.583 -0.078 -19.623 -0.077 -19.630 -0.077 -19.658 -0.077 -19.864 -0.089 -19.960 -0.095 -20.145 -0.074 -20.148 -0.073 -20.157 -0.070 -20.179 -0.063 -20.202 -0.059 -20.219 -0.064 -20.223 -0.069 -20.224 -0.072 -20.230 -0.086 -20.208 -0.130 6.339 0.072 5.496 0.148 43.541 41.721
36.000 -16.107 -0.410 -16.402 -0.362 -17.174 -0.243 -18.448 -0.092 -18.458 -0.092 -19.323 -0.091 -19.562 -0.079 -19.603 -0.078 -19.610 -0.078 -19.639 -0.078 -19.848 -0.088 -19.944 -0.094 -20.129 -0.073 -20.133 -0.072 -20.142 -0.070 -20.163 -0.063 -20.186 -0.059 -20.206 -0.067 -20.210 -0.072 -20.212 -0.075 -20.218 -0.088 -20.196 -0.132 6.319 0.074 5.497 0.152 43.536 41.721
36.400 -16.078 -0.414 -16.372 -0.366 -17.143 -0.247 -18.417 -0.098 -18.426 -0.097 -19.299 -0.092 -19.541 -0.079 -19.583 -0.078 -19.590 -0.077 -19.620 -0.077 -19.831 -0.087 -19.929 -0.093 -20.114 -0.072 -20.117 -0.071 -20.126 -0.069 -20.147 -0.062 -20.169 -0.059 -20.194 -0.069 -20.198 -0.074 -20.199 -0.077 -20.205 -0.090 -20.184 -0.135 6.298 0.075 5.500 0.155 43.530 41.718
36.800 -16.048 -0.419 -16.343 -0.370 -17.112 -0.250 -18.385 -0.103 -18.394 -0.103 -19.274 -0.092 -19.520 -0.079 -19.562 -0.077 -19.569 -0.077 -19.599 -0.077 -19.814 -0.086 -19.913 -0.091 -20.098 -0.071 -20.101 -0.070 -20.109 -0.067 -20.130 -0.061 -20.153 -0.059 -20.181 -0.071 -20.185 -0.076 -20.187 -0.079 -20.193 -0.092 -20.173 -0.137 6.276 0.077 5.505 0.159 43.525 41.714
37.200 -16.019 -0.423 -16.312 -0.375 -17.080 -0.254 -18.352 -0.108 -18.362 -0.108 -19.248 -0.093 -19.498 -0.078 -19.541 -0.076 -19.548 -0.076 -19.579 -0.076 -19.797 -0.084 -19.896 -0.089 -20.081 -0.068 -20.085 -0.067 -20.093 -0.065 -20.114 -0.059 -20.136 -0.058 -20.168 -0.073 -20.173 -0.078 -20.175 -0.081 -20.181 -0.093 -20.161 -0.139 6.252 0.078 5.512 0.161 43.520 41.709
37.600 -15.989 -0.427 -16.282 -0.379 -17.048 -0.257 -18.319 -0.113 -18.329 -0.112 -19.222 -0.093 -19.475 -0.077 -19.519 -0.075 -19.526 -0.075 -19.557 -0.075 -19.779 -0.082 -19.880 -0.087 -20.065 -0.066 -20.068 -0.065 -20.076 -0.062 -20.097 -0.057 -20.119 -0.058 -20.155 -0.074 -20.160 -0.079 -20.163 -0.082 -20.169 -0.094 -20.150 -0.140 6.227 0.078 5.521 0.164 43.514 41.703
38.000 -15.959 -0.432 -16.251 -0.383 -17.015 -0.261 -18.285 -0.117 -18.295 -0.117 -19.195 -0.093 -19.452 -0.076 -19.497 -0.074 -19.504 -0.074 -19.536 -0.073 -19.761 -0.080 -19.862 -0.085 -20.048 -0.063 -20.051 -0.062 -20.060 -0.059 -20.080 -0.055 -20.102 -0.057 -20.142 -0.075 -20.148 -0.080 -20.150 -0.083 -20.157 -0.095 -20.138 -0.141 6.201 0.079 5.533 0.166 43.509 41.695
38.400 -15.928 -0.436 -16.220 -0.386 -16.982 -0.264 -18.251 -0.121 -18.261 -0.121 -19.168 -0.093 -19.429 -0.075 -19.474 -0.073 -19.481 -0.072 -19.513 -0.071 -19.742 -0.077 -19.845 -0.083 -20.031 -0.059 -20.034 -0.059 -20.043 -0.056 -20.063 -0.052 -20.085 -0.055 -20.129 -0.075 -20.136 -0.080 -20.138 -0.083 -20.145 -0.095 -20.126 -0.142 6.174 0.079 5.547 0.168 43.503 41.685
38.800 -15.898 -0.440 -16.189 -0.390 -16.949 -0.267 -18.217 -0.124 -18.226 -0.124 -19.140 -0.093 -19.404 -0.073 -19.451 -0.071 -19.458 -0.071 -19.491 -0.070 -19.723 -0.075 -19.827 -0.080 -20.014 -0.056 -20.017 -0.055 -20.026 -0.052 -20.046 -0.049 -20.068 -0.054 -20.116 -0.075 -20.123 -0.080 -20.126 -0.082 -20.133 -0.095 -20.115 -0.141 6.145 0.080 5.563 0.169 43.498 41.675
39.200 -15.867 -0.445 -16.158 -0.394 -16.916 -0.271 -18.182 -0.127 -18.192 -0.127 -19.112 -0.092 -19.380 -0.071 -19.427 -0.069 -19.434 -0.069 -19.467 -0.068 -19.703 -0.072 -19.808 -0.078 -19.997 -0.052 -20.000 -0.051 -20.008 -0.048 -20.028 -0.046 -20.051 -0.053 -20.103 -0.074 -20.110 -0.079 -20.113 -0.082 -20.121 -0.094 -20.103 -0.141 6.115 0.080 5.582 0.171 43.492 41.663
39.600 -15.837 -0.449 -16.126 -0.398 -16.882 -0.274 -18.147 -0.130 -18.156 -0.130 -19.083 -0.092 -19.355 -0.070 -19.402 -0.067 -19.410 -0.067 -19.444 -0.066 -19.682 -0.069 -19.789 -0.075 -19.980 -0.048 -19.983 -0.047 -19.991 -0.044 -20.011 -0.043 -20.033 -0.052 -20.090 -0.073 -20.098 -0.078 -20.101 -0.080 -20.109 -0.092 -20.091 -0.140 6.088 0.080 5.595 0.172 43.486 41.650
40.000 -15.806 -0.453 -16.095 -0.402 -16.849 -0.277 -18.111 -0.132 -18.121 -0.132 -19.055 -0.091 -19.329 -0.068 -19.377 -0.065 -19.385 -0.065 -19.419 -0.064 -19.661 -0.067 -19.769 -0.073 -19.962 -0.044 -19.965 -0.043 -19.973 -0.040 -19.994 -0.040 -20.016 -0.052 -20.076 -0.072 -20.085 -0.076 -20.088 -0.079 -20.096 -0.091 -20.079 -0.138 6.058 0.080 5.615 0.173 43.481 41.637
40.400 -15.775 -0.457 -16.063 -0.406 -16.815 -0.280 -18.076 -0.134 -18.085 -0.133 -19.025 -0.090 -19.303 -0.066 -19.352 -0.064 -19.360 -0.063 -19.394 -0.062 -19.639 -0.064 -19.748 -0.071 -19.944 -0.041 -19.947 -0.039 -19.956 -0.037 -19.976 -0.038 -19.999 -0.052 -20.063 -0.071 -20.072 -0.074 -20.075 -0.077 -20.084 -0.089 -20.067 -0.136 6.026 0.079 5.638 0.174 43.475 41.624
40.800 -15.744 -0.462 -16.031 -0.410 -16.781 -0.283 -18.040 -0.135 -18.050 -0.135 -18.995 -0.089 -19.276 -0.065 -19.326 -0.062 -19.334 -0.061 -19.368 -0.060 -19.617 -0.062 -19.727 -0.069 -19.926 -0.038 -19.930 -0.036 -19.938 -0.034 -19.959 -0.036 -19.981 -0.052 -20.049 -0.069 -20.058 -0.072 -20.062 -0.074 -20.071 -0.087 -20.055 -0.133 5.995 0.079 5.660 0.176 43.469 41.613
41.200 -15.713 -0.466 -16.000 -0.414 -16.747 -0.286 -18.004 -0.136 -18.014 -0.135 -18.965 -0.088 -19.249 -0.063 -19.299 -0.060 -19.307 -0.059 -19.342 -0.058 -19.593 -0.060 -19.705 -0.068 -19.908 -0.036 -19.912 -0.034 -19.920 -0.032 -19.941 -0.035 -19.964 -0.053 -20.034 -0.067 -20.045 -0.069 -20.048 -0.072 -20.058 -0.084 -20.043 -0.130 5.963 0.079 5.680 0.177 43.463 41.606
41.600 -15.682 -0.470 -15.968 -0.418 -16.713 -0.289 -17.968 -0.137 -17.978 -0.136 -18.935 -0.087 -19.222 -0.061 -19.272 -0.058 -19.280 -0.057 -19.315 -0.056 -19.569 -0.059 -19.683 -0.067 -19.890 -0.035 -19.893 -0.033 -19.902 -0.031 -19.923 -0.035 -19.946 -0.054 -20.020 -0.065 -20.031 -0.067 -20.035 -0.069 -20.044 -0.081 -20.031 -0.126 5.927 0.078 5.708 0.178 43.457 41.604
42.000 -15.651 -0.474 -15.936 -0.422 -16.679 -0.291 -17.932 -0.137 -17.942 -0.136 -18.904 -0.085 -19.193 -0.058 -19.244 -0.055 -19.252 -0.055 -19.288 -0.054 -19.544 -0.058 -19.660 -0.067 -19.872 -0.035 -19.875 -0.033 -19.884 -0.031 -19.905 -0.036 -19.927 -0.055 -20.005 -0.063 -20.016 -0.064 -20.020 -0.065 -20.031 -0.078 -20.019 -0.122 5.898 0.077 5.716 0.178 43.450 41.605
42.400 -15.620 -0.479 -15.904 -0.426 -16.645 -0.294 -17.896 -0.137 -17.906 -0.136 -18.873 -0.084 -19.165 -0.056 -19.215 -0.053 -19.224 -0.052 -19.260 -0.051 -19.518 -0.058 -19.636 -0.067 -19.853 -0.035 -19.856 -0.034 -19.865 -0.032 -19.886 -0.037 -19.908 -0.056 -19.989 -0.060 -20.001 -0.060 -20.006 -0.062 -20.016 -0.074 -20.006 -0.118 5.870 0.076 5.718 0.177 43.442 41.606
42.800 -15.589 -0.483 -15.872 -0.430 -16.611 -0.297 -17.860 -0.137 -17.870 -0.136 -18.842 -0.082 -19.135 -0.053 -19.186 -0.050 -19.195 -0.050 -19.231 -0.049 -19.491 -0.058 -19.612 -0.067 -19.834 -0.036 -19.837 -0.035 -19.846 -0.033 -19.867 -0.038 -19.889 -0.058 -19.973 -0.058 -19.986 -0.056 -19.991 -0.058 -20.002 -0.070 -19.994 -0.113 5.844 0.074 5.715 0.175 43.434 41.605
43.200 -15.558 -0.488 -15.841 -0.434 -16.577 -0.300 -17.824 -0.136 -17.834 -0.136 -18.810 -0.081 -19.105 -0.050 -19.157 -0.047 -19.165 -0.047 -19.201 -0.046 -19.464 -0.059 -19.587 -0.068 -19.814 -0.037 -19.818 -0.036 -19.827 -0.035 -19.847 -0.040 -19.869 -0.059 -19.957 -0.055 -19.970 -0.052 -19.975 -0.054 -19.986 -0.067 -19.981 -0.108 5.818 0.072 5.709 0.171 43.425 41.600
43.600 -15.527 -0.492 -15.809 -0.438 -16.544 -0.303 -17.789 -0.136 -17.799 -0.135 -18.778 -0.079 -19.075 -0.047 -19.127 -0.044 -19.135 -0.043 -19.171 -0.043 -19.436 -0.059 -19.561 -0.069 -19.794 -0.038 -19.798 -0.037 -19.807 -0.036 -19.827 -0.041 -19.849 -0.060 -19.939 -0.052 -19.953 -0.048 -19.959 -0.049 -19.970 -0.063 -19.968 -0.103 5.793 0.069 5.699 0.167 43.416 41.592
44.000 -15.497 -0.497 -15.778 -0.442 -16.510 -0.306 -17.753 -0.135 -17.763 -0.135 -18.746 -0.078 -19.044 -0.044 -19.096 -0.040 -19.104 -0.040 -19.141 -0.039 -19.408 -0.060 -19.535 -0.070 -19.773 -0.038 -19.777 -0.037 -19.786 -0.036 -19.806 -0.042 -19.828 -0.061 -19.921 -0.049 -19.936 -0.044 -19.941 -0.045 -19.954 -0.060 -19.956 -0.098 5.768 0.066 5.688 0.162 43.407 41.580
44.400 -15.466 -0.501 -15.747 -0.446 -16.477 -0.309 -17.718 -0.135 -17.728 -0.134 -18.714 -0.077 -19.013 -0.040 -19.065 -0.037 -19.073 -0.037 -19.110 -0.036 -19.379 -0.061 -19.509 -0.071 -19.753 -0.038 -19.756 -0.038 -19.765 -0.037 -19.785 -0.043 -19.807 -0.062 -19.903 -0.046 -19.918 -0.040 -19.924 -0.041 -19.937 -0.056 -19.943 -0.093 5.743 0.064 5.677 0.157 43.398 41.565
44.800 -15.436 -0.506 -15.716 -0.451 -16.444 -0.312 -17.684 -0.135 -17.694 -0.134 -18.682 -0.076 -18.981 -0.037 -19.033 -0.034 -19.042 -0.033 -19.078 -0.033 -19.351 -0.061 -19.483 -0.072 -19.731 -0.038 -19.735 -0.038 -19.744 -0.037 -19.764 -0.044 -19.786 -0.063 -19.883 -0.044 -19.899 -0.037 -19.905 -0.037 -19.919 -0.054 -19.930 -0.088 5.719 0.061 5.665 0.151 43.388 41.549
45.200 -15.406 -0.511 -15.685 -0.455 -16.412 -0.316 -17.650 -0.135 -17.659 -0.134 -18.650 -0.075 -18.949 -0.035 -19.001 -0.031 -19.010 -0.031 -19.046 -0.031 -19.322 -0.062 -19.456 -0.073 -19.709 -0.038 -19.713 -0.038 -19.722 -0.037 -19.742 -0.044 -19.763 -0.063 -19.863 -0.042 -19.879 -0.034 -19.885 -0.035 -19.900 -0.052 -19.917 -0.084 5.693 0.059 5.656 0.147 43.379 41.535
45.600 -15.376 -0.516 -15.655 -0.460 -16.380 -0.320 -17.616 -0.135 -17.626 -0.134 -18.618 -0.074 -18.917 -0.034 -18.969 -0.029 -18.978 -0.029 -19.014 -0.029 -19.293 -0.063 -19.430 -0.074 -19.687 -0.038 -19.691 -0.037 -19.700 -0.037 -19.720 -0.045 -19.741 -0.064 -19.843 -0.041 -19.859 -0.032 -19.865 -0.033 -19.881 -0.051 -19.904 -0.080 5.668 0.057 5.648 0.145 43.370 41.526
46.000 -15.346 -0.521 -15.624 -0.465 -16.348 -0.323 -17.583 -0.136 -17.593 -0.135 -18.587 -0.074 -18.886 -0.033 -18.937 -0.029 -18.946 -0.028 -18.983 -0.029 -19.265 -0.064 -19.403 -0.075 -19.664 -0.038 -19.668 -0.037 -19.677 -0.037 -19.697 -0.045 -19.718 -0.064 -19.821 -0.041 -19.838 -0.032 -19.844 -0.033 -19.861 -0.050 -19.891 -0.078 5.643 0.056 5.640 0.145 43.361 41.522
46.400 -15.317 -0.526 -15.594 -0.469 -16.316 -0.327 -17.550 -0.138 -17.560 -0.137 -18.556 -0.074 -18.855 -0.033 -18.907 -0.029 -18.915 -0.029 -18.952 -0.029 -19.238 -0.065 -19.377 -0.076 -19.641 -0.038 -19.645 -0.038 -19.654 -0.038 -19.674 -0.046 -19.695 -0.065 -19.800 -0.041 -19.816 -0.033 -19.823 -0.034 -19.841 -0.051 -19.878 -0.077 5.619 0.057 5.632 0.146 43.353 41.522
46.800 -15.287 -0.531 -15.564 -0.475 -16.285 -0.332 -17.518 -0.140 -17.528 -0.139 -18.526 -0.075 -18.825 -0.035 -18.877 -0.031 -18.885 -0.030 -18.922 -0.030 -19.210 -0.066 -19.351 -0.077 -19.618 -0.039 -19.622 -0.039 -19.631 -0.039 -19.650 -0.046 -19.672 -0.065 -19.778 -0.043 -19.794 -0.035 -19.801 -0.036 -19.820 -0.052 -19.865 -0.078 5.598 0.057 5.620 0.149 43.344 41.525
47.200 -15.259 -0.536 -15.535 -0.480 -16.255 -0.336 -17.487 -0.143 -17.497 -0.142 -18.496 -0.075 -18.796 -0.036 -18.848 -0.033 -18.857 -0.032 -18.894 -0.033 -19.184 -0.067 -19.326 -0.078 -19.594 -0.041 -19.598 -0.040 -19.607 -0.040 -19.627 -0.047 -19.648 -0.065 -19.756 -0.045 -19.773 -0.038 -19.780 -0.038 -19.800 -0.054 -19.852 -0.081 5.580 0.058 5.605 0.152 43.336 41.529
47.600 -15.230 -0.542 -15.506 -0.485 -16.225 -0.341 -17.457 -0.146 -17.467 -0.145 -18.467 -0.076 -18.768 -0.038 -18.821 -0.035 -18.830 -0.035 -18.867 -0.035 -19.158 -0.068 -19.301 -0.079 -19.570 -0.043 -19.574 -0.042 -19.583 -0.041 -19.603 -0.048 -19.625 -0.066 -19.734 -0.047 -19.751 -0.041 -19.758 -0.042 -19.779 -0.056 -19.839 -0.085 5.563 0.059 5.585 0.154 43.328 41.531
48.000 -15.201 -0.548 -15.477 -0.490 -16.195 -0.346 -17.427 -0.150 -17.437 -0.149 -18.439 -0.077 -18.742 -0.040 -18.795 -0.037 -18.804 -0.037 -18.842 -0.037 -19.133 -0.070 -19.276 -0.080 -19.546 -0.044 -19.550 -0.043 -19.559 -0.043 -19.580 -0.049 -19.602 -0.066 -19.712 -0.050 -19.729 -0.044 -19.737 -0.045 -19.758 -0.058 -19.827 -0.090 5.549 0.060 5.562 0.156 43.320 41.532
48.400 -15.173 -0.553 -15.449 -0.496 -16.165 -0.352 -17.398 -0.155 -17.408 -0.154 -18.412 -0.078 -18.716 -0.042 -18.770 -0.039 -18.779 -0.039 -18.817 -0.039 -19.109 -0.071 -19.252 -0.081 -19.522 -0.045 -19.526 -0.045 -19.535 -0.044 -19.556 -0.050 -19.580 -0.066 -19.690 -0.053 -19.708 -0.048 -19.715 -0.048 -19.737 -0.060 -19.814 -0.096 5.537 0.060 5.535 0.158 43.312 41.532
48.800 -15.146 -0.559 -15.420 -0.502 -16.137 -0.357 -17.369 -0.160 -17.379 -0.159 -18.385 -0.079 -18.692 -0.043 -18.746 -0.041 -18.755 -0.040 -18.794 -0.041 -19.085 -0.072 -19.228 -0.082 -19.498 -0.046 -19.502 -0.046 -19.512 -0.045 -19.533 -0.050 -19.557 -0.067 -19.668 -0.055 -19.686 -0.051 -19.694 -0.051 -19.716 -0.062 -19.801 -0.102 5.526 0.061 5.507 0.158 43.304 41.529
49.200 -15.118 -0.565 -15.393 -0.508 -16.108 -0.363 -17.342 -0.165 -17.352 -0.164 -18.359 -0.079 -18.668 -0.044 -18.723 -0.041 -18.732 -0.041 -18.771 -0.042 -19.062 -0.073 -19.205 -0.083 -19.474 -0.047 -19.478 -0.046 -19.488 -0.045 -19.511 -0.050 -19.536 -0.067 -19.647 -0.057 -19.665 -0.053 -19.673 -0.053 -19.696 -0.064 -19.789 -0.109 5.516 0.061 5.478 0.158 43.297 41.526
49.600 -15.091 -0.571 -15.365 -0.514 -16.080 -0.369 -17.314 -0.170 -17.324 -0.169 -18.334 -0.080 -18.646 -0.044 -18.701 -0.041 -18.710 -0.041 -18.749 -0.042 -19.040 -0.073 -19.182 -0.084 -19.451 -0.047 -19.455 -0.046 -19.465 -0.045 -19.488 -0.050 -19.515 -0.067 -19.626 -0.059 -19.644 -0.055 -19.652 -0.055 -19.676 -0.066 -19.776 -0.116 5.507 0.060 5.448 0.158 43.289 41.521
50.000 -15.064 -0.578 -15.338 -0.520 -16.053 -0.375 -17.288 -0.176 -17.298 -0.175 -18.310 -0.081 -18.624 -0.043 -18.679 -0.041 -18.688 -0.040 -18.727 -0.041 -19.019 -0.074 -19.160 -0.085 -19.428 -0.046 -19.432 -0.045 -19.443 -0.044 -19.467 -0.049 -19.494 -0.068 -19.605 -0.061 -19.624 -0.057 -19.631 -0.057 -19.655 -0.067 -19.764 -0.123 5.498 0.060 5.419 0.157 43.281 41.515
50.400 -15.038 -0.584 -15.311 -0.526 -16.026 -0.381 -17.262 -0.182 -17.272 -0.181 -18.286 -0.082 -18.602 -0.042 -18.658 -0.039 -18.667 -0.039 -18.707 -0.040 -18.998 -0.075 -19.138 -0.085 -19.406 -0.045 -19.410 -0.044 -19.421 -0.043 -19.445 -0.048 -19.474 -0.068 -19.585 -0.063 -19.603 -0.058 -19.611 -0.059 -19.636 -0.069 -19.752 -0.130 5.489 0.059 5.390 0.156 43.274 41.508
50.800 -15.012 -0.590 -15.285 -0.533 -15.999 -0.388 -17.236 -0.188 -17.246 -0.186 -18.263 -0.082 -18.581 -0.040 -18.637 -0.038 -18.647 -0.038 -18.686 -0.039 -18.977 -0.075 -19.117 -0.086 -19.384 -0.044 -19.388 -0.043 -19.399 -0.041 -19.425 -0.047 -19.455 -0.069 -19.565 -0.064 -19.583 -0.060 -19.591 -0.060 -19.616 -0.070 -19.740 -0.138 5.481 0.059 5.363 0.154 43.267 41.501
51.200 -14.986 -0.597 -15.259 -0.539 -15.973 -0.394 -17.211 -0.194 -17.221 -0.192 -18.241 -0.083 -18.561 -0.039 -18.617 -0.036 -18.626 -0.036 -18.666 -0.038 -18.957 -0.076 -19.096 -0.087 -19.363 -0.043 -19.367 -0.042 -19.378 -0.040 -19.404 -0.047 -19.436 -0.069 -19.545 -0.065 -19.564 -0.061 -19.571 -0.061 -19.597 -0.071 -19.728 -0.144 5.472 0.058 5.336 0.152 43.260 41.493
51.600 -14.960 -0.604 -15.233 -0.546 -15.947 -0.401 -17.186 -0.199 -17.196 -0.198 -18.219 -0.084 -18.541 -0.038 -18.597 -0.035 -18.607 -0.035 -18.647 -0.037 -18.937 -0.077 -19.076 -0.088 -19.342 -0.043 -19.346 -0.041 -19.358 -0.039 -19.385 -0.046 -19.417 -0.070 -19.526 -0.067 -19.544 -0.062 -19.552 -0.062 -19.578 -0.073 -19.716 -0.151 5.465 0.057 5.308 0.150 43.253 41.486
52.000 -14.935 -0.610 -15.208 -0.552 -15.922 -0.408 -17.162 -0.205 -17.172 -0.204 -18.197 -0.086 -18.521 -0.038 -18.578 -0.035 -18.587 -0.035 -18.627 -0.037 -18.918 -0.078 -19.056 -0.089 -19.322 -0.043 -19.326 -0.041 -19.338 -0.039 -19.366 -0.046 -19.399 -0.070 -19.507 -0.068 -19.525 -0.063 -19.533 -0.063 -19.559 -0.074 -19.704 -0.158 5.459 0.057 5.275 0.149 43.246 41.479
52.400 -14.910 -0.617 -15.183 -0.559 -15.897 -0.415 -17.139 -0.211 -17.149 -0.210 -18.176 -0.087 -18.501 -0.039 -18.558 -0.036 -18.568 -0.036 -18.608 -0.038 -18.899 -0.079 -19.037 -0.090 -19.302 -0.043 -19.307 -0.042 -19.318 -0.040 -19.347 -0.047 -19.381 -0.071 -19.489 -0.070 -19.507 -0.065 -19.515 -0.065 -19.541 -0.076 -19.693 -0.164 5.456 0.057 5.237 0.149 43.239 41.473
52.800 -14.886 -0.624 -15.159 -0.566 -15.873 -0.422 -17.116 -0.217 -17.126 -0.216 -18.155 -0.089 -18.481 -0.042 -18.539 -0.039 -18.548 -0.039 -18.589 -0.040 -18.880 -0.080 -19.018 -0.091 -19.283 -0.045 -19.288 -0.044 -19.300 -0.042 -19.329 -0.049 -19.364 -0.072 -19.471 -0.071 -19.489 -0.067 -19.497 -0.067 -19.523 -0.078 -19.682 -0.170 5.456 0.058 5.194 0.149 43.231 41.469
53.200 -14.861 -0.631 -15.134 -0.573 -15.849 -0.429 -17.093 -0.223 -17.103 -0.222 -18.134 -0.091 -18.462 -0.045 -18.520 -0.042 -18.529 -0.042 -18.570 -0.044 -18.862 -0.081 -18.999 -0.092 -19.265 -0.048 -19.269 -0.047 -19.281 -0.045 -19.311 -0.051 -19.347 -0.074 -19.453 -0.073 -19.471 -0.070 -19.479 -0.070 -19.505 -0.080 -19.671 -0.175 5.456 0.059 5.150 0.150 43.224 41.466
53.600 -14.838 -0.638 -15.111 -0.580 -15.825 -0.436 -17.071 -0.229 -17.081 -0.228 -18.114 -0.093 -18.443 -0.049 -18.501 -0.047 -18.510 -0.047 -18.551 -0.048 -18.844 -0.083 -18.981 -0.093 -19.247 -0.051 -19.252 -0.050 -19.264 -0.048 -19.294 -0.053 -19.330 -0.075 -19.436 -0.076 -19.454 -0.072 -19.462 -0.072 -19.488 -0.082 -19.660 -0.181 5.456 0.061 5.106 0.152 43.216 41.465
54.000 -14.814 -0.645 -15.087 -0.587 -15.802 -0.443 -17.049 -0.235 -17.059 -0.233 -18.094 -0.096 -18.424 -0.053 -18.482 -0.051 -18.492 -0.051 -18.532 -0.052 -18.826 -0.085 -18.963 -0.095 -19.230 -0.054 -19.234 -0.053 -19.247 -0.051 -19.277 -0.056 -19.314 -0.076 -19.419 -0.078 -19.437 -0.075 -19.445 -0.075 -19.471 -0.085 -19.649 -0.185 5.455 0.062 5.066 0.154 43.209 41.464
54.400 -14.791 -0.652 -15.064 -0.595 -15.779 -0.450 -17.027 -0.240 -17.037 -0.239 -18.074 -0.098 -18.405 -0.058 -18.463 -0.056 -18.473 -0.056 -18.514 -0.057 -18.809 -0.086 -18.946 -0.096 -19.213 -0.057 -19.217 -0.056 -19.230 -0.055 -19.261 -0.058 -19.298 -0.078 -19.403 -0.080 -19.421 -0.077 -19.428 -0.077 -19.454 -0.087 -19.639 -0.190 5.453 0.064 5.028 0.156 43.202 41.464
54.800 -14.768 -0.660 -15.041 -0.602 -15.757 -0.457 -17.006 -0.246 -17.016 -0.244 -18.054 -0.101 -18.386 -0.062 -18.445 -0.060 -18.454 -0.060 -18.496 -0.061 -18.791 -0.088 -18.929 -0.097 -19.197 -0.060 -19.201 -0.059 -19.214 -0.058 -19.245 -0.061 -19.283 -0.079 -19.387 -0.081 -19.405 -0.079 -19.412 -0.080 -19.438 -0.089 -19.629 -0.194 5.451 0.065 4.994 0.158 43.196 41.463
55.200 -14.745 -0.667 -15.018 -0.609 -15.734 -0.464 -16.985 -0.251 -16.995 -0.250 -18.035 -0.103 -18.368 -0.066 -18.427 -0.064 -18.436 -0.064 -18.478 -0.065 -18.774 -0.090 -18.912 -0.099 -19.181 -0.063 -19.185 -0.062 -19.198 -0.061 -19.230 -0.063 -19.268 -0.081 -19.371 -0.083 -19.389 -0.081 -19.396 -0.082 -19.422 -0.091 -19.619 -0.198 5.448 0.066 4.962 0.159 43.189 41.463
55.600 -14.723 -0.674 -14.996 -0.616 -15.712 -0.471 -16.964 -0.256 -16.974 -0.255 -18.016 -0.106 -18.349 -0.069 -18.409 -0.068 -18.418 -0.068 -18.460 -0.068 -18.758 -0.092 -18.896 -0.100 -19.165 -0.065 -19.170 -0.065 -19.183 -0.063 -19.214 -0.066 -19.253 -0.082 -19.356 -0.084 -19.373 -0.082 -19.381 -0.083 -19.407 -0.092 -19.610 -0.201 5.444 0.067 4.933 0.161 43.183 41.461
56.000 -14.701 -0.681 -14.974 -0.624 -15.691 -0.478 -16.944 -0.261 -16.954 -0.260 -17.997 -0.108 -18.331 -0.073 -18.391 -0.071 -18.400 -0.071 -18.442 -0.072 -18.741 -0.094 -18.880 -0.101 -19.150 -0.067 -19.155 -0.066 -19.168 -0.065 -19.200 -0.067 -19.239 -0.083 -19.341 -0.085 -19.358 -0.083 -19.366 -0.084 -19.391 -0.093 -19.600 -0.204 5.440 0.068 4.907 0.162 43.177 41.460
56.400 -14.679 -0.689 -14.952 -0.631 -15.670 -0.486 -16.924 -0.266 -16.934 -0.265 -17.978 -0.110 -18.313 -0.075 -18.373 -0.074 -18.382 -0.074 -18.424 -0.074 -18.725 -0.095 -18.864 -0.102 -19.136 -0.069 -19.141 -0.068 -19.154 -0.066 -19.186 -0.069 -19.225 -0.083 -19.327 -0.085 -19.343 -0.084 -19.351 -0.085 -19.376 -0.094 -19.591 -0.207 5.435 0.069 4.882 0.163 43.171 41.458
56.800 -14.657 -0.696 -14.931 -0.638 -15.649 -0.493 -16.904 -0.271 -16.914 -0.270 -17.959 -0.112 -18.295 -0.077 -18.355 -0.076 -18.365 -0.076 -18.407 -0.076 -18.709 -0.097 -18.849 -0.103 -19.122 -0.069 -19.127 -0.069 -19.140 -0.067 -19.172 -0.070 -19.211 -0.084 -19.312 -0.085 -19.329 -0.084 -19.336 -0.085 -19.361 -0.094 -19.582 -0.209 5.430 0.070 4.859 0.164 43.165 41.455
57.200 -14.636 -0.703 -14.910 -0.645 -15.628 -0.500 -16.885 -0.276 -16.895 -0.275 -17.941 -0.113 -18.278 -0.079 -18.337 -0.078 -18.347 -0.078 -18.389 -0.078 -18.693 -0.098 -18.834 -0.104 -19.108 -0.070 -19.113 -0.069 -19.126 -0.068 -19.158 -0.070 -19.198 -0.084 -19.298 -0.085 -19.314 -0.083 -19.321 -0.084 -19.347 -0.094 -19.574 -0.211 5.424 0.071 4.837 0.165 43.159 41.451
57.600 -14.615 -0.711 -14.889 -0.653 -15.608 -0.507 -16.865 -0.281 -16.875 -0.279 -17.922 -0.114 -18.260 -0.080 -18.320 -0.079 -18.330 -0.079 -18.372 -0.079 -18.677 -0.099 -18.819 -0.104 -19.095 -0.069 -19.100 -0.069 -19.113 -0.068 -19.145 -0.070 -19.184 -0.084 -19.284 -0.084 -19.300 -0.082 -19.307 -0.083 -19.332 -0.093 -19.566 -0.212 5.419 0.072 4.816 0.165 43.154 41.448
58.000 -14.594 -0.718 -14.868 -0.660 -15.588 -0.514 -16.846 -0.286 -16.856 -0.284 -17.904 -0.115 -18.242 -0.081 -18.303 -0.079 -18.313 -0.079 -18.355 -0.080 -18.662 -0.099 -18.805 -0.105 -19.083 -0.069 -19.088 -0.068 -19.101 -0.067 -19.133 -0.069 -19.172 -0.084 -19.271 -0.082 -19.286 -0.081 -19.293 -0.082 -19.318 -0.092 -19.558 -0.213 5.413 0.072 4.797 0.166 43.148 41.444
58.400 -14.574 -0.726 -14.848 -0.667 -15.568 -0.521 -16.827 -0.290 -16.838 -0.288 -17.886 -0.116 -18.225 -0.081 -18.286 -0.080 -18.295 -0.080 -18.338 -0.080 -18.647 -0.100 -18.791 -0.105 -19.071 -0.067 -19.075 -0.067 -19.088 -0.065 -19.120 -0.068 -19.159 -0.083 -19.257 -0.080 -19.272 -0.079 -19.279 -0.080 -19.304 -0.090 -19.551 -0.214 5.408 0.073 4.778 0.167 43.143 41.440
58.800 -14.554 -0.733 -14.828 -0.675 -15.548 -0.527 -16.809 -0.294 -16.819 -0.293 -17.869 -0.116 -18.208 -0.080 -18.269 -0.079 -18.279 -0.079 -18.322 -0.080 -18.632 -0.100 -18.777 -0.105 -19.059 -0.065 -19.064 -0.065 -19.077 -0.063 -19.109 -0.067 -19.148 -0.082 -19.244 -0.078 -19.259 -0.076 -19.266 -0.077 -19.290 -0.088 -19.543 -0.214 5.402 0.074 4.759 0.168 43.138 41.436
59.200 -14.534 -0.740 -14.808 -0.682 -15.529 -0.534 -16.791 -0.299 -16.801 -0.297 -17.851 -0.117 -18.191 -0.080 -18.252 -0.079 -18.262 -0.079 -18.305 -0.079 -18.618 -0.100 -18.764 -0.105 -19.048 -0.063 -19.052 -0.062 -19.065 -0.061 -19.097 -0.065 -19.136 -0.081 -19.231 -0.075 -19.245 -0.073 -19.252 -0.074 -19.276 -0.085 -19.537 -0.214 5.398 0.075 4.740 0.169 43.133 41.432
59.600 -14.514 -0.748 -14.789 -0.689 -15.510 -0.541 -16.772 -0.303 -16.783 -0.301 -17.834 -0.117 -18.175 -0.078 -18.236 -0.077 -18.246 -0.077 -18.289 -0.078 -18.604 -0.100 -18.751 -0.105 -19.037 -0.061 -19.042 -0.060 -19.055 -0.058 -19.087 -0.063 -19.125 -0.080 -19.218 -0.072 -19.232 -0.070 -19.238 -0.071 -19.262 -0.083 -19.530 -0.213 5.394 0.076 4.720 0.171 43.128 41.429
60.000 -14.494 -0.755 -14.769 -0.697 -15.491 -0.548 -16.754 -0.307 -16.765 -0.306 -17.817 -0.117 -18.159 -0.077 -18.220 -0.076 -18.230 -0.076 -18.273 -0.077 -18.590 -0.099 -18.738 -0.104 -19.027 -0.058 -19.031 -0.057 -19.044 -0.056 -19.076 -0.061 -19.114 -0.079 -19.205 -0.069 -19.219 -0.066 -19.225 -0.067 -19.249 -0.080 -19.524 -0.212 5.391 0.078 4.699 0.173 43.123 41.427
60.400 -14.475 -0.763 -14.750 -0.704 -15.472 -0.555 -16.737 -0.312 -16.747 -0.310 -17.800 -0.117 -18.143 -0.075 -18.204 -0.074 -18.214 -0.074 -18.258 -0.075 -18.576 -0.099 -18.726 -0.104 -19.017 -0.055 -19.022 -0.054 -19.035 -0.053 -19.067 -0.058 -19.104 -0.078 -19.193 -0.066 -19.206 -0.062 -19.212 -0.063 -19.235 -0.077 -19.518 -0.211 5.389 0.080 4.676 0.176 43.119 41.425
60.800 -14.456 -0.770 -14.731 -0.711 -15.454 -0.561 -16.719 -0.316 -16.729 -0.314 -17.784 -0.117 -18.127 -0.074 -18.189 -0.073 -18.199 -0.073 -18.243 -0.074 -18.563 -0.099 -18.714 -0.104 -19.007 -0.052 -19.012 -0.051 -19.025 -0.050 -19.057 -0.056 -19.094 -0.076 -19.180 -0.063 -19.193 -0.058 -19.198 -0.059 -19.222 -0.074 -19.513 -0.209 5.389 0.082 4.650 0.179 43.114 41.424
61.200 -14.437 -0.777 -14.712 -0.718 -15.435 -0.568 -16.702 -0.320 -16.712 -0.318 -17.767 -0.117 -18.112 -0.072 -18.174 -0.071 -18.184 -0.071 -18.228 -0.072 -18.550 -0.098 -18.702 -0.103 -18.998 -0.050 -19.003 -0.049 -19.017 -0.047 -19.048 -0.054 -19.085 -0.076 -19.168 -0.060 -19.179 -0.055 -19.185 -0.055 -19.209 -0.071 -19.508 -0.206 5.391 0.085 4.621 0.182 43.109 41.425
61.600 -14.418 -0.785 -14.693 -0.726 -15.417 -0.575 -16.684 -0.324 -16.695 -0.322 -17.751 -0.117 -18.097 -0.071 -18.159 -0.069 -18.169 -0.069 -18.214 -0.071 -18.537 -0.098 -18.690 -0.103 -18.990 -0.048 -18.995 -0.046 -19.008 -0.045 -19.040 -0.053 -19.076 -0.075 -19.155 -0.057 -19.166 -0.051 -19.172 -0.052 -19.196 -0.068 -19.503 -0.204 5.394 0.088 4.589 0.186 43.104 41.425
62.000 -14.399 -0.792 -14.675 -0.733 -15.399 -0.581 -16.667 -0.328 -16.677 -0.326 -17.736 -0.118 -18.082 -0.070 -18.145 -0.068 -18.155 -0.068 -18.199 -0.070 -18.524 -0.097 -18.678 -0.103 -18.982 -0.046 -18.987 -0.045 -19.000 -0.043 -19.032 -0.051 -19.067 -0.074 -19.143 -0.054 -19.153 -0.048 -19.159 -0.049 -19.183 -0.065 -19.499 -0.201 5.399 0.091 4.553 0.189 43.099 41.426
62.400 -14.381 -0.799 -14.657 -0.740 -15.381 -0.588 -16.650 -0.332 -16.660 -0.330 -17.720 -0.118 -18.068 -0.069 -18.131 -0.068 -18.141 -0.068 -18.186 -0.069 -18.512 -0.097 -18.667 -0.102 -18.974 -0.045 -18.979 -0.044 -18.992 -0.042 -19.025 -0.051 -19.060 -0.074 -19.130 -0.052 -19.140 -0.045 -19.146 -0.046 -19.171 -0.063 -19.495 -0.197 5.405 0.094 4.516 0.193 43.093 41.426
62.800 -14.363 -0.807 -14.639 -0.747 -15.364 -0.594 -16.633 -0.337 -16.644 -0.334 -17.705 -0.119 -18.054 -0.069 -18.117 -0.068 -18.127 -0.068 -18.172 -0.069 -18.500 -0.097 -18.656 -0.102 -18.966 -0.044 -18.971 -0.043 -18.985 -0.042 -19.017 -0.050 -19.052 -0.074 -19.118 -0.051 -19.128 -0.043 -19.133 -0.043 -19.159 -0.061 -19.492 -0.194 5.410 0.097 4.479 0.196 43.088 41.426
63.200 -14.345 -0.814 -14.621 -0.755 -15.346 -0.601 -16.617 -0.341 -16.627 -0.339 -17.689 -0.121 -18.040 -0.070 -18.103 -0.068 -18.114 -0.068 -18.158 -0.069 -18.487 -0.097 -18.644 -0.102 -18.959 -0.044 -18.964 -0.043 -18.978 -0.041 -19.011 -0.050 -19.045 -0.074 -19.106 -0.050 -19.115 -0.042 -19.121 -0.042 -19.148 -0.059 -19.489 -0.189 5.414 0.100 4.447 0.200 43.083 41.428
63.600 -14.327 -0.821 -14.603 -0.762 -15.329 -0.608 -16.600 -0.345 -16.610 -0.343 -17.674 -0.122 -18.026 -0.071 -18.090 -0.069 -18.100 -0.069 -18.145 -0.070 -18.475 -0.097 -18.633 -0.102 -18.951 -0.045 -18.957 -0.043 -18.971 -0.042 -19.004 -0.051 -19.038 -0.074 -19.094 -0.050 -19.104 -0.041 -19.109 -0.041 -19.137 -0.058 -19.486 -0.185 5.414 0.103 4.424 0.204 43.079 41.431
64.000 -14.309 -0.829 -14.586 -0.769 -15.312 -0.614 -16.583 -0.349 -16.594 -0.347 -17.659 -0.124 -18.012 -0.072 -18.076 -0.070 -18.086 -0.070 -18.131 -0.071 -18.463 -0.097 -18.622 -0.102 -18.944 -0.045 -18.950 -0.044 -18.964 -0.043 -18.997 -0.051 -19.032 -0.075 -19.083 -0.051 -19.093 -0.042 -19.099 -0.041 -19.128 -0.058 -19.484 -0.180 5.409 0.105 4.413 0.208 43.075 41.438
64.400 -14.292 -0.836 -14.568 -0.776 -15.295 -0.621 -16.567 -0.354 -16.577 -0.351 -17.644 -0.126 -17.998 -0.074 -18.062 -0.072 -18.072 -0.071 -18.117 -0.072 -18.450 -0.097 -18.611 -0.102 -18.937 -0.046 -18.943 -0.045 -18.957 -0.044 -18.991 -0.052 -19.025 -0.075 -19.073 -0.052 -19.083 -0.043 -19.089 -0.043 -19.119 -0.059 -19.482 -0.175 5.397 0.107 4.417 0.212 43.072 41.447
64.800 -14.274 -0.843 -14.551 -0.783 -15.278 -0.627 -16.551 -0.358 -16.561 -0.356 -17.629 -0.128 -17.983 -0.076 -18.047 -0.073 -18.058 -0.073 -18.103 -0.074 -18.438 -0.097 -18.600 -0.102 -18.930 -0.048 -18.936 -0.047 -18.950 -0.045 -18.985 -0.053 -19.019 -0.076 -19.064 -0.054 -19.075 -0.045 -19.081 -0.045 -19.111 -0.060 -19.480 -0.169 5.381 0.108 4.431 0.217 43.069 41.458
65.200 -14.257 -0.851 -14.534 -0.791 -15.261 -0.634 -16.534 -0.363 -16.545 -0.360 -17.613 -0.131 -17.969 -0.078 -18.033 -0.075 -18.043 -0.075 -18.089 -0.075 -18.425 -0.097 -18.588 -0.102 -18.923 -0.049 -18.929 -0.048 -18.944 -0.047 -18.979 -0.054 -19.013 -0.077 -19.056 -0.055 -19.067 -0.048 -19.073 -0.047 -19.104 -0.061 -19.479 -0.163 5.361 0.109 4.455 0.222 43.067 41.470
65.600 -14.240 -0.858 -14.517 -0.798 -15.244 -0.641 -16.518 -0.367 -16.529 -0.365 -17.598 -0.133 -17.954 -0.080 -18.018 -0.077 -18.029 -0.077 -18.075 -0.077 -18.413 -0.097 -18.577 -0.102 -18.916 -0.050 -18.922 -0.049 -18.937 -0.048 -18.973 -0.055 -19.008 -0.077 -19.049 -0.057 -19.060 -0.050 -19.067 -0.050 -19.099 -0.062 -19.477 -0.157 5.338 0.109 4.486 0.228 43.066 41.482
66.000 -14.222 -0.866 -14.500 -0.805 -15.228 -0.647 -16.502 -0.372 -16.512 -0.370 -17.582 -0.136 -17.939 -0.082 -18.004 -0.079 -18.014 -0.079 -18.060 -0.078 -18.400 -0.097 -18.566 -0.102 -18.909 -0.051 -18.915 -0.050 -18.930 -0.049 -18.967 -0.056 -19.002 -0.078 -19.043 -0.059 -19.055 -0.052 -19.062 -0.052 -19.094 -0.064 -19.477 -0.151 5.314 0.110 4.522 0.233 43.065 41.493
66.400 -14.206 -0.873 -14.483 -0.812 -15.211 -0.654 -16.486 -0.377 -16.496 -0.374 -17.567 -0.139 -17.924 -0.084 -17.989 -0.081 -17.999 -0.080 -18.045 -0.080 -18.387 -0.097 -18.554 -0.102 -18.901 -0.052 -18.908 -0.051 -18.924 -0.050 -18.961 -0.057 -18.997 -0.078 -19.038 -0.060 -19.050 -0.054 -19.057 -0.054 -19.090 -0.065 -19.476 -0.145 5.289 0.110 4.563 0.238 43.065 41.503
66.800 -14.189 -0.880 -14.466 -0.820 -15.195 -0.661 -16.470 -0.382 -16.480 -0.379 -17.551 -0.142 -17.909 -0.086 -17.974 -0.082 -17.984 -0.082 -18.030 -0.081 -18.374 -0.097 -18.542 -0.101 -18.894 -0.052 -18.900 -0.051 -18.917 -0.050 -18.955 -0.057 -18.991 -0.078 -19.034 -0.062 -19.046 -0.056 -19.054 -0.056 -19.087 -0.067 -19.475 -0.138 5.263 0.111 4.607 0.244 43.065 41.512
67.200 -14.172 -0.888 -14.450 -0.827 -15.179 -0.667 -16.454 -0.387 -16.465 -0.384 -17.536 -0.145 -17.893 -0.088 -17.959 -0.084 -17.969 -0.083 -18.015 -0.082 -18.360 -0.097 -18.530 -0.101 -18.887 -0.051 -18.893 -0.051 -18.910 -0.050 -18.948 -0.057 -18.986 -0.079 -19.031 -0.063 -19.043 -0.057 -19.051 -0.057 -19.085 -0.068 -19.475 -0.132 5.236 0.111 4.655 0.249 43.065 41.520
67.600 -14.155 -0.895 -14.433 -0.834 -15.162 -0.674 -16.438 -0.392 -16.449 -0.390 -17.520 -0.149 -17.878 -0.090 -17.943 -0.085 -17.954 -0.085 -18.000 -0.083 -18.347 -0.097 -18.518 -0.101 -18.879 -0.051 -18.886 -0.050 -18.903 -0.049 -18.942 -0.057 -18.981 -0.079 -19.028 -0.063 -19.041 -0.058 -19.049 -0.059 -19.084 -0.069 -19.475 -0.126 5.208 0.111 4.705 0.254 43.065 41.526
68.000 -14.139 -0.903 -14.417 -0.841 -15.146 -0.681 -16.423 -0.397 -16.433 -0.395 -17.505 -0.152 -17.863 -0.092 -17.928 -0.087 -17.939 -0.086 -17.985 -0.084 -18.334 -0.097 -18.506 -0.101 -18.871 -0.051 -18.878 -0.050 -18.895 -0.049 -18.936 -0.057 -18.976 -0.080 -19.026 -0.064 -19.040 -0.059 -19.048 -0.060 -19.083 -0.070 -19.474 -0.120 5.181 0.110 4.759 0.258 43.065 41.531
68.400 -14.123 -0.910 -14.401 -0.849 -15.130 -0.688 -16.407 -0.403 -16.417 -0.401 -17.489 -0.156 -17.847 -0.095 -17.913 -0.089 -17.923 -0.088 -17.970 -0.086 -18.320 -0.098 -18.494 -0.101 -18.863 -0.050 -18.870 -0.050 -18.887 -0.049 -18.929 -0.058 -18.970 -0.080 -19.025 -0.065 -19.040 -0.060 -19.048 -0.061 -19.083 -0.071 -19.474 -0.115 5.152 0.109 4.814 0.260 43.066 41.534
68.800 -14.106 -0.917 -14.384 -0.856 -15.115 -0.695 -16.391 -0.409 -16.401 -0.406 -17.473 -0.160 -17.832 -0.097 -17.897 -0.091 -17.908 -0.090 -17.955 -0.088 -18.306 -0.098 -18.481 -0.102 -18.855 -0.051 -18.861 -0.050 -18.880 -0.050 -18.922 -0.059 -18.965 -0.081 -19.025 -0.066 -19.040 -0.061 -19.049 -0.062 -19.084 -0.073 -19.474 -0.111 5.123 0.107 4.872 0.262 43.066 41.535
69.200 -14.090 -0.925 -14.368 -0.864 -15.099 -0.702 -16.375 -0.415 -16.386 -0.412 -17.458 -0.165 -17.816 -0.101 -17.882 -0.094 -17.893 -0.093 -17.940 -0.090 -18.292 -0.099 -18.468 -0.103 -18.846 -0.052 -18.853 -0.052 -18.871 -0.051 -18.915 -0.060 -18.960 -0.083 -19.025 -0.067 -19.041 -0.063 -19.050 -0.063 -19.086 -0.074 -19.473 -0.108 5.092 0.105 4.933 0.262 43.067 41.534
69.600 -14.074 -0.932 -14.352 -0.871 -15.083 -0.709 -16.360 -0.421 -16.370 -0.418 -17.442 -0.170 -17.801 -0.105 -17.867 -0.098 -17.877 -0.097 -17.924 -0.093 -18.279 -0.101 -18.455 -0.104 -18.837 -0.055 -18.844 -0.054 -18.863 -0.054 -18.908 -0.063 -18.954 -0.085 -19.026 -0.070 -19.043 -0.065 -19.051 -0.066 -19.088 -0.077 -19.473 -0.106 5.060 0.101 4.997 0.260 43.067 41.532
70.000 -14.058 -0.940 -14.336 -0.878 -15.067 -0.716 -16.344 -0.427 -16.355 -0.425 -17.426 -0.176 -17.786 -0.109 -17.851 -0.102 -17.862 -0.101 -17.909 -0.098 -18.265 -0.103 -18.442 -0.106 -18.828 -0.059 -18.835 -0.058 -18.854 -0.058 -18.900 -0.067 -18.949 -0.088 -19.027 -0.073 -19.044 -0.069 -19.053 -0.069 -19.090 -0.080 -19.472 -0.107 5.028 0.098 5.063 0.257 43.067 41.530
70.400 -14.042 -0.948 -14.321 -0.886 -15.052 -0.724 -16.329 -0.434 -16.339 -0.431 -17.411 -0.182 -17.770 -0.115 -17.836 -0.108 -17.847 -0.107 -17.894 -0.103 -18.251 -0.106 -18.429 -0.109 -18.818 -0.064 -18.825 -0.063 -18.845 -0.063 -18.892 -0.072 -18.943 -0.092 -19.028 -0.077 -19.046 -0.073 -19.055 -0.074 -19.092 -0.085 -19.471 -0.109 4.995 0.094 5.131 0.254 43.067 41.527
70.800 -14.026 -0.955 -14.305 -0.893 -15.036 -0.731 -16.313 -0.440 -16.324 -0.438 -17.395 -0.188 -17.755 -0.122 -17.821 -0.114 -17.832 -0.113 -17.879 -0.109 -18.237 -0.110 -18.416 -0.112 -18.808 -0.070 -18.816 -0.070 -18.836 -0.070 -18.884 -0.077 -18.937 -0.096 -19.029 -0.082 -19.048 -0.079 -19.057 -0.080 -19.094 -0.090 -19.469 -0.113 4.963 0.090 5.199 0.251 43.068 41.525
71.200 -14.010 -0.963 -14.289 -0.901 -15.021 -0.738 -16.298 -0.447 -16.308 -0.445 -17.380 -0.196 -17.740 -0.130 -17.806 -0.122 -17.817 -0.121 -17.864 -0.117 -18.222 -0.115 -18.403 -0.116 -18.798 -0.078 -18.806 -0.077 -18.826 -0.077 -18.876 -0.084 -18.931 -0.101 -19.030 -0.089 -19.050 -0.086 -19.059 -0.087 -19.097 -0.096 -19.467 -0.119 4.933 0.087 5.265 0.249 43.068 41.524
71.600 -13.995 -0.970 -14.274 -0.909 -15.005 -0.746 -16.283 -0.454 -16.293 -0.452 -17.364 -0.204 -17.725 -0.138 -17.791 -0.130 -17.802 -0.129 -17.849 -0.125 -18.208 -0.121 -18.389 -0.121 -18.788 -0.086 -18.796 -0.086 -18.816 -0.086 -18.867 -0.092 -18.925 -0.107 -19.031 -0.096 -19.051 -0.094 -19.061 -0.095 -19.099 -0.103 -19.465 -0.127 4.904 0.084 5.329 0.247 43.068 41.525
72.000 -13.979 -0.978 -14.258 -0.916 -14.990 -0.753 -16.267 -0.462 -16.277 -0.459 -17.349 -0.212 -17.710 -0.148 -17.776 -0.140 -17.787 -0.139 -17.834 -0.134 -18.194 -0.127 -18.375 -0.127 -18.777 -0.095 -18.785 -0.095 -18.806 -0.095 -18.859 -0.100 -18.918 -0.114 -19.031 -0.104 -19.053 -0.102 -19.063 -0.103 -19.101 -0.111 -19.463 -0.135 4.877 0.082 5.390 0.246 43.068 41.527
72.400 -13.963 -0.986 -14.243 -0.924 -14.975 -0.761 -16.252 -0.469 -16.262 -0.467 -17.334 -0.221 -17.695 -0.157 -17.761 -0.150 -17.772 -0.148 -17.819 -0.144 -18.180 -0.135 -18.362 -0.134 -18.767 -0.104 -18.775 -0.104 -18.796 -0.104 -18.850 -0.109 -18.912 -0.121 -19.032 -0.113 -19.054 -0.112 -19.064 -0.112 -19.103 -0.119 -19.460 -0.145 4.851 0.080 5.447 0.247 43.068 41.532
72.800 -13.948 -0.994 -14.227 -0.932 -14.959 -0.769 -16.237 -0.477 -16.247 -0.475 -17.318 -0.230 -17.680 -0.168 -17.746 -0.160 -17.757 -0.159 -17.804 -0.154 -18.165 -0.143 -18.348 -0.141 -18.756 -0.114 -18.764 -0.114 -18.786 -0.114 -18.841 -0.118 -18.905 -0.129 -19.032 -0.122 -19.055 -0.121 -19.066 -0.122 -19.105 -0.128 -19.457 -0.156 4.827 0.079 5.500 0.249 43.068 41.538
73.200 -13.932 -1.001 -14.212 -0.940 -14.944 -0.777 -16.221 -0.485 -16.232 -0.483 -17.303 -0.240 -17.665 -0.179 -17.731 -0.171 -17.742 -0.170 -17.790 -0.165 -18.151 -0.151 -18.334 -0.149 -18.745 -0.125 -18.753 -0.125 -18.775 -0.125 -18.831 -0.128 -18.898 -0.137 -19.032 -0.132 -19.056 -0.132 -19.066 -0.132 -19.106 -0.138 -19.453 -0.167 4.805 0.078 5.549 0.252 43.068 41.546
73.600 -13.917 -1.009 -14.197 -0.947 -14.929 -0.785 -16.206 -0.494 -16.217 -0.491 -17.288 -0.251 -17.650 -0.190 -17.716 -0.182 -17.727 -0.181 -17.775 -0.177 -18.136 -0.161 -18.320 -0.158 -18.733 -0.136 -18.742 -0.136 -18.764 -0.136 -18.822 -0.138 -18.891 -0.146 -19.032 -0.142 -19.056 -0.142 -19.067 -0.143 -19.107 -0.148 -19.450 -0.179 4.784 0.078 5.595 0.256 43.068 41.556
74.000 -13.902 -1.017 -14.181 -0.955 -14.914 -0.792 -16.191 -0.502 -16.201 -0.500 -17.273 -0.261 -17.635 -0.202 -17.701 -0.194 -17.712 -0.193 -17.760 -0.188 -18.122 -0.171 -18.306 -0.167 -18.722 -0.147 -18.730 -0.147 -18.753 -0.147 -18.812 -0.149 -18.884 -0.156 -19.031 -0.153 -19.056 -0.153 -19.067 -0.154 -19.108 -0.159 -19.446 -0.192 4.765 0.078 5.636 0.262 43.067 41.567
74.400 -13.887 -1.025 -14.166 -0.963 -14.899 -0.801 -16.176 -0.511 -16.186 -0.509 -17.258 -0.273 -17.620 -0.214 -17.686 -0.206 -17.697 -0.205 -17.745 -0.200 -18.107 -0.181 -18.292 -0.177 -18.710 -0.158 -18.719 -0.158 -18.742 -0.158 -18.802 -0.160 -18.876 -0.166 -19.031 -0.164 -19.056 -0.165 -19.067 -0.165 -19.108 -0.170 -19.441 -0.205 4.747 0.079 5.674 0.269 43.066 41.580
74.800 -13.871 -1.033 -14.151 -0.971 -14.884 -0.809 -16.161 -0.520 -16.171 -0.518 -17.242 -0.284 -17.605 -0.226 -17.671 -0.219 -17.682 -0.217 -17.730 -0.213 -18.093 -0.192 -18.277 -0.187 -18.699 -0.170 -18.707 -0.170 -18.731 -0.170 -18.792 -0.171 -18.868 -0.176 -19.029 -0.176 -19.055 -0.176 -19.067 -0.177 -19.108 -0.181 -19.436 -0.218 4.730 0.080 5.708 0.276 43.065 41.593
75.200 -13.856 -1.041 -14.136 -0.979 -14.869 -0.817 -16.146 -0.529 -16.156 -0.527 -17.227 -0.296 -17.590 -0.239 -17.656 -0.231 -17.667 -0.230 -17.715 -0.225 -18.078 -0.204 -18.263 -0.198 -18.687 -0.182 -18.696 -0.181 -18.720 -0.181 -18.782 -0.183 -18.860 -0.187 -19.028 -0.187 -19.054 -0.188 -19.066 -0.189 -19.107 -0.193 -19.431 -0.231 4.714 0.081 5.737 0.285 43.064 41.607
75.600 -13.841 -1.049 -14.121 -0.987 -14.854 -0.825 -16.131 -0.538 -16.141 -0.536 -17.212 -0.308 -17.575 -0.252 -17.641 -0.244 -17.652 -0.243 -17.700 -0.238 -18.063 -0.215 -18.248 -0.209 -18.675 -0.194 -18.684 -0.193 -18.708 -0.193 -18.772 -0.194 -18.852 -0.198 -19.026 -0.199 -19.053 -0.200 -19.065 -0.201 -19.107 -0.205 -19.426 -0.245 4.699 0.082 5.764 0.294 43.062 41.622
76.000 -13.826 -1.057 -14.106 -0.995 -14.840 -0.834 -16.116 -0.548 -16.127 -0.546 -17.197 -0.320 -17.560 -0.265 -17.626 -0.257 -17.637 -0.256 -17.685 -0.251 -18.049 -0.227 -18.234 -0.221 -18.663 -0.206 -18.672 -0.205 -18.697 -0.205 -18.761 -0.206 -18.844 -0.209 -19.024 -0.211 -19.051 -0.212 -19.063 -0.213 -19.105 -0.217 -19.420 -0.258 4.686 0.084 5.786 0.303 43.061 41.637
76.400 -13.811 -1.065 -14.091 -1.003 -14.825 -0.842 -16.101 -0.558 -16.112 -0.555 -17.182 -0.332 -17.545 -0.278 -17.611 -0.270 -17.622 -0.269 -17.670 -0.264 -18.034 -0.240 -18.219 -0.232 -18.650 -0.218 -18.660 -0.218 -18.685 -0.218 -18.751 -0.218 -18.835 -0.221 -19.021 -0.223 -19.049 -0.224 -19.061 -0.225 -19.104 -0.229 -19.414 -0.272 4.673 0.086 5.805 0.313 43.059 41.651
76.800 -13.796 -1.073 -14.076 -1.011 -14.810 -0.851 -16.087 -0.567 -16.097 -0.565 -17.167 -0.345 -17.530 -0.291 -17.596 -0.283 -17.607 -0.282 -17.655 -0.277 -18.019 -0.252 -18.205 -0.244 -18.638 -0.230 -18.647 -0.230 -18.673 -0.230 -18.740 -0.230 -18.826 -0.233 -19.018 -0.235 -19.046 -0.237 -19.059 -0.238 -19.101 -0.242 -19.407 -0.286 4.662 0.088 5.820 0.324 43.057 41.666
77.200 -13.781 -1.081 -14.061 -1.020 -14.795 -0.859 -16.072 -0.577 -16.082 -0.575 -17.152 -0.357 -17.515 -0.304 -17.581 -0.297 -17.592 -0.295 -17.640 -0.291 -18.004 -0.265 -18.190 -0.257 -18.626 -0.243 -18.635 -0.242 -18.661 -0.242 -18.729 -0.242 -18.817 -0.244 -19.014 -0.248 -19.043 -0.249 -19.056 -0.250 -19.099 -0.254 -19.401 -0.300 4.651 0.090 5.832 0.334 43.055 41.680
77.600 -13.766 -1.089 -14.047 -1.028 -14.781 -0.868 -16.057 -0.588 -16.067 -0.585 -17.137 -0.370 -17.500 -0.318 -17.566 -0.310 -17.577 -0.309 -17.625 -0.304 -17.989 -0.277 -18.175 -0.269 -18.613 -0.255 -18.622 -0.255 -18.649 -0.255 -18.717 -0.255 -18.808 -0.256 -19.010 -0.260 -19.040 -0.262 -19.052 -0.263 -19.095 -0.267 -19.393 -0.314 4.639 0.092 5.846 0.345 43.052 41.694
78.000 -13.751 -1.097 -14.032 -1.036 -14.766 -0.877 -16.042 -0.598 -16.052 -0.596 -17.122 -0.383 -17.485 -0.331 -17.551 -0.324 -17.562 -0.322 -17.610 -0.317 -17.974 -0.290 -18.160 -0.282 -18.600 -0.268 -18.610 -0.267 -18.636 -0.267 -18.706 -0.267 -18.798 -0.269 -19.006 -0.273 -19.036 -0.275 -19.049 -0.275 -19.092 -0.279 -19.386 -0.329 4.630 0.094 5.851 0.356 43.050 41.707
78.400 -13.737 -1.105 -14.017 -1.044 -14.751 -0.885 -16.028 -0.608 -16.038 -0.606 -17.107 -0.396 -17.469 -0.345 -17.536 -0.337 -17.547 -0.336 -17.595 -0.331 -17.959 -0.303 -18.145 -0.294 -18.587 -0.280 -18.597 -0.280 -18.624 -0.280 -18.695 -0.280 -18.788 -0.281 -19.001 -0.286 -19.031 -0.287 -19.044 -0.288 -19.088 -0.292 -19.378 -0.343 4.622 0.096 5.853 0.366 43.047 41.719
78.800 -13.722 -1.113 -14.002 -1.053 -14.737 -0.894 -16.013 -0.619 -16.023 -0.617 -17.092 -0.409 -17.454 -0.358 -17.521 -0.351 -17.532 -0.349 -17.580 -0.344 -17.944 -0.316 -18.131 -0.307 -18.574 -0.293 -18.584 -0.293 -18.611 -0.292 -18.683 -0.292 -18.778 -0.293 -18.996 -0.298 -19.026 -0.300 -19.039 -0.301 -19.083 -0.305 -19.369 -0.357 4.614 0.098 5.851 0.377 43.044 41.731
79.200 -13.707 -1.121 -13.988 -1.061 -14.722 -0.903 -15.998 -0.629 -16.008 -0.627 -17.077 -0.422 -17.439 -0.372 -17.506 -0.364 -17.517 -0.363 -17.565 -0.358 -17.929 -0.329 -18.116 -0.320 -18.561 -0.306 -18.571 -0.305 -18.598 -0.305 -18.671 -0.305 -18.768 -0.305 -18.990 -0.311 -19.021 -0.313 -19.034 -0.314 -19.078 -0.318 -19.361 -0.371 4.607 0.101 5.847 0.387 43.040 41.742
79.600 -13.692 -1.129 -13.973 -1.069 -14.708 -0.912 -15.984 -0.640 -15.994 -0.638 -17.062 -0.435 -17.424 -0.385 -17.491 -0.378 -17.502 -0.377 -17.549 -0.372 -17.913 -0.343 -18.101 -0.333 -18.548 -0.318 -18.558 -0.318 -18.585 -0.318 -18.659 -0.317 -18.757 -0.318 -18.984 -0.324 -19.015 -0.326 -19.029 -0.327 -19.073 -0.331 -19.352 -0.385 4.601 0.103 5.840 0.397 43.037 41.752
80.000 -13.678 -1.137 -13.959 -1.077 -14.693 -0.921 -15.969 -0.651 -15.979 -0.649 -17.047 -0.448 -17.409 -0.399 -17.476 -0.391 -17.487 -0.390 -17.534 -0.385 -17.898 -0.356 -18.085 -0.346 -18.534 -0.331 -18.545 -0.331 -18.572 -0.330 -18.647 -0.330 -18.747 -0.330 -18.977 -0.336 -19.009 -0.338 -19.022 -0.339 -19.067 -0.344 -19.342 -0.399 4.595 0.105 5.829 0.406 43.033 41.762
80.400 -13.663 -1.145 -13.944 -1.086 -14.679 -0.930 -15.954 -0.661 -15.965 -0.659 -17.032 -0.461 -17.394 -0.412 -17.461 -0.405 -17.471 -0.404 -17.519 -0.399 -17.883 -0.369 -18.070 -0.359 -18.521 -0.344 -18.531 -0.343 -18.559 -0.343 -18.634 -0.342 -18.736 -0.343 -18.970 -0.349 -19.002 -0.351 -19.016 -0.352 -19.060 -0.356 -19.332 -0.413 4.590 0.107 5.817 0.415 43.030 41.771
80.800 -13.649 -1.153 -13.930 -1.094 -14.665 -0.939 -15.940 -0.672 -15.950 -0.670 -17.017 -0.474 -17.379 -0.426 -17.445 -0.418 -17.456 -0.417 -17.504 -0.412 -17.868 -0.382 -18.055 -0.372 -18.507 -0.356 -18.518 -0.356 -18.546 -0.356 -18.622 -0.355 -18.724 -0.355 -18.963 -0.362 -18.995 -0.364 -19.009 -0.365 -19.053 -0.369 -19.322 -0.427 4.586 0.110 5.801 0.424 43.026 41.779
81.200 -13.634 -1.161 -13.915 -1.102 -14.650 -0.948 -15.925 -0.683 -15.936 -0.681 -17.002 -0.487 -17.364 -0.439 -17.430 -0.432 -17.441 -0.430 -17.489 -0.425 -17.852 -0.395 -18.040 -0.385 -18.494 -0.369 -18.504 -0.369 -18.532 -0.368 -18.609 -0.368 -18.713 -0.368 -18.955 -0.374 -18.987 -0.377 -19.001 -0.378 -19.046 -0.382 -19.311 -0.441 4.582 0.112 5.783 0.432 43.021 41.786
81.600 -13.620 -1.169 -13.901 -1.111 -14.636 -0.957 -15.911 -0.694 -15.921 -0.692 -16.987 -0.500 -17.348 -0.452 -17.415 -0.445 -17.426 -0.444 -17.473 -0.439 -17.837 -0.408 -18.025 -0.397 -18.480 -0.381 -18.490 -0.381 -18.519 -0.381 -18.596 -0.380 -18.701 -0.380 -18.946 -0.387 -18.979 -0.389 -18.993 -0.390 -19.038 -0.395 -19.300 -0.455 4.579 0.114 5.763 0.440 43.017 41.793
82.000 -13.605 -1.177 -13.886 -1.119 -14.622 -0.966 -15.896 -0.705 -15.907 -0.703 -16.972 -0.513 -17.333 -0.466 -17.400 -0.458 -17.411 -0.457 -17.458 -0.452 -17.822 -0.421 -18.009 -0.410 -18.466 -0.394 -18.476 -0.394 -18.505 -0.393 -18.583 -0.392 -18.689 -0.392 -18.938 -0.400 -18.971 -0.402 -18.985 -0.403 -19.030 -0.407 -19.289 -0.469 4.576 0.116 5.740 0.448 43.012 41.799
82.400 -13.591 -1.185 -13.872 -1.127 -14.608 -0.975 -15.882 -0.716 -15.892 -0.714 -16.957 -0.526 -17.318 -0.479 -17.384 -0.471 -17.395 -0.470 -17.443 -0.465 -17.806 -0.434 -17.994 -0.423 -18.452 -0.406 -18.462 -0.406 -18.491 -0.406 -18.570 -0.405 -18.677 -0.405 -18.928 -0.412 -18.962 -0.414 -18.976 -0.416 -19.021 -0.420 -19.277 -0.482 4.573 0.118 5.715 0.455 43.008 41.804
82.800 -13.576 -1.193 -13.858 -1.135 -14.593 -0.984 -15.868 -0.726 -15.878 -0.724 -16.942 -0.539 -17.303 -0.492 -17.369 -0.485 -17.380 -0.483 -17.428 -0.478 -17.791 -0.447 -17.978 -0.436 -18.437 -0.419 -18.448 -0.419 -18.477 -0.418 -18.556 -0.417 -18.665 -0.417 -18.919 -0.424 -18.953 -0.427 -18.967 -0.428 -19.012 -0.433 -19.265 -0.496 4.571 0.120 5.688 0.461 43.003 41.809
83.200 -13.562 -1.201 -13.843 -1.143 -14.579 -0.992 -15.853 -0.737 -15.864 -0.735 -16.928 -0.552 -17.288 -0.505 -17.354 -0.497 -17.365 -0.496 -17.412 -0.491 -17.775 -0.460 -17.963 -0.448 -18.423 -0.431 -18.434 -0.431 -18.463 -0.430 -18.543 -0.429 -18.652 -0.429 -18.909 -0.437 -18.943 -0.439 -18.957 -0.440 -19.002 -0.445 -19.252 -0.509 4.570 0.122 5.659 0.467 42.998 41.813
83.600 -13.547 -1.209 -13.829 -1.152 -14.565 -1.001 -15.839 -0.748 -15.849 -0.746 -16.913 -0.564 -17.272 -0.518 -17.339 -0.510 -17.350 -0.509 -17.397 -0.504 -17.760 -0.473 -17.948 -0.461 -18.409 -0.443 -18.419 -0.443 -18.449 -0.442 -18.529 -0.441 -18.639 -0.441 -18.899 -0.449 -18.933 -0.451 -18.947 -0.453 -18.992 -0.457 -19.240 -0.522 4.569 0.124 5.627 0.472 42.993 41.816
84.000 -13.533 -1.217 -13.815 -1.160 -14.551 -1.010 -15.825 -0.759 -15.835 -0.757 -16.898 -0.577 -17.257 -0.530 -17.323 -0.523 -17.334 -0.522 -17.382 -0.517 -17.744 -0.485 -17.932 -0.473 -18.394 -0.455 -18.405 -0.455 -18.435 -0.454 -18.515 -0.453 -18.626 -0.453 -18.888 -0.461 -18.922 -0.464 -18.936 -0.465 -18.981 -0.470 -19.226 -0.536 4.569 0.125 5.594 0.477 42.987 41.819
84.400 -13.519 -1.225 -13.801 -1.168 -14.537 -1.019 -15.810 -0.769 -15.821 -0.767 -16.883 -0.589 -17.242 -0.543 -17.308 -0.536 -17.319 -0.535 -17.366 -0.530 -17.729 -0.498 -17.917 -0.486 -18.379 -0.467 -18.390 -0.467 -18.420 -0.466 -18.501 -0.465 -18.613 -0.465 -18.877 -0.473 -18.911 -0.476 -18.925 -0.477 -18.970 -0.482 -19.213 -0.549 4.568 0.127 5.559 0.482 42.982 41.821
84.800 -13.505 -1.233 -13.787 -1.176 -14.523 -1.028 -15.796 -0.780 -15.806 -0.778 -16.868 -0.601 -17.227 -0.555 -17.293 -0.548 -17.304 -0.547 -17.351 -0.542 -17.713 -0.510 -17.901 -0.498 -18.364 -0.479 -18.375 -0.479 -18.405 -0.478 -18.487 -0.477 -18.599 -0.477 -18.865 -0.485 -18.900 -0.488 -18.914 -0.489 -18.959 -0.494 -19.199 -0.561 4.569 0.129 5.522 0.486 42.976 41.822
85.200 -13.490 -1.240 -13.772 -1.184 -14.509 -1.037 -15.782 -0.791 -15.792 -0.789 -16.853 -0.613 -17.212 -0.568 -17.278 -0.560 -17.289 -0.559 -17.336 -0.554 -17.698 -0.522 -17.885 -0.510 -18.350 -0.491 -18.360 -0.490 -18.391 -0.490 -18.472 -0.489 -18.586 -0.488 -18.853 -0.496 -18.888 -0.499 -18.902 -0.501 -18.947 -0.506 -19.184 -0.574 4.570 0.131 5.484 0.489 42.971 41.823
85.600 -13.476 -1.248 -13.758 -1.192 -14.495 -1.045 -15.768 -0.801 -15.778 -0.799 -16.838 -0.625 -17.196 -0.580 -17.262 -0.573 -17.273 -0.571 -17.321 -0.566 -17.682 -0.534 -17.870 -0.522 -18.335 -0.502 -18.345 -0.502 -18.376 -0.501 -18.458 -0.500 -18.572 -0.500 -18.841 -0.508 -18.876 -0.511 -18.890 -0.512 -18.935 -0.517 -19.170 -0.587 4.571 0.132 5.444 0.492 42.965 41.824
86.000 -13.462 -1.256 -13.744 -1.200 -14.481 -1.054 -15.754 -0.811 -15.764 -0.809 -16.823 -0.637 -17.181 -0.592 -17.247 -0.585 -17.258 -0.583 -17.305 -0.578 -17.667 -0.546 -17.854 -0.533 -18.319 -0.514 -18.330 -0.513 -18.361 -0.513 -18.443 -0.511 -18.558 -0.511 -18.828 -0.519 -18.863 -0.522 -18.877 -0.524 -18.922 -0.529 -19.155 -0.599 4.572 0.134 5.402 0.494 42.958 41.824
86.400 -13.448 -1.263 -13.730 -1.207 -14.467 -1.063 -15.740 -0.822 -15.750 -0.820 -16.808 -0.649 -17.166 -0.604 -17.232 -0.596 -17.243 -0.595 -17.290 -0.590 -17.651 -0.558 -17.838 -0.545 -18.304 -0.525 -18.315 -0.525 -18.346 -0.524 -18.428 -0.523 -18.543 -0.522 -18.815 -0.531 -18.850 -0.534 -18.864 -0.535 -18.909 -0.540 -19.139 -0.611 4.574 0.135 5.359 0.496 42.952 41.823
86.800 -13.434 -1.271 -13.716 -1.215 -14.453 -1.071 -15.725 -0.832 -15.736 -0.830 -16.794 -0.660 -17.151 -0.615 -17.217 -0.608 -17.228 -0.607 -17.275 -0.602 -17.635 -0.569 -17.823 -0.556 -18.289 -0.536 -18.300 -0.536 -18.330 -0.535 -18.413 -0.534 -18.529 -0.533 -18.802 -0.542 -18.837 -0.545 -18.851 -0.546 -18.896 -0.551 -19.123 -0.623 4.577 0.137 5.314 0.497 42.946 41.822
87.200 -13.420 -1.278 -13.702 -1.223 -14.439 -1.080 -15.711 -0.842 -15.722 -0.840 -16.779 -0.671 -17.136 -0.627 -17.202 -0.620 -17.212 -0.618 -17.259 -0.613 -17.620 -0.581 -17.807 -0.568 -18.273 -0.547 -18.284 -0.547 -18.315 -0.546 -18.398 -0.544 -18.514 -0.544 -18.788 -0.553 -18.823 -0.556 -18.837 -0.557 -18.882 -0.563 -19.107 -0.635 4.580 0.138 5.269 0.498 42.940 41.820
87.600 -13.405 -1.286 -13.688 -1.230 -14.426 -1.088 -15.697 -0.852 -15.708 -0.850 -16.764 -0.682 -17.121 -0.638 -17.186 -0.631 -17.197 -0.630 -17.244 -0.625 -17.604 -0.592 -17.791 -0.579 -18.258 -0.558 -18.269 -0.557 -18.299 -0.557 -18.383 -0.555 -18.499 -0.554 -18.774 -0.563 -18.809 -0.566 -18.823 -0.568 -18.868 -0.573 -19.091 -0.647 4.583 0.140 5.222 0.498 42.933 41.818
88.000 -13.391 -1.293 -13.674 -1.238 -14.412 -1.096 -15.683 -0.862 -15.694 -0.860 -16.749 -0.693 -17.106 -0.649 -17.171 -0.642 -17.182 -0.641 -17.229 -0.636 -17.589 -0.603 -17.776 -0.590 -18.242 -0.568 -18.253 -0.568 -18.284 -0.567 -18.367 -0.566 -18.484 -0.565 -18.760 -0.574 -18.795 -0.577 -18.809 -0.578 -18.854 -0.584 -19.074 -0.658 4.586 0.141 5.174 0.498 42.926 41.816
88.400 -13.377 -1.300 -13.660 -1.245 -14.398 -1.104 -15.670 -0.871 -15.680 -0.869 -16.735 -0.704 -17.091 -0.660 -17.156 -0.653 -17.167 -0.652 -17.214 -0.647 -17.573 -0.614 -17.760 -0.600 -18.226 -0.578 -18.237 -0.578 -18.268 -0.577 -18.352 -0.576 -18.469 -0.575 -18.745 -0.584 -18.780 -0.587 -18.794 -0.589 -18.839 -0.594 -19.057 -0.669 4.590 0.142 5.125 0.498 42.919 41.813
88.800 -13.363 -1.307 -13.646 -1.253 -14.384 -1.112 -15.656 -0.881 -15.666 -0.879 -16.720 -0.715 -17.076 -0.671 -17.141 -0.663 -17.152 -0.662 -17.199 -0.657 -17.557 -0.624 -17.744 -0.611 -18.211 -0.588 -18.222 -0.588 -18.252 -0.587 -18.336 -0.586 -18.453 -0.585 -18.730 -0.594 -18.765 -0.598 -18.779 -0.599 -18.824 -0.605 -19.039 -0.680 4.594 0.143 5.075 0.497 42.912 41.810
89.200 -13.349 -1.314 -13.632 -1.260 -14.371 -1.120 -15.642 -0.890 -15.652 -0.888 -16.705 -0.725 -17.060 -0.681 -17.126 -0.674 -17.137 -0.673 -17.183 -0.668 -17.542 -0.634 -17.728 -0.621 -18.195 -0.598 -18.206 -0.598 -18.237 -0.597 -18.320 -0.596 -18.438 -0.595 -18.715 -0.604 -18.750 -0.607 -18.764 -0.609 -18.808 -0.615 -19.022 -0.691 4.599 0.145 5.024 0.495 42.905 41.806
89.600 -13.335 -1.321 -13.619 -1.267 -14.357 -1.128 -15.628 -0.899 -15.638 -0.898 -16.691 -0.735 -17.045 -0.691 -17.111 -0.684 -17.121 -0.683 -17.168 -0.678 -17.526 -0.645 -17.712 -0.631 -18.179 -0.608 -18.190 -0.608 -18.221 -0.607 -18.304 -0.605 -18.422 -0.604 -18.699 -0.614 -18.734 -0.617 -18.748 -0.619 -18.792 -0.625 -19.003 -0.702 4.604 0.146 4.972 0.493 42.898 41.802
90.000 -13.321 -1.328 -13.605 -1.274 -14.343 -1.136 -15.614 -0.908 -15.624 -0.907 -16.676 -0.745 -17.031 -0.701 -17.096 -0.694 -17.106 -0.693 -17.153 -0.688 -17.511 -0.654 -17.697 -0.641 -18.162 -0.618 -18.174 -0.617 -18.204 -0.616 -18.288 -0.615 -18.406 -0.614 -18.684 -0.623 -18.718 -0.627 -18.732 -0.628 -18.776 -0.634 -18.985 -0.712 4.609 0.147 4.920 0.491 42.891 41.797
90.400 -13.308 -1.334 -13.591 -1.281 -14.330 -1.144 -15.601 -0.917 -15.611 -0.916 -16.662 -0.755 -17.016 -0.711 -17.081 -0.704 -17.091 -0.703 -17.138 -0.698 -17.495 -0.664 -17.681 -0.650 -18.146 -0.627 -18.157 -0.626 -18.188 -0.626 -18.272 -0.624 -18.390 -0.623 -18.667 -0.633 -18.702 -0.636 -18.716 -0.638 -18.759 -0.644 -18.966 -0.722 4.614 0.148 4.866 0.488 42.884 41.792
90.800 -13.294 -1.341 -13.577 -1.288 -14.316 -1.151 -15.587 -0.926 -15.597 -0.924 -16.647 -0.764 -17.001 -0.721 -17.066 -0.713 -17.076 -0.712 -17.123 -0.707 -17.479 -0.673 -17.665 -0.659 -18.130 -0.636 -18.141 -0.635 -18.172 -0.635 -18.256 -0.633 -18.374 -0.632 -18.651 -0.642 -18.685 -0.645 -18.699 -0.647 -18.743 -0.653 -18.947 -0.732 4.620 0.149 4.813 0.486 42.876 41.787
91.200 -13.280 -1.347 -13.564 -1.295 -14.303 -1.158 -15.573 -0.934 -15.583 -0.933 -16.633 -0.774 -16.986 -0.730 -17.051 -0.723 -17.061 -0.722 -17.108 -0.717 -17.464 -0.683 -17.649 -0.668 -18.114 -0.644 -18.125 -0.644 -18.156 -0.643 -18.240 -0.641 -18.357 -0.640 -18.634 -0.650 -18.668 -0.654 -18.682 -0.655 -18.726 -0.662 -18.928 -0.742 4.626 0.150 4.758 0.482 42.869 41.781
91.600 -13.266 -1.354 -13.550 -1.301 -14.290 -1.166 -15.560 -0.943 -15.570 -0.941 -16.619 -0.783 -16.971 -0.739 -17.036 -0.732 -17.047 -0.731 -17.093 -0.726 -17.448 -0.692 -17.633 -0.677 -18.097 -0.653 -18.108 -0.653 -18.139 -0.652 -18.223 -0.650 -18.340 -0.649 -18.617 -0.659 -18.651 -0.662 -18.665 -0.664 -18.708 -0.670 -18.908 -0.751 4.633 0.151 4.703 0.479 42.861 41.775
92.000 -13.252 -1.360 -13.536 -1.308 -14.276 -1.173 -15.546 -0.951 -15.556 -0.949 -16.604 -0.791 -16.956 -0.748 -17.021 -0.741 -17.032 -0.739 -17.078 -0.734 -17.433 -0.700 -17.618 -0.686 -18.081 -0.661 -18.092 -0.661 -18.123 -0.660 -18.206 -0.658 -18.324 -0.657 -18.600 -0.667 -18.634 -0.671 -18.648 -0.672 -18.690 -0.679 -18.889 -0.760 4.640 0.152 4.648 0.475 42.853 41.768
92.400 -13.239 -1.366 -13.523 -1.314 -14.263 -1.180 -15.533 -0.959 -15.543 -0.957 -16.590 -0.800 -16.942 -0.756 -17.006 -0.749 -17.017 -0.748 -17.063 -0.743 -17.418 -0.709 -17.602 -0.694 -18.064 -0.669 -18.075 -0.669 -18.106 -0.668 -18.190 -0.666 -18.307 -0.665 -18.582 -0.675 -18.616 -0.679 -18.630 -0.680 -18.672 -0.687 -18.868 -0.769 4.647 0.152 4.592 0.470 42.846 41.762
92.800 -13.225 -1.372 -13.509 -1.320 -14.250 -1.186 -15.520 -0.967 -15.530 -0.965 -16.576 -0.808 -16.927 -0.765 -16.992 -0.757 -17.002 -0.756 -17.048 -0.751 -17.402 -0.717 -17.586 -0.702 -18.048 -0.677 -18.059 -0.677 -18.089 -0.676 -18.173 -0.674 -18.290 -0.672 -18.565 -0.683 -18.598 -0.686 -18.612 -0.688 -18.654 -0.695 -18.848 -0.778 4.655 0.153 4.536 0.466 42.838 41.754
93.200 -13.211 -1.378 -13.496 -1.326 -14.236 -1.193 -15.506 -0.974 -15.516 -0.973 -16.562 -0.816 -16.912 -0.773 -16.977 -0.765 -16.987 -0.764 -17.034 -0.759 -17.387 -0.725 -17.570 -0.710 -18.031 -0.684 -18.042 -0.684 -18.073 -0.683 -18.156 -0.681 -18.273 -0.680 -18.547 -0.690 -18.580 -0.694 -18.594 -0.696 -18.636 -0.702 -18.827 -0.786 4.662 0.154 4.479 0.461 42.830 41.747
93.600 -13.197 -1.384 -13.482 -1.332 -14.223 -1.200 -15.493 -0.982 -15.503 -0.980 -16.548 -0.824 -16.898 -0.781 -16.962 -0.773 -16.973 -0.772 -17.019 -0.767 -17.371 -0.732 -17.555 -0.717 -18.014 -0.691 -18.025 -0.691 -18.056 -0.690 -18.139 -0.688 -18.256 -0.687 -18.529 -0.697 -18.562 -0.701 -18.575 -0.703 -18.617 -0.710 -18.806 -0.794 4.671 0.155 4.423 0.456 42.822 41.739
94.000 -13.184 -1.389 -13.469 -1.338 -14.210 -1.206 -15.480 -0.989 -15.490 -0.987 -16.534 -0.832 -16.883 -0.788 -16.948 -0.781 -16.958 -0.780 -17.004 -0.774 -17.356 -0.739 -17.539 -0.724 -17.998 -0.698 -18.009 -0.698 -18.039 -0.697 -18.122 -0.695 -18.238 -0.694 -18.510 -0.704 -18.543 -0.708 -18.557 -0.710 -18.598 -0.717 -18.785 -0.802 4.679 0.155 4.366 0.451 42.814 41.731
94.400 -13.170 -1.395 -13.455 -1.344 -14.197 -1.212 -15.467 -0.996 -15.477 -0.994 -16.520 -0.839 -16.869 -0.795 -16.933 -0.788 -16.944 -0.787 -16.990 -0.782 -17.341 -0.747 -17.523 -0.731 -17.981 -0.705 -17.992 -0.705 -18.022 -0.704 -18.105 -0.701 -18.221 -0.700 -18.492 -0.711 -18.524 -0.715 -18.538 -0.717 -18.579 -0.724 -18.764 -0.810 4.688 0.156 4.309 0.445 42.805 41.723
94.800 -13.157 -1.400 -13.442 -1.349 -14.184 -1.218 -15.454 -1.003 -15.464 -1.001 -16.506 -0.846 -16.855 -0.802 -16.919 -0.795 -16.929 -0.794 -16.975 -0.789 -17.326 -0.753 -17.508 -0.738 -17.964 -0.711 -17.975 -0.711 -18.005 -0.710 -18.088 -0.708 -18.203 -0.706 -18.473 -0.717 -18.505 -0.721 -18.519 -0.723 -18.559 -0.730 -18.742 -0.817 4.697 0.156 4.252 0.439 42.797 41.714
95.200 -13.143 -1.405 -13.428 -1.355 -14.171 -1.224 -15.441 -1.010 -15.451 -1.008 -16.492 -0.853 -16.840 -0.809 -16.904 -0.802 -16.915 -0.800 -16.961 -0.795 -17.310 -0.760 -17.492 -0.744 -17.947 -0.717 -17.958 -0.717 -17.988 -0.716 -18.071 -0.714 -18.186 -0.712 -18.454 -0.723 -18.486 -0.727 -18.499 -0.729 -18.540 -0.736 -18.720 -0.824 4.706 0.157 4.195 0.433 42.789 41.705
95.600 -13.130 -1.410 -13.415 -1.360 -14.158 -1.230 -15.428 -1.016 -15.438 -1.014 -16.478 -0.859 -16.826 -0.816 -16.890 -0.808 -16.900 -0.807 -16.946 -0.802 -17.295 -0.766 -17.476 -0.750 -17.930 -0.723 -17.941 -0.723 -17.971 -0.722 -18.053 -0.719 -18.168 -0.718 -18.435 -0.729 -18.467 -0.733 -18.480 -0.735 -18.520 -0.742 -18.698 -0.831 4.716 0.157 4.138 0.427 42.781 41.696
96.000 -13.116 -1.415 -13.402 -1.365 -14.145 -1.235 -15.415 -1.022 -15.425 -1.020 -16.465 -0.866 -16.812 -0.822 -16.876 -0.814 -16.886 -0.813 -16.932 -0.808 -17.280 -0.772 -17.461 -0.756 -17.914 -0.729 -17.924 -0.728 -17.954 -0.727 -18.036 -0.725 -18.150 -0.723 -18.415 -0.735 -18.447 -0.739 -18.460 -0.741 -18.500 -0.748 -18.676 -0.838 4.726 0.158 4.081 0.421 42.772 41.687
96.400 -13.103 -1.420 -13.389 -1.370 -14.132 -1.240 -15.402 -1.028 -15.412 -1.026 -16.451 -0.872 -16.798 -0.828 -16.862 -0.820 -16.872 -0.819 -16.917 -0.814 -17.265 -0.777 -17.445 -0.762 -17.897 -0.734 -17.907 -0.733 -17.937 -0.732 -18.019 -0.730 -18.132 -0.728 -18.396 -0.740 -18.427 -0.744 -18.440 -0.746 -18.479 -0.753 -18.653 -0.844 4.736 0.158 4.024 0.415 42.764 41.677
96.800 -13.089 -1.424 -13.375 -1.374 -14.119 -1.246 -15.389 -1.034 -15.399 -1.032 -16.438 -0.877 -16.784 -0.833 -16.847 -0.826 -16.858 -0.824 -16.903 -0.819 -17.250 -0.783 -17.430 -0.767 -17.880 -0.738 -17.890 -0.738 -17.920 -0.737 -18.001 -0.735 -18.114 -0.733 -18.376 -0.745 -18.407 -0.749 -18.420 -0.751 -18.459 -0.758 -18.631 -0.850 4.746 0.158 3.967 0.408 42.755 41.667
97.200 -13.076 -1.429 -13.362 -1.379 -14.106 -1.251 -15.377 -1.039 -15.387 -1.038 -16.424 -0.883 -16.770 -0.839 -16.833 -0.831 -16.844 -0.830 -16.889 -0.824 -17.235 -0.788 -17.415 -0.772 -17.863 -0.743 -17.873 -0.743 -17.903 -0.741 -17.984 -0.739 -18.096 -0.738 -18.356 -0.749 -18.387 -0.754 -18.400 -0.756 -18.438 -0.763 -18.608 -0.856 4.757 0.159 3.911 0.401 42.747 41.657
97.600 -13.062 -1.433 -13.349 -1.383 -14.094 -1.255 -15.364 -1.044 -15.374 -1.043 -16.411 -0.888 -16.756 -0.844 -16.819 -0.836 -16.830 -0.835 -16.875 -0.829 -17.220 -0.792 -17.399 -0.776 -17.846 -0.747 -17.856 -0.747 -17.886 -0.746 -17.966 -0.743 -18.078 -0.742 -18.336 -0.754 -18.367 -0.758 -18.379 -0.760 -18.417 -0.768 -18.585 -0.861 4.768 0.159 3.854 0.395 42.738 41.646
98.000 -13.049 -1.437 -13.336 -1.388 -14.081 -1.260 -15.352 -1.049 -15.362 -1.048 -16.398 -0.893 -16.742 -0.848 -16.806 -0.841 -16.816 -0.839 -16.861 -0.834 -17.206 -0.797 -17.384 -0.780 -17.829 -0.751 -17.839 -0.751 -17.869 -0.750 -17.949 -0.747 -18.060 -0.746 -18.316 -0.758 -18.346 -0.762 -18.359 -0.764 -18.396 -0.772 -18.561 -0.866 4.779 0.159 3.798 0.388 42.729 41.635
98.400 -13.036 -1.441 -13.323 -1.392 -14.069 -1.264 -15.340 -1.054 -15.350 -1.053 -16.385 -0.898 -16.729 -0.853 -16.792 -0.845 -16.802 -0.844 -16.847 -0.838 -17.191 -0.801 -17.369 -0.784 -17.812 -0.755 -17.822 -0.754 -17.852 -0.753 -17.931 -0.751 -18.042 -0.749 -18.296 -0.761 -18.326 -0.766 -18.338 -0.768 -18.375 -0.775 -18.538 -0.871 4.791 0.159 3.743 0.381 42.721 41.624
98.800 -13.023 -1.445 -13.310 -1.396 -14.056 -1.269 -15.327 -1.059 -15.337 -1.057 -16.372 -0.902 -16.715 -0.857 -16.778 -0.849 -16.788 -0.848 -16.834 -0.842 -17.176 -0.805 -17.354 -0.788 -17.795 -0.758 -17.805 -0.758 -17.835 -0.756 -17.913 -0.754 -18.023 -0.752 -18.275 -0.765 -18.305 -0.769 -18.317 -0.771 -18.354 -0.779 -18.514 -0.876 4.803 0.159 3.687 0.374 42.712 41.613
99.200 -13.009 -1.449 -13.297 -1.400 -14.044 -1.273 -15.315 -1.063 -15.325 -1.062 -16.359 -0.906 -16.702 -0.861 -16.765 -0.853 -16.775 -0.852 -16.820 -0.846 -17.162 -0.808 -17.339 -0.791 -17.778 -0.761 -17.789 -0.760 -17.817 -0.759 -17.896 -0.757 -18.005 -0.755 -18.255 -0.768 -18.284 -0.772 -18.296 -0.774 -18.332 -0.782 -18.491 -0.880 4.815 0.159 3.633 0.367 42.704 41.602
99.600 -12.996 -1.452 -13.284 -1.403 -14.031 -1.277 -15.303 -1.067 -15.313 -1.066 -16.346 -0.910 -16.688 -0.864 -16.751 -0.856 -16.761 -0.855 -16.806 -0.850 -17.148 -0.811 -17.324 -0.794 -17.761 -0.764 -17.772 -0.763 -17.800 -0.762 -17.878 -0.759 -17.987 -0.758 -18.234 -0.770 -18.263 -0.775 -18.275 -0.777 -18.311 -0.785 -18.467 -0.884 4.827 0.159 3.578 0.360 42.695 41.590
100.000 -12.983 -1.455 -13.271 -1.407 -14.019 -1.280 -15.291 -1.071 -15.301 -1.070 -16.333 -0.913 -16.675 -0.868 -16.738 -0.860 -16.748 -0.858 -16.793 -0.853 -17.133 -0.814 -17.309 -0.797 -17.744 -0.766 -17.755 -0.765 -17.783 -0.764 -17.861 -0.761 -17.968 -0.760 -18.213 -0.773 -18.242 -0.777 -18.254 -0.779 -18.289 -0.788 -18.443 -0.887 4.840 0.159 3.524 0.352 42.686 41.578
100.400 -12.970 -1.459 -13.258 -1.410 -14.007 -1.284 -15.279 -1.075 -15.289 -1.073 -16.321 -0.917 -16.662 -0.871 -16.725 -0.863 -16.735 -0.861 -16.779 -0.856 -17.119 -0.817 -17.294 -0.799 -17.727 -0.768 -17.738 -0.767 -17.766 -0.766 -17.843 -0.763 -17.950 -0.762 -18.192 -0.775 -18.221 -0.779 -18.232 -0.782 -18.267 -0.790 -18.418 -0.891 4.853 0.159 3.470 0.345 42.677 41.566
100.800 -12.957 -1.462 -13.246 -1.413 -13.994 -1.287 -15.267 -1.078 -15.277 -1.077 -16.308 -0.920 -16.649 -0.873 -16.711 -0.865 -16.722 -0.864 -16.766 -0.858 -17.105 -0.819 -17.279 -0.801 -17.711 -0.769 -17.721 -0.769 -17.749 -0.768 -17.825 -0.765 -17.931 -0.763 -18.171 -0.776 -18.199 -0.781 -18.211 -0.783 -18.245 -0.792 -18.394 -0.894 4.866 0.159 3.417 0.338 42.669 41.554
101.200 -12.944 -1.464 -13.233 -1.416 -13.982 -1.290 -15.256 -1.081 -15.266 -1.080 -16.296 -0.922 -16.636 -0.876 -16.698 -0.867 -16.709 -0.866 -16.753 -0.861 -17.091 -0.821 -17.265 -0.803 -17.694 -0.771 -17.704 -0.770 -17.732 -0.769 -17.808 -0.766 -17.913 -0.764 -18.150 -0.778 -18.178 -0.783 -18.189 -0.785 -18.223 -0.793 -18.370 -0.897 4.879 0.159 3.364 0.331 42.660 41.541
101.600 -12.931 -1.467 -13.220 -1.418 -13.970 -1.293 -15.244 -1.084 -15.254 -1.083 -16.284 -0.925 -16.623 -0.878 -16.686 -0.869 -16.696 -0.868 -16.740 -0.862 -17.077 -0.822 -17.250 -0.804 -17.677 -0.772 -17.687 -0.771 -17.715 -0.770 -17.790 -0.767 -17.894 -0.765 -18.129 -0.779 -18.156 -0.784 -18.167 -0.786 -18.200 -0.795 -18.345 -0.899 4.893 0.159 3.312 0.323 42.651 41.528
102.000 -12.918 -1.469 -13.208 -1.421 -13.958 -1.296 -15.233 -1.087 -15.243 -1.086 -16.272 -0.927 -16.611 -0.879 -16.673 -0.871 -16.683 -0.870 -16.727 -0.864 -17.063 -0.824 -17.236 -0.805 -17.660 -0.772 -17.670 -0.772 -17.698 -0.770 -17.773 -0.768 -17.876 -0.766 -18.108 -0.780 -18.135 -0.785 -18.145 -0.787 -18.178 -0.796 -18.320 -0.902 4.907 0.159 3.260 0.316 42.642 41.515
102.400 -12.905 -1.472 -13.195 -1.423 -13.946 -1.299 -15.221 -1.090 -15.231 -1.088 -16.260 -0.929 -16.598 -0.881 -16.660 -0.873 -16.670 -0.871 -16.714 -0.865 -17.049 -0.824 -17.221 -0.806 -17.644 -0.773 -17.654 -0.772 -17.681 -0.771 -17.755 -0.768 -17.858 -0.766 -18.087 -0.780 -18.113 -0.785 -18.124 -0.787 -18.156 -0.796 -18.296 -0.904 4.921 0.158 3.209 0.309 42.634 41.502
102.800 -12.892 -1.474 -13.182 -1.426 -13.935 -1.301 -15.210 -1.092 -15.220 -1.090 -16.248 -0.930 -16.586 -0.882 -16.648 -0.874 -16.658 -0.872 -16.702 -0.866 -17.036 -0.825 -17.207 -0.806 -17.627 -0.772 -17.637 -0.772 -17.664 -0.771 -17.738 -0.768 -17.839 -0.766 -18.065 -0.780 -18.091 -0.785 -18.102 -0.788 -18.133 -0.797 -18.271 -0.905 4.935 0.158 3.159 0.302 42.625 41.489
103.200 -12.880 -1.476 -13.170 -1.428 -13.923 -1.303 -15.199 -1.094 -15.209 -1.092 -16.236 -0.931 -16.574 -0.883 -16.635 -0.875 -16.645 -0.873 -16.689 -0.867 -17.022 -0.825 -17.193 -0.806 -17.611 -0.772 -17.621 -0.772 -17.648 -0.770 -17.720 -0.767 -17.821 -0.766 -18.044 -0.780 -18.069 -0.785 -18.080 -0.787 -18.111 -0.797 -18.246 -0.907 4.949 0.158 3.109 0.295 42.616 41.475
103.600 -12.867 -1.477 -13.157 -1.429 -13.911 -1.305 -15.188 -1.096 -15.198 -1.094 -16.224 -0.932 -16.561 -0.884 -16.623 -0.875 -16.633 -0.874 -16.677 -0.868 -17.009 -0.825 -17.179 -0.806 -17.594 -0.771 -17.604 -0.771 -17.631 -0.769 -17.703 -0.767 -17.802 -0.765 -18.022 -0.779 -18.047 -0.784 -18.058 -0.787 -18.088 -0.796 -18.221 -0.908 4.964 0.157 3.060 0.288 42.608 41.462
104.000 -12.854 -1.479 -13.145 -1.431 -13.899 -1.307 -15.177 -1.097 -15.187 -1.096 -16.213 -0.933 -16.549 -0.884 -16.611 -0.875 -16.621 -0.874 -16.665 -0.868 -16.996 -0.825 -17.165 -0.806 -17.578 -0.770 -17.588 -0.770 -17.614 -0.768 -17.686 -0.765 -17.784 -0.764 -18.001 -0.778 -18.025 -0.784 -18.035 -0.786 -18.065 -0.796 -18.196 -0.908 4.979 0.157 3.012 0.281 42.599 41.448
104.400 -12.841 -1.481 -13.133 -1.433 -13.888 -1.309 -15.166 -1.099 -15.176 -1.097 -16.202 -0.934 -16.538 -0.884 -16.599 -0.875 -16.609 -0.874 -16.652 -0.868 -16.983 -0.824 -17.151 -0.805 -17.562 -0.769 -17.571 -0.768 -17.598 -0.767 -17.668 -0.764 -17.766 -0.762 -17.979 -0.777 -18.003 -0.782 -18.013 -0.785 -18.043 -0.795 -18.170 -0.909 4.994 0.156 2.964 0.274 42.590 41.434
104.800 -12.829 -1.482 -13.120 -1.434 -13.876 -1.310 -15.155 -1.100 -15.165 -1.098 -16.190 -0.934 -16.526 -0.884 -16.587 -0.875 -16.597 -0.873 -16.640 -0.867 -16.970 -0.823 -17.138 -0.803 -17.545 -0.767 -17.555 -0.767 -17.581 -0.765 -17.651 -0.762 -17.747 -0.760 -17.958 -0.775 -17.981 -0.781 -17.991 -0.784 -18.020 -0.793 -18.145 -0.909 5.009 0.156 2.917 0.267 42.582 41.420
105.200 -12.816 -1.483 -13.108 -1.435 -13.865 -1.311 -15.144 -1.101 -15.155 -1.099 -16.179 -0.934 -16.514 -0.883 -16.575 -0.874 -16.585 -0.873 -16.629 -0.866 -16.957 -0.822 -17.124 -0.802 -17.529 -0.765 -17.539 -0.765 -17.565 -0.763 -17.634 -0.760 -17.729 -0.758 -17.936 -0.774 -17.959 -0.779 -17.969 -0.782 -17.997 -0.792 -18.120 -0.909 5.025 0.155 2.870 0.260 42.573 41.405
105.600 -12.803 -1.484 -13.096 -1.436 -13.854 -1.312 -15.134 -1.101 -15.144 -1.100 -16.169 -0.933 -16.503 -0.882 -16.564 -0.873 -16.574 -0.872 -16.617 -0.865 -16.944 -0.820 -17.111 -0.800 -17.513 -0.763 -17.523 -0.762 -17.548 -0.761 -17.617 -0.757 -17.711 -0.756 -17.915 -0.771 -17.937 -0.777 -17.946 -0.780 -17.974 -0.790 -18.095 -0.909 5.041 0.155 2.824 0.253 42.565 41.391
106.000 -12.791 -1.484 -13.084 -1.437 -13.842 -1.313 -15.124 -1.102 -15.134 -1.100 -16.158 -0.933 -16.492 -0.881 -16.552 -0.872 -16.562 -0.870 -16.605 -0.864 -16.932 -0.818 -17.098 -0.798 -17.497 -0.760 -17.507 -0.759 -17.532 -0.758 -17.600 -0.755 -17.693 -0.753 -17.893 -0.769 -17.915 -0.774 -17.924 -0.777 -17.951 -0.787 -18.069 -0.908 5.057 0.154 2.779 0.247 42.556 41.376
106.400 -12.778 -1.485 -13.072 -1.437 -13.831 -1.314 -15.113 -1.102 -15.123 -1.100 -16.147 -0.932 -16.480 -0.879 -16.541 -0.870 -16.551 -0.869 -16.594 -0.862 -16.919 -0.816 -17.085 -0.795 -17.482 -0.757 -17.491 -0.756 -17.516 -0.755 -17.583 -0.751 -17.675 -0.750 -17.871 -0.766 -17.893 -0.772 -17.902 -0.774 -17.928 -0.785 -18.044 -0.907 5.073 0.153 2.735 0.240 42.548 41.361
106.800 -12.766 -1.485 -13.060 -1.438 -13.820 -1.314 -15.103 -1.102 -15.113 -1.100 -16.137 -0.931 -16.469 -0.878 -16.530 -0.868 -16.540 -0.867 -16.583 -0.860 -16.907 -0.814 -17.072 -0.792 -17.466 -0.753 -17.475 -0.753 -17.500 -0.751 -17.566 -0.748 -17.657 -0.746 -17.850 -0.763 -17.871 -0.768 -17.880 -0.771 -17.905 -0.782 -18.018 -0.906 5.089 0.153 2.691 0.234 42.539 41.346
107.200 -12.754 -1.486 -13.048 -1.438 -13.809 -1.314 -15.093 -1.102 -15.103 -1.100 -16.126 -0.929 -16.459 -0.876 -16.519 -0.866 -16.529 -0.865 -16.572 -0.858 -16.895 -0.811 -17.059 -0.789 -17.450 -0.749 -17.459 -0.749 -17.484 -0.747 -17.550 -0.744 -17.639 -0.742 -17.828 -0.759 -17.849 -0.765 -17.857 -0.768 -17.882 -0.779 -17.993 -0.905 5.105 0.152 2.648 0.227 42.531 41.331
107.600 -12.741 -1.486 -13.036 -1.438 -13.798 -1.315 -15.083 -1.101 -15.093 -1.100 -16.116 -0.927 -16.448 -0.873 -16.508 -0.864 -16.518 -0.862 -16.561 -0.856 -16.883 -0.807 -17.046 -0.785 -17.435 -0.745 -17.444 -0.745 -17.468 -0.743 -17.533 -0.740 -17.621 -0.738 -17.807 -0.755 -17.827 -0.761 -17.835 -0.764 -17.859 -0.775 -17.968 -0.903 5.122 0.151 2.606 0.221 42.523 41.316
108.000 -12.729 -1.486 -13.024 -1.438 -13.787 -1.314 -15.074 -1.101 -15.084 -1.099 -16.106 -0.926 -16.438 -0.871 -16.498 -0.861 -16.507 -0.860 -16.550 -0.853 -16.871 -0.804 -17.034 -0.782 -17.420 -0.741 -17.428 -0.740 -17.452 -0.739 -17.517 -0.735 -17.603 -0.733 -17.785 -0.751 -17.805 -0.757 -17.813 -0.760 -17.836 -0.771 -17.942 -0.901 5.139 0.150 2.564 0.215 42.514 41.300
108.400 -12.717 -1.485 -13.012 -1.438 -13.776 -1.314 -15.064 -1.100 -15.074 -1.098 -16.096 -0.923 -16.427 -0.868 -16.487 -0.858 -16.497 -0.857 -16.540 -0.850 -16.860 -0.800 -17.021 -0.777 -17.404 -0.736 -17.413 -0.735 -17.437 -0.734 -17.500 -0.730 -17.586 -0.729 -17.764 -0.746 -17.783 -0.753 -17.790 -0.756 -17.813 -0.767 -17.917 -0.899 5.156 0.149 2.524 0.209 42.506 41.285
108.800 -12.704 -1.485 -13.000 -1.438 -13.766 -1.314 -15.054 -1.099 -15.065 -1.097 -16.087 -0.921 -16.417 -0.865 -16.477 -0.855 -16.487 -0.853 -16.529 -0.846 -16.849 -0.796 -17.009 -0.773 -17.389 -0.731 -17.398 -0.730 -17.421 -0.729 -17.484 -0.725 -17.568 -0.723 -17.742 -0.741 -17.761 -0.748 -17.768 -0.751 -17.791 -0.762 -17.892 -0.896 5.173 0.148 2.484 0.203 42.498 41.269
109.200 -12.692 -1.484 -12.988 -1.437 -13.755 -1.313 -15.045 -1.097 -15.055 -1.096 -16.077 -0.918 -16.407 -0.861 -16.467 -0.851 -16.477 -0.850 -16.519 -0.843 -16.837 -0.792 -16.997 -0.768 -17.374 -0.725 -17.383 -0.725 -17.406 -0.723 -17.468 -0.720 -17.551 -0.718 -17.721 -0.736 -17.739 -0.743 -17.746 -0.746 -17.768 -0.757 -17.866 -0.893 5.190 0.147 2.444 0.197 42.490 41.253
109.600 -12.680 -1.483 -12.977 -1.436 -13.744 -1.312 -15.036 -1.096 -15.046 -1.094 -16.068 -0.915 -16.397 -0.858 -16.457 -0.848 -16.467 -0.846 -16.509 -0.839 -16.826 -0.787 -16.985 -0.763 -17.359 -0.720 -17.368 -0.719 -17.391 -0.717 -17.452 -0.714 -17.533 -0.712 -17.699 -0.731 -17.717 -0.737 -17.724 -0.740 -17.745 -0.752 -17.841 -0.890 5.207 0.146 2.406 0.191 42.482 41.237
110.000 -12.668 -1.482 -12.965 -1.435 -13.734 -1.311 -15.027 -1.094 -15.037 -1.093 -16.059 -0.912 -16.388 -0.854 -16.447 -0.843 -16.457 -0.842 -16.499 -0.835 -16.815 -0.782 -16.974 -0.758 -17.345 -0.713 -17.353 -0.713 -17.376 -0.711 -17.436 -0.708 -17.516 -0.706 -17.678 -0.725 -17.695 -0.732 -17.702 -0.735 -17.722 -0.747 -17.816 -0.887 5.225 0.145 2.368 0.185 42.474 41.221
110.400 -12.656 -1.481 -12.954 -1.434 -13.724 -1.310 -15.018 -1.092 -15.028 -1.091 -16.050 -0.909 -16.378 -0.850 -16.438 -0.839 -16.447 -0.837 -16.489 -0.830 -16.805 -0.777 -16.962 -0.752 -17.330 -0.707 -17.339 -0.706 -17.361 -0.705 -17.420 -0.701 -17.499 -0.699 -17.657 -0.719 -17.673 -0.725 -17.680 -0.729 -17.699 -0.741 -17.791 -0.883 5.243 0.144 2.331 0.180 42.466 41.205
110.800 -12.644 -1.480 -12.942 -1.433 -13.713 -1.309 -15.009 -1.090 -15.019 -1.089 -16.041 -0.905 -16.369 -0.845 -16.428 -0.835 -16.438 -0.833 -16.480 -0.825 -16.794 -0.771 -16.951 -0.746 -17.316 -0.700 -17.324 -0.700 -17.346 -0.698 -17.405 -0.694 -17.482 -0.692 -17.636 -0.712 -17.651 -0.719 -17.658 -0.722 -17.677 -0.735 -17.766 -0.880 5.260 0.143 2.294 0.175 42.458 41.188
111.200 -12.632 -1.479 -12.931 -1.431 -13.703 -1.307 -15.000 -1.088 -15.010 -1.086 -16.032 -0.901 -16.360 -0.841 -16.419 -0.830 -16.429 -0.828 -16.471 -0.820 -16.784 -0.765 -16.940 -0.739 -17.302 -0.693 -17.310 -0.692 -17.332 -0.691 -17.389 -0.687 -17.465 -0.685 -17.614 -0.705 -17.630 -0.712 -17.636 -0.716 -17.654 -0.728 -17.741 -0.876 5.278 0.142 2.258 0.169 42.450 41.172
111.600 -12.620 -1.477 -12.919 -1.430 -13.693 -1.306 -14.992 -1.086 -15.002 -1.084 -16.024 -0.897 -16.351 -0.836 -16.410 -0.825 -16.419 -0.823 -16.461 -0.815 -16.774 -0.759 -16.929 -0.733 -17.288 -0.686 -17.296 -0.685 -17.317 -0.683 -17.374 -0.679 -17.448 -0.678 -17.593 -0.698 -17.608 -0.705 -17.614 -0.709 -17.631 -0.722 -17.716 -0.871 5.296 0.141 2.223 0.164 42.443 41.155
112.000 -12.608 -1.475 -12.908 -1.428 -13.683 -1.304 -14.983 -1.083 -14.993 -1.082 -16.015 -0.893 -16.342 -0.831 -16.401 -0.819 -16.411 -0.818 -16.452 -0.810 -16.764 -0.752 -16.918 -0.726 -17.274 -0.678 -17.282 -0.677 -17.303 -0.675 -17.359 -0.672 -17.432 -0.670 -17.572 -0.691 -17.587 -0.698 -17.592 -0.702 -17.609 -0.715 -17.691 -0.867 5.315 0.140 2.189 0.159 42.435 41.139
112.400 -12.596 -1.473 -12.896 -1.426 -13.673 -1.302 -14.975 -1.081 -14.985 -1.079 -16.007 -0.888 -16.334 -0.825 -16.392 -0.814 -16.402 -0.812 -16.444 -0.804 -16.754 -0.746 -16.908 -0.719 -17.260 -0.670 -17.268 -0.669 -17.289 -0.667 -17.344 -0.663 -17.415 -0.662 -17.552 -0.683 -17.565 -0.691 -17.571 -0.694 -17.587 -0.707 -17.666 -0.862 5.333 0.139 2.155 0.154 42.428 41.122
112.800 -12.584 -1.471 -12.885 -1.424 -13.663 -1.300 -14.967 -1.078 -14.977 -1.076 -15.999 -0.884 -16.325 -0.820 -16.384 -0.808 -16.393 -0.806 -16.435 -0.798 -16.744 -0.739 -16.898 -0.711 -17.247 -0.661 -17.254 -0.661 -17.275 -0.659 -17.329 -0.655 -17.399 -0.653 -17.531 -0.675 -17.544 -0.683 -17.549 -0.686 -17.564 -0.700 -17.642 -0.857 5.351 0.137 2.122 0.149 42.420 41.105
113.200 -12.572 -1.469 -12.874 -1.422 -13.653 -1.298 -14.958 -1.075 -14.969 -1.073 -15.991 -0.879 -16.317 -0.814 -16.376 -0.802 -16.385 -0.800 -16.427 -0.792 -16.735 -0.731 -16.888 -0.703 -17.234 -0.653 -17.241 -0.652 -17.261 -0.650 -17.314 -0.646 -17.383 -0.644 -17.510 -0.667 -17.523 -0.675 -17.528 -0.678 -17.542 -0.692 -17.617 -0.852 5.370 0.136 2.090 0.145 42.413 41.088
113.600 -12.561 -1.466 -12.863 -1.419 -13.643 -1.295 -14.951 -1.072 -14.961 -1.070 -15.984 -0.874 -16.309 -0.808 -16.367 -0.796 -16.377 -0.794 -16.418 -0.786 -16.726 -0.724 -16.878 -0.695 -17.220 -0.644 -17.228 -0.643 -17.248 -0.641 -17.300 -0.637 -17.367 -0.635 -17.490 -0.658 -17.501 -0.666 -17.506 -0.670 -17.520 -0.684 -17.593 -0.847 5.388 0.135 2.058 0.140 42.406 41.071
114.000 -12.549 -1.464 -12.852 -1.417 -13.634 -1.293 -14.943 -1.068 -14.953 -1.066 -15.976 -0.869 -16.301 -0.802 -16.360 -0.790 -16.369 -0.788 -16.410 -0.779 -16.717 -0.716 -16.868 -0.687 -17.207 -0.634 -17.215 -0.633 -17.234 -0.632 -17.286 -0.628 -17.351 -0.626 -17.469 -0.649 -17.480 -0.657 -17.485 -0.661 -17.498 -0.675 -17.569 -0.842 5.407 0.134 2.027 0.136 42.398 41.055
114.400 -12.537 -1.461 -12.841 -1.414 -13.624 -1.290 -14.935 -1.065 -14.945 -1.063 -15.969 -0.863 -16.294 -0.795 -16.352 -0.783 -16.361 -0.781 -16.403 -0.772 -16.708 -0.708 -16.858 -0.678 -17.195 -0.625 -17.202 -0.624 -17.221 -0.622 -17.272 -0.618 -17.335 -0.616 -17.449 -0.640 -17.460 -0.648 -17.464 -0.652 -17.476 -0.667 -17.545 -0.836 5.426 0.133 1.997 0.132 42.391 41.038
114.800 -12.526 -1.458 -12.830 -1.411 -13.614 -1.287 -14.928 -1.061 -14.938 -1.059 -15.962 -0.858 -16.286 -0.789 -16.344 -0.776 -16.354 -0.774 -16.395 -0.765 -16.700 -0.700 -16.849 -0.670 -17.182 -0.615 -17.189 -0.614 -17.208 -0.612 -17.258 -0.608 -17.320 -0.606 -17.429 -0.631 -17.439 -0.639 -17.443 -0.643 -17.455 -0.658 -17.521 -0.830 5.445 0.132 1.967 0.127 42.384 41.021
115.200 -12.514 -1.455 -12.819 -1.408 -13.605 -1.284 -14.920 -1.057 -14.930 -1.055 -15.955 -0.852 -16.279 -0.782 -16.337 -0.769 -16.346 -0.767 -16.388 -0.758 -16.691 -0.692 -16.840 -0.660 -17.170 -0.604 -17.177 -0.604 -17.195 -0.602 -17.244 -0.598 -17.305 -0.596 -17.409 -0.621 -17.418 -0.630 -17.422 -0.634 -17.433 -0.649 -17.497 -0.824 5.464 0.130 1.938 0.123 42.377 41.004
115.600 -12.502 -1.452 -12.808 -1.405 -13.596 -1.281 -14.913 -1.053 -14.923 -1.052 -15.948 -0.846 -16.272 -0.775 -16.330 -0.762 -16.339 -0.760 -16.380 -0.751 -16.683 -0.683 -16.831 -0.651 -17.158 -0.594 -17.165 -0.593 -17.183 -0.591 -17.230 -0.587 -17.289 -0.586 -17.389 -0.611 -17.398 -0.620 -17.401 -0.624 -17.412 -0.639 -17.474 -0.818 5.483 0.129 1.910 0.120 42.371 40.987
116.000 -12.491 -1.449 -12.797 -1.402 -13.586 -1.278 -14.906 -1.049 -14.916 -1.048 -15.942 -0.840 -16.265 -0.768 -16.323 -0.755 -16.332 -0.753 -16.373 -0.743 -16.675 -0.674 -16.822 -0.642 -17.146 -0.583 -17.152 -0.582 -17.171 -0.580 -17.217 -0.576 -17.275 -0.575 -17.369 -0.601 -17.377 -0.610 -17.381 -0.614 -17.390 -0.630 -17.450 -0.812 5.502 0.128 1.882 0.116 42.364 40.970
116.400 -12.479 -1.445 -12.786 -1.399 -13.577 -1.274 -14.899 -1.045 -14.909 -1.043 -15.935 -0.834 -16.258 -0.761 -16.316 -0.747 -16.325 -0.745 -16.366 -0.736 -16.667 -0.665 -16.814 -0.632 -17.134 -0.572 -17.141 -0.571 -17.158 -0.569 -17.204 -0.565 -17.260 -0.564 -17.350 -0.591 -17.357 -0.599 -17.360 -0.604 -17.369 -0.620 -17.427 -0.805 5.521 0.127 1.855 0.112 42.357 40.953
116.800 -12.468 -1.442 -12.775 -1.395 -13.568 -1.271 -14.892 -1.041 -14.902 -1.039 -15.929 -0.828 -16.252 -0.754 -16.309 -0.740 -16.319 -0.738 -16.360 -0.728 -16.660 -0.656 -16.806 -0.622 -17.123 -0.561 -17.129 -0.560 -17.146 -0.558 -17.191 -0.554 -17.245 -0.552 -17.330 -0.580 -17.337 -0.589 -17.340 -0.593 -17.348 -0.610 -17.404 -0.798 5.541 0.126 1.828 0.109 42.351 40.936
117.200 -12.457 -1.438 -12.764 -1.391 -13.559 -1.267 -14.885 -1.037 -14.896 -1.035 -15.923 -0.822 -16.245 -0.746 -16.303 -0.732 -16.312 -0.730 -16.353 -0.720 -16.653 -0.646 -16.798 -0.611 -17.111 -0.549 -17.118 -0.548 -17.135 -0.546 -17.178 -0.542 -17.231 -0.541 -17.311 -0.569 -17.318 -0.578 -17.320 -0.583 -17.327 -0.599 -17.382 -0.792 5.560 0.125 1.802 0.106 42.345 40.920
117.600 -12.445 -1.434 -12.754 -1.388 -13.550 -1.263 -14.879 -1.032 -14.889 -1.030 -15.917 -0.815 -16.239 -0.739 -16.297 -0.724 -16.306 -0.722 -16.347 -0.712 -16.645 -0.637 -16.790 -0.601 -17.100 -0.537 -17.107 -0.536 -17.123 -0.534 -17.166 -0.530 -17.217 -0.529 -17.292 -0.558 -17.298 -0.567 -17.300 -0.572 -17.307 -0.589 -17.359 -0.785 5.580 0.125 1.777 0.103 42.338 40.903
118.000 -12.434 -1.430 -12.743 -1.384 -13.541 -1.259 -14.872 -1.028 -14.883 -1.026 -15.911 -0.809 -16.233 -0.731 -16.291 -0.716 -16.300 -0.714 -16.341 -0.704 -16.639 -0.627 -16.782 -0.590 -17.090 -0.525 -17.096 -0.524 -17.112 -0.522 -17.154 -0.518 -17.203 -0.517 -17.273 -0.546 -17.278 -0.556 -17.280 -0.561 -17.286 -0.578 -17.337 -0.778 5.599 0.124 1.752 0.100 42.332 40.887
118.400 -12.422 -1.426 -12.732 -1.380 -13.532 -1.255 -14.866 -1.023 -14.876 -1.021 -15.906 -0.802 -16.228 -0.723 -16.285 -0.708 -16.294 -0.706 -16.335 -0.696 -16.632 -0.617 -16.775 -0.580 -17.079 -0.512 -17.085 -0.512 -17.101 -0.509 -17.142 -0.505 -17.189 -0.505 -17.255 -0.535 -17.259 -0.545 -17.261 -0.549 -17.266 -0.567 -17.315 -0.771 5.619 0.123 1.727 0.097 42.326 40.871
118.800 -12.411 -1.422 -12.722 -1.375 -13.524 -1.251 -14.860 -1.019 -14.870 -1.017 -15.901 -0.796 -16.222 -0.715 -16.279 -0.700 -16.289 -0.698 -16.329 -0.687 -16.625 -0.607 -16.768 -0.569 -17.069 -0.500 -17.074 -0.499 -17.090 -0.497 -17.130 -0.493 -17.176 -0.492 -17.236 -0.523 -17.240 -0.533 -17.242 -0.538 -17.246 -0.556 -17.293 -0.764 5.639 0.122 1.704 0.094 42.320 40.855
119.200 -12.400 -1.417 -12.711 -1.371 -13.515 -1.247 -14.854 -1.014 -14.864 -1.012 -15.895 -0.789 -16.217 -0.708 -16.274 -0.692 -16.283 -0.690 -16.324 -0.679 -16.619 -0.597 -16.761 -0.558 -17.058 -0.487 -17.064 -0.486 -17.080 -0.484 -17.118 -0.480 -17.163 -0.479 -17.218 -0.511 -17.221 -0.521 -17.223 -0.526 -17.226 -0.545 -17.272 -0.757 5.659 0.122 1.680 0.092 42.315 40.840
119.600 -12.389 -1.413 -12.701 -1.366 -13.506 -1.243 -14.848 -1.009 -14.858 -1.007 -15.890 -0.782 -16.211 -0.700 -16.269 -0.684 -16.278 -0.682 -16.318 -0.671 -16.613 -0.587 -16.754 -0.546 -17.048 -0.474 -17.054 -0.473 -17.069 -0.471 -17.107 -0.467 -17.149 -0.467 -17.200 -0.499 -17.203 -0.509 -17.204 -0.514 -17.207 -0.533 -17.250 -0.750 5.679 0.122 1.658 0.089 42.309 40.825
120.000 -12.377 -1.408 -12.690 -1.362 -13.498 -1.238 -14.842 -1.004 -14.852 -1.002 -15.885 -0.776 -16.206 -0.692 -16.263 -0.676 -16.273 -0.673 -16.313 -0.662 -16.607 -0.577 -16.747 -0.535 -17.039 -0.461 -17.044 -0.460 -17.059 -0.457 -17.096 -0.453 -17.137 -0.453 -17.182 -0.487 -17.184 -0.497 -17.185 -0.502 -17.188 -0.522 -17.230 -0.743 5.699 0.121 1.636 0.087 42.303 40.810
120.400 -12.366 -1.403 -12.680 -1.357 -13.489 -1.234 -14.836 -0.999 -14.847 -0.997 -15.881 -0.769 -16.201 -0.684 -16.258 -0.668 -16.268 -0.665 -16.308 -0.654 -16.601 -0.566 -16.741 -0.524 -17.029 -0.447 -17.035 -0.446 -17.049 -0.444 -17.085 -0.440 -17.124 -0.440 -17.165 -0.474 -17.166 -0.485 -17.167 -0.490 -17.168 -0.510 -17.209 -0.735 5.719 0.121 1.614 0.085 42.298 40.796
120.800 -12.355 -1.398 -12.669 -1.352 -13.481 -1.229 -14.831 -0.994 -14.841 -0.992 -15.876 -0.762 -16.197 -0.676 -16.254 -0.660 -16.263 -0.657 -16.303 -0.645 -16.595 -0.556 -16.735 -0.512 -17.020 -0.433 -17.025 -0.432 -17.040 -0.430 -17.074 -0.426 -17.112 -0.427 -17.147 -0.462 -17.148 -0.473 -17.148 -0.478 -17.150 -0.498 -17.189 -0.728 5.739 0.121 1.593 0.083 42.293 40.782
121.200 -12.344 -1.393 -12.659 -1.347 -13.473 -1.224 -14.825 -0.989 -14.836 -0.987 -15.872 -0.756 -16.192 -0.668 -16.249 -0.652 -16.258 -0.649 -16.298 -0.637 -16.590 -0.546 -16.729 -0.501 -17.011 -0.420 -17.016 -0.419 -17.030 -0.416 -17.064 -0.412 -17.100 -0.413 -17.130 -0.449 -17.130 -0.461 -17.131 -0.466 -17.131 -0.487 -17.169 -0.721 5.759 0.122 1.572 0.082 42.287 40.768
121.600 -12.333 -1.388 -12.649 -1.342 -13.464 -1.219 -14.820 -0.984 -14.830 -0.982 -15.867 -0.749 -16.188 -0.660 -16.245 -0.643 -16.254 -0.641 -16.294 -0.629 -16.585 -0.535 -16.723 -0.489 -17.002 -0.405 -17.007 -0.405 -17.021 -0.402 -17.054 -0.398 -17.088 -0.400 -17.114 -0.437 -17.113 -0.448 -17.113 -0.454 -17.113 -0.475 -17.149 -0.714 5.780 0.122 1.552 0.080 42.282 40.755
122.000 -12.321 -1.382 -12.638 -1.337 -13.456 -1.214 -14.815 -0.979 -14.825 -0.977 -15.863 -0.742 -16.184 -0.652 -16.240 -0.635 -16.249 -0.633 -16.289 -0.620 -16.580 -0.525 -16.717 -0.478 -16.994 -0.391 -16.999 -0.390 -17.012 -0.388 -17.044 -0.384 -17.076 -0.386 -17.097 -0.424 -17.096 -0.436 -17.096 -0.441 -17.095 -0.463 -17.130 -0.707 5.800 0.123 1.533 0.079 42.278 40.743
122.400 -12.310 -1.377 -12.628 -1.332 -13.448 -1.209 -14.810 -0.974 -14.820 -0.972 -15.859 -0.736 -16.179 -0.645 -16.236 -0.627 -16.245 -0.625 -16.285 -0.612 -16.575 -0.515 -16.712 -0.466 -16.985 -0.377 -16.990 -0.376 -17.003 -0.374 -17.034 -0.370 -17.065 -0.372 -17.081 -0.411 -17.079 -0.423 -17.078 -0.429 -17.077 -0.451 -17.111 -0.700 5.821 0.123 1.514 0.077 42.273 40.731
122.800 -12.299 -1.371 -12.618 -1.326 -13.440 -1.204 -14.805 -0.969 -14.815 -0.967 -15.856 -0.729 -16.176 -0.637 -16.232 -0.620 -16.241 -0.617 -16.281 -0.604 -16.570 -0.505 -16.706 -0.455 -16.977 -0.363 -16.982 -0.362 -16.995 -0.359 -17.024 -0.356 -17.054 -0.358 -17.065 -0.399 -17.062 -0.411 -17.062 -0.417 -17.060 -0.439 -17.092 -0.693 5.842 0.125 1.495 0.076 42.268 40.720
123.200 -12.288 -1.365 -12.608 -1.321 -13.432 -1.199 -14.800 -0.964 -14.810 -0.962 -15.852 -0.723 -16.172 -0.630 -16.228 -0.612 -16.237 -0.609 -16.277 -0.596 -16.566 -0.495 -16.701 -0.443 -16.970 -0.348 -16.974 -0.347 -16.986 -0.345 -17.015 -0.341 -17.043 -0.344 -17.049 -0.386 -17.046 -0.398 -17.045 -0.404 -17.043 -0.427 -17.074 -0.686 5.863 0.126 1.477 0.075 42.264 40.709
123.600 -12.277 -1.360 -12.597 -1.315 -13.424 -1.194 -14.795 -0.959 -14.806 -0.957 -15.848 -0.717 -16.168 -0.622 -16.225 -0.604 -16.234 -0.601 -16.274 -0.588 -16.561 -0.485 -16.696 -0.432 -16.962 -0.334 -16.966 -0.333 -16.978 -0.330 -17.006 -0.327 -17.032 -0.330 -17.034 -0.373 -17.030 -0.386 -17.029 -0.392 -17.026 -0.416 -17.056 -0.679 5.884 0.127 1.459 0.074 42.260 40.699
124.000 -12.266 -1.354 -12.587 -1.309 -13.416 -1.188 -14.791 -0.954 -14.801 -0.952 -15.845 -0.710 -16.165 -0.615 -16.221 -0.597 -16.230 -0.594 -16.270 -0.581 -16.557 -0.475 -16.692 -0.421 -16.954 -0.319 -16.959 -0.318 -16.971 -0.316 -16.997 -0.313 -17.022 -0.317 -17.018 -0.361 -17.015 -0.373 -17.013 -0.380 -17.009 -0.404 -17.039 -0.672 5.905 0.129 1.442 0.074 42.256 40.690
124.400 -12.255 -1.347 -12.577 -1.303 -13.408 -1.183 -14.786 -0.948 -14.797 -0.946 -15.842 -0.704 -16.161 -0.608 -16.218 -0.590 -16.227 -0.587 -16.267 -0.573 -16.553 -0.466 -16.687 -0.410 -16.947 -0.305 -16.952 -0.304 -16.963 -0.301 -16.989 -0.298 -17.012 -0.303 -17.004 -0.348 -16.999 -0.361 -16.998 -0.368 -16.993 -0.393 -17.022 -0.666 5.927 0.131 1.425 0.073 42.252 40.681
124.800 -12.244 -1.341 -12.567 -1.297 -13.401 -1.177 -14.782 -0.943 -14.792 -0.941 -15.839 -0.699 -16.158 -0.602 -16.214 -0.583 -16.223 -0.580 -16.263 -0.566 -16.549 -0.457 -16.682 -0.399 -16.940 -0.290 -16.944 -0.289 -16.955 -0.287 -16.981 -0.284 -17.002 -0.289 -16.989 -0.336 -16.984 -0.349 -16.982 -0.356 -16.978 -0.382 -17.005 -0.660 5.948 0.134 1.409 0.073 42.248 40.673
125.200 -12.233 -1.335 -12.557 -1.291 -13.393 -1.171 -14.777 -0.938 -14.788 -0.936 -15.836 -0.693 -16.155 -0.595 -16.211 -0.576 -16.220 -0.573 -16.260 -0.559 -16.545 -0.448 -16.678 -0.389 -16.933 -0.276 -16.938 -0.275 -16.948 -0.272 -16.973 -0.270 -16.993 -0.276 -16.975 -0.324 -16.970 -0.338 -16.968 -0.345 -16.962 -0.371 -16.989 -0.653 5.970 0.136 1.393 0.073 42.244 40.666
125.600 -12.222 -1.328 -12.547 -1.285 -13.385 -1.166 -14.773 -0.933 -14.784 -0.931 -15.833 -0.687 -16.152 -0.589 -16.208 -0.569 -16.217 -0.566 -16.257 -0.552 -16.542 -0.440 -16.674 -0.379 -16.927 -0.262 -16.931 -0.261 -16.941 -0.258 -16.965 -0.256 -16.983 -0.263 -16.961 -0.313 -16.955 -0.326 -16.953 -0.333 -16.948 -0.360 -16.973 -0.647 5.992 0.139 1.377 0.073 42.241 40.659
126.000 -12.211 -1.322 -12.537 -1.278 -13.378 -1.160 -14.769 -0.928 -14.780 -0.926 -15.830 -0.682 -16.149 -0.583 -16.205 -0.563 -16.214 -0.560 -16.254 -0.546 -16.538 -0.432 -16.670 -0.370 -16.920 -0.248 -16.924 -0.247 -16.934 -0.244 -16.957 -0.242 -16.974 -0.250 -16.948 -0.301 -16.942 -0.316 -16.939 -0.323 -16.933 -0.350 -16.958 -0.642 6.013 0.143 1.363 0.073 42.238 40.652
126.400 -12.200 -1.315 -12.527 -1.272 -13.370 -1.154 -14.765 -0.923 -14.776 -0.921 -15.827 -0.676 -16.146 -0.577 -16.203 -0.557 -16.212 -0.554 -16.251 -0.540 -16.535 -0.424 -16.666 -0.361 -16.914 -0.235 -16.918 -0.233 -16.928 -0.231 -16.950 -0.229 -16.965 -0.238 -16.935 -0.291 -16.928 -0.305 -16.926 -0.312 -16.919 -0.341 -16.943 -0.636 6.035 0.146 1.348 0.073 42.235 40.646
126.800 -12.189 -1.308 -12.517 -1.265 -13.363 -1.148 -14.762 -0.918 -14.772 -0.916 -15.825 -0.671 -16.144 -0.571 -16.200 -0.552 -16.209 -0.548 -16.248 -0.534 -16.531 -0.417 -16.662 -0.352 -16.908 -0.222 -16.912 -0.220 -16.921 -0.218 -16.942 -0.216 -16.957 -0.227 -16.922 -0.281 -16.915 -0.295 -16.912 -0.303 -16.905 -0.331 -16.928 -0.631 6.057 0.150 1.335 0.073 42.232 40.640
127.200 -12.178 -1.301 -12.507 -1.258 -13.355 -1.142 -14.758 -0.913 -14.769 -0.911 -15.823 -0.667 -16.141 -0.566 -16.197 -0.546 -16.206 -0.543 -16.246 -0.528 -16.528 -0.410 -16.658 -0.344 -16.902 -0.209 -16.906 -0.208 -16.915 -0.205 -16.935 -0.204 -16.948 -0.216 -16.910 -0.271 -16.902 -0.286 -16.900 -0.293 -16.892 -0.323 -16.914 -0.626 6.078 0.154 1.321 0.074 42.230 40.635
127.600 -12.167 -1.294 -12.497 -1.251 -13.348 -1.136 -14.754 -0.908 -14.765 -0.906 -15.820 -0.662 -16.139 -0.561 -16.195 -0.541 -16.204 -0.538 -16.243 -0.523 -16.525 -0.404 -16.654 -0.337 -16.896 -0.197 -16.900 -0.196 -16.909 -0.193 -16.928 -0.193 -16.940 -0.206 -16.898 -0.262 -16.890 -0.277 -16.887 -0.285 -16.880 -0.315 -16.900 -0.621 6.099 0.157 1.309 0.074 42.228 40.630
128.000 -12.156 -1.287 -12.487 -1.244 -13.341 -1.129 -14.751 -0.903 -14.762 -0.901 -15.818 -0.657 -16.137 -0.556 -16.192 -0.536 -16.201 -0.533 -16.241 -0.519 -16.522 -0.398 -16.651 -0.331 -16.890 -0.187 -16.894 -0.185 -16.903 -0.183 -16.922 -0.183 -16.932 -0.197 -16.887 -0.254 -16.879 -0.270 -16.875 -0.277 -16.867 -0.308 -16.887 -0.616 6.119 0.161 1.297 0.075 42.226 40.625
128.400 -12.145 -1.279 -12.477 -1.237 -13.334 -1.123 -14.747 -0.898 -14.758 -0.896 -15.816 -0.653 -16.134 -0.552 -16.190 -0.532 -16.199 -0.529 -16.238 -0.514 -16.519 -0.393 -16.647 -0.325 -16.885 -0.177 -16.888 -0.176 -16.897 -0.173 -16.915 -0.174 -16.925 -0.189 -16.876 -0.248 -16.867 -0.263 -16.864 -0.271 -16.856 -0.302 -16.875 -0.612 6.138 0.165 1.286 0.075 42.223 40.621
128.800 -12.134 -1.272 -12.467 -1.230 -13.326 -1.117 -14.744 -0.893 -14.755 -0.891 -15.814 -0.649 -16.132 -0.548 -16.188 -0.528 -16.197 -0.525 -16.236 -0.510 -16.516 -0.389 -16.644 -0.320 -16.879 -0.169 -16.883 -0.168 -16.891 -0.165 -16.909 -0.166 -16.917 -0.182 -16.866 -0.242 -16.857 -0.257 -16.853 -0.265 -16.845 -0.296 -16.863 -0.608 6.156 0.168 1.275 0.075 42.221 40.617
129.200 -12.123 -1.264 -12.457 -1.223 -13.319 -1.110 -14.741 -0.888 -14.752 -0.886 -15.812 -0.645 -16.130 -0.545 -16.186 -0.525 -16.195 -0.521 -16.234 -0.507 -16.513 -0.385 -16.640 -0.316 -16.874 -0.162 -16.877 -0.161 -16.886 -0.158 -16.902 -0.160 -16.910 -0.177 -16.856 -0.237 -16.846 -0.252 -16.843 -0.260 -16.834 -0.292 -16.851 -0.604 6.172 0.171 1.266 0.076 42.219 40.614
129.600 -12.112 -1.256 -12.447 -1.215 -13.312 -1.104 -14.738 -0.883 -14.749 -0.881 -15.811 -0.642 -16.128 -0.541 -16.184 -0.521 -16.193 -0.518 -16.232 -0.503 -16.510 -0.382 -16.637 -0.313 -16.869 -0.158 -16.872 -0.157 -16.880 -0.154 -16.896 -0.156 -16.903 -0.174 -16.846 -0.234 -16.837 -0.249 -16.833 -0.257 -16.824 -0.289 -16.840 -0.601 6.186 0.174 1.257 0.076 42.217 40.611
130.000 -12.101 -1.248 -12.437 -1.207 -13.305 -1.097 -14.735 -0.878 -14.746 -0.876 -15.809 -0.638 -16.126 -0.538 -16.182 -0.519 -16.191 -0.515 -16.230 -0.501 -16.507 -0.380 -16.634 -0.311 -16.863 -0.155 -16.866 -0.154 -16.874 -0.152 -16.890 -0.154 -16.896 -0.172 -16.838 -0.232 -16.828 -0.247 -16.824 -0.255 -16.814 -0.286 -16.829 -0.597 6.198 0.175 1.249 0.076 42.215 40.610
130.400 -12.090 -1.240 -12.428 -1.200 -13.298 -1.090 -14.732 -0.873 -14.743 -0.871 -15.807 -0.635 -16.125 -0.536 -16.180 -0.516 -16.189 -0.513 -16.228 -0.498 -16.504 -0.378 -16.630 -0.309 -16.858 -0.155 -16.861 -0.154 -16.869 -0.151 -16.884 -0.154 -16.889 -0.172 -16.829 -0.231 -16.819 -0.246 -16.815 -0.254 -16.805 -0.285 -16.819 -0.595 6.207 0.176 1.241 0.075 42.212 40.610
130.800 -12.079 -1.232 -12.418 -1.192 -13.291 -1.083 -14.729 -0.868 -14.740 -0.866 -15.806 -0.632 -16.123 -0.534 -16.178 -0.514 -16.187 -0.511 -16.226 -0.496 -16.502 -0.377 -16.627 -0.309 -16.853 -0.157 -16.856 -0.156 -16.863 -0.153 -16.878 -0.156 -16.883 -0.173 -16.822 -0.231 -16.811 -0.246 -16.807 -0.254 -16.797 -0.285 -16.809 -0.592 6.213 0.175 1.234 0.075 42.209 40.611
131.200 -12.068 -1.224 -12.408 -1.184 -13.284 -1.076 -14.727 -0.863 -14.738 -0.861 -15.805 -0.629 -16.121 -0.532 -16.177 -0.512 -16.185 -0.509 -16.224 -0.495 -16.499 -0.377 -16.624 -0.309 -16.847 -0.161 -16.850 -0.160 -16.858 -0.157 -16.873 -0.159 -16.877 -0.176 -16.814 -0.233 -16.804 -0.248 -16.800 -0.255 -16.789 -0.286 -16.799 -0.589 6.217 0.174 1.228 0.074 42.206 40.612
131.600 -12.057 -1.215 -12.398 -1.176 -13.278 -1.069 -14.724 -0.858 -14.735 -0.856 -15.803 -0.627 -16.120 -0.530 -16.175 -0.511 -16.184 -0.508 -16.222 -0.493 -16.496 -0.377 -16.621 -0.311 -16.842 -0.167 -16.845 -0.165 -16.853 -0.163 -16.867 -0.165 -16.871 -0.181 -16.808 -0.236 -16.797 -0.251 -16.793 -0.258 -16.782 -0.288 -16.790 -0.587 6.219 0.172 1.223 0.073 42.202 40.614
132.000 -12.046 -1.206 -12.388 -1.167 -13.271 -1.062 -14.722 -0.853 -14.733 -0.851 -15.802 -0.624 -16.118 -0.529 -16.173 -0.510 -16.182 -0.506 -16.221 -0.493 -16.494 -0.378 -16.617 -0.313 -16.837 -0.174 -16.840 -0.173 -16.847 -0.170 -16.861 -0.172 -16.865 -0.186 -16.801 -0.240 -16.790 -0.254 -16.786 -0.262 -16.775 -0.290 -16.782 -0.585 6.219 0.170 1.218 0.072 42.199 40.617
132.400 -12.035 -1.198 -12.378 -1.159 -13.264 -1.055 -14.720 -0.848 -14.731 -0.847 -15.801 -0.622 -16.117 -0.528 -16.172 -0.509 -16.181 -0.506 -16.219 -0.492 -16.491 -0.379 -16.614 -0.315 -16.832 -0.182 -16.835 -0.181 -16.842 -0.179 -16.856 -0.179 -16.859 -0.193 -16.795 -0.245 -16.784 -0.259 -16.780 -0.266 -16.769 -0.294 -16.774 -0.584 6.218 0.167 1.214 0.070 42.196 40.619
132.800 -12.023 -1.189 -12.368 -1.150 -13.257 -1.047 -14.717 -0.844 -14.728 -0.842 -15.800 -0.620 -16.116 -0.527 -16.170 -0.508 -16.179 -0.505 -16.218 -0.492 -16.489 -0.381 -16.611 -0.319 -16.827 -0.191 -16.830 -0.190 -16.837 -0.188 -16.851 -0.188 -16.854 -0.201 -16.790 -0.251 -16.779 -0.264 -16.775 -0.271 -16.763 -0.298 -16.767 -0.582 6.216 0.164 1.210 0.069 42.192 40.621
133.200 -12.012 -1.179 -12.358 -1.142 -13.251 -1.040 -14.715 -0.839 -14.726 -0.837 -15.799 -0.618 -16.114 -0.526 -16.169 -0.508 -16.178 -0.505 -16.216 -0.492 -16.486 -0.383 -16.608 -0.323 -16.822 -0.201 -16.825 -0.200 -16.832 -0.198 -16.846 -0.198 -16.849 -0.209 -16.785 -0.258 -16.774 -0.270 -16.770 -0.277 -16.758 -0.303 -16.760 -0.581 6.213 0.161 1.207 0.068 42.189 40.623
133.600 -12.001 -1.170 -12.348 -1.133 -13.244 -1.032 -14.713 -0.834 -14.724 -0.832 -15.799 -0.616 -16.113 -0.526 -16.168 -0.508 -16.177 -0.505 -16.215 -0.492 -16.484 -0.386 -16.605 -0.327 -16.817 -0.211 -16.820 -0.210 -16.827 -0.208 -16.840 -0.208 -16.844 -0.218 -16.780 -0.265 -16.769 -0.277 -16.765 -0.283 -16.753 -0.308 -16.753 -0.580 6.210 0.157 1.204 0.067 42.186 40.625
134.000 -11.990 -1.161 -12.338 -1.124 -13.237 -1.025 -14.711 -0.829 -14.723 -0.827 -15.798 -0.614 -16.112 -0.526 -16.167 -0.508 -16.175 -0.505 -16.213 -0.493 -16.482 -0.389 -16.602 -0.332 -16.812 -0.221 -16.815 -0.220 -16.822 -0.219 -16.836 -0.218 -16.839 -0.227 -16.776 -0.272 -16.765 -0.284 -16.761 -0.290 -16.749 -0.314 -16.747 -0.579 6.206 0.154 1.201 0.066 42.183 40.627
134.400 -11.979 -1.151 -12.328 -1.115 -13.231 -1.017 -14.710 -0.824 -14.721 -0.822 -15.797 -0.612 -16.111 -0.526 -16.165 -0.509 -16.174 -0.506 -16.212 -0.493 -16.479 -0.392 -16.599 -0.337 -16.808 -0.232 -16.811 -0.231 -16.817 -0.229 -16.831 -0.229 -16.834 -0.237 -16.772 -0.280 -16.761 -0.291 -16.757 -0.297 -16.745 -0.320 -16.741 -0.578 6.202 0.151 1.199 0.065 42.181 40.629
134.800 -11.967 -1.141 -12.318 -1.105 -13.224 -1.009 -14.708 -0.818 -14.719 -0.817 -15.797 -0.611 -16.110 -0.526 -16.164 -0.509 -16.173 -0.506 -16.211 -0.494 -16.477 -0.396 -16.596 -0.343 -16.803 -0.243 -16.806 -0.242 -16.813 -0.240 -16.826 -0.239 -16.829 -0.247 -16.769 -0.288 -16.758 -0.299 -16.753 -0.304 -16.741 -0.326 -16.736 -0.577 6.198 0.148 1.197 0.064 42.178 40.630
135.200 -11.956 -1.131 -12.308 -1.096 -13.218 -1.000 -14.706 -0.813 -14.717 -0.812 -15.796 -0.609 -16.109 -0.526 -16.163 -0.510 -16.172 -0.507 -16.210 -0.495 -16.475 -0.400 -16.593 -0.349 -16.799 -0.254 -16.801 -0.253 -16.808 -0.251 -16.821 -0.250 -16.825 -0.257 -16.765 -0.296 -16.755 -0.306 -16.750 -0.312 -16.738 -0.333 -16.731 -0.577 6.194 0.145 1.195 0.063 42.176 40.632
135.600 -11.945 -1.121 -12.298 -1.086 -13.211 -0.992 -14.705 -0.808 -14.716 -0.806 -15.796 -0.608 -16.108 -0.527 -16.162 -0.511 -16.171 -0.508 -16.209 -0.496 -16.473 -0.404 -16.590 -0.355 -16.794 -0.264 -16.797 -0.263 -16.804 -0.262 -16.817 -0.261 -16.821 -0.266 -16.762 -0.304 -16.752 -0.314 -16.747 -0.319 -16.735 -0.340 -16.727 -0.576 6.190 0.142 1.194 0.062 42.174 40.633
136.000 -11.933 -1.111 -12.288 -1.076 -13.205 -0.984 -14.703 -0.803 -14.715 -0.801 -15.796 -0.607 -16.108 -0.527 -16.161 -0.511 -16.170 -0.509 -16.207 -0.498 -16.470 -0.408 -16.587 -0.361 -16.790 -0.275 -16.793 -0.274 -16.799 -0.272 -16.813 -0.271 -16.817 -0.276 -16.760 -0.312 -16.749 -0.322 -16.745 -0.327 -16.733 -0.346 -16.723 -0.575 6.186 0.139 1.193 0.061 42.172 40.634
136.400 -11.922 -1.100 -12.278 -1.066 -13.198 -0.975 -14.702 -0.797 -14.713 -0.796 -15.795 -0.605 -16.107 -0.528 -16.160 -0.512 -16.169 -0.510 -16.206 -0.499 -16.468 -0.412 -16.584 -0.367 -16.786 -0.285 -16.788 -0.284 -16.795 -0.283 -16.809 -0.281 -16.813 -0.286 -16.757 -0.320 -16.747 -0.330 -16.743 -0.334 -16.730 -0.353 -16.719 -0.575 6.181 0.136 1.192 0.060 42.170 40.635
136.800 -11.910 -1.090 -12.268 -1.056 -13.192 -0.967 -14.701 -0.792 -14.712 -0.790 -15.795 -0.604 -16.106 -0.528 -16.160 -0.513 -16.168 -0.511 -16.205 -0.500 -16.466 -0.416 -16.582 -0.373 -16.782 -0.295 -16.784 -0.294 -16.791 -0.293 -16.804 -0.291 -16.809 -0.295 -16.755 -0.328 -16.745 -0.337 -16.741 -0.342 -16.729 -0.360 -16.716 -0.575 6.177 0.134 1.191 0.059 42.168 40.636
137.200 -11.899 -1.079 -12.258 -1.046 -13.186 -0.958 -14.700 -0.786 -14.711 -0.785 -15.795 -0.602 -16.105 -0.529 -16.159 -0.514 -16.167 -0.512 -16.204 -0.502 -16.464 -0.420 -16.579 -0.379 -16.778 -0.305 -16.780 -0.304 -16.787 -0.302 -16.800 -0.301 -16.806 -0.304 -16.753 -0.336 -16.743 -0.345 -16.739 -0.349 -16.727 -0.366 -16.713 -0.574 6.173 0.131 1.191 0.059 42.166 40.637
137.600 -11.887 -1.068 -12.248 -1.035 -13.179 -0.949 -14.699 -0.781 -14.710 -0.779 -15.795 -0.601 -16.105 -0.529 -16.158 -0.515 -16.167 -0.513 -16.204 -0.503 -16.462 -0.424 -16.576 -0.384 -16.774 -0.314 -16.776 -0.313 -16.783 -0.312 -16.797 -0.310 -16.802 -0.313 -16.752 -0.343 -16.742 -0.352 -16.738 -0.356 -16.726 -0.373 -16.710 -0.574 6.168 0.129 1.191 0.058 42.165 40.638
138.000 -11.875 -1.057 -12.238 -1.025 -13.173 -0.939 -14.698 -0.775 -14.709 -0.773 -15.795 -0.599 -16.104 -0.529 -16.157 -0.516 -16.166 -0.514 -16.203 -0.504 -16.460 -0.428 -16.573 -0.390 -16.770 -0.323 -16.772 -0.322 -16.779 -0.321 -16.793 -0.319 -16.799 -0.322 -16.750 -0.351 -16.740 -0.359 -16.736 -0.363 -16.725 -0.379 -16.708 -0.573 6.164 0.127 1.190 0.057 42.164 40.639
138.400 -11.864 -1.045 -12.227 -1.014 -13.167 -0.930 -14.697 -0.769 -14.709 -0.767 -15.796 -0.597 -16.104 -0.530 -16.157 -0.517 -16.165 -0.515 -16.202 -0.505 -16.458 -0.432 -16.571 -0.396 -16.766 -0.332 -16.769 -0.331 -16.775 -0.330 -16.789 -0.328 -16.796 -0.330 -16.749 -0.358 -16.739 -0.366 -16.735 -0.370 -16.724 -0.385 -16.706 -0.572 6.159 0.124 1.190 0.057 42.162 40.640
138.800 -11.852 -1.034 -12.217 -1.002 -13.160 -0.920 -14.696 -0.763 -14.708 -0.761 -15.796 -0.596 -16.103 -0.530 -16.156 -0.517 -16.164 -0.515 -16.201 -0.506 -16.456 -0.436 -16.568 -0.401 -16.762 -0.340 -16.765 -0.339 -16.772 -0.338 -16.786 -0.336 -16.792 -0.338 -16.748 -0.365 -16.739 -0.372 -16.735 -0.376 -16.723 -0.391 -16.705 -0.572 6.155 0.122 1.191 0.056 42.161 40.641
139.200 -11.840 -1.022 -12.207 -0.991 -13.154 -0.911 -14.696 -0.757 -14.707 -0.755 -15.796 -0.594 -16.103 -0.530 -16.155 -0.518 -16.164 -0.516 -16.200 -0.507 -16.454 -0.440 -16.565 -0.406 -16.759 -0.348 -16.761 -0.347 -16.768 -0.346 -16.782 -0.344 -16.789 -0.346 -16.747 -0.371 -16.738 -0.379 -16.734 -0.382 -16.723 -0.396 -16.703 -0.571 6.151 0.120 1.191 0.056 42.160 40.641
139.600 -11.828 -1.010 -12.196 -0.980 -13.148 -0.901 -14.695 -0.750 -14.707 -0.749 -15.797 -0.592 -16.103 -0.530 -16.155 -0.518 -16.163 -0.516 -16.200 -0.508 -16.452 -0.443 -16.563 -0.411 -16.755 -0.355 -16.758 -0.355 -16.765 -0.353 -16.779 -0.351 -16.787 -0.353 -16.746 -0.377 -16.737 -0.384 -16.734 -0.388 -16.723 -0.401 -16.702 -0.570 6.146 0.118 1.191 0.055 42.159 40.642
140.000 -11.816 -0.998 -12.186 -0.968 -13.141 -0.890 -14.695 -0.744 -14.706 -0.742 -15.797 -0.589 -16.102 -0.530 -16.154 -0.518 -16.163 -0.517 -16.199 -0.508 -16.450 -0.446 -16.560 -0.415 -16.751 -0.362 -16.754 -0.362 -16.761 -0.360 -16.775 -0.358 -16.784 -0.360 -16.746 -0.383 -16.737 -0.390 -16.733 -0.393 -16.723 -0.406 -16.702 -0.568 6.142 0.116 1.192 0.055 42.158 40.642
140.400 -11.804 -0.985 -12.175 -0.956 -13.135 -0.880 -14.694 -0.737 -14.706 -0.736 -15.798 -0.587 -16.102 -0.529 -16.154 -0.518 -16.162 -0.517 -16.198 -0.509 -16.448 -0.449 -16.557 -0.419 -16.748 -0.369 -16.751 -0.368 -16.757 -0.367 -16.772 -0.365 -16.781 -0.366 -16.745 -0.388 -16.737 -0.395 -16.733 -0.398 -16.723 -0.411 -16.702 -0.567 6.137 0.114 1.192 0.054 42.158 40.642
140.800 -11.792 -0.972 -12.165 -0.944 -13.129 -0.870 -14.694 -0.730 -14.706 -0.729 -15.798 -0.584 -16.102 -0.529 -16.153 -0.518 -16.162 -0.516 -16.198 -0.509 -16.446 -0.451 -16.555 -0.423 -16.744 -0.375 -16.747 -0.374 -16.754 -0.373 -16.769 -0.371 -16.778 -0.372 -16.745 -0.393 -16.737 -0.400 -16.734 -0.403 -16.723 -0.415 -16.701 -0.565 6.133 0.113 1.193 0.054 42.157 40.642
141.200 -11.780 -0.959 -12.154 -0.931 -13.123 -0.859 -14.694 -0.723 -14.706 -0.721 -15.799 -0.582 -16.102 -0.528 -16.153 -0.518 -16.161 -0.516 -16.197 -0.509 -16.444 -0.453 -16.552 -0.426 -16.741 -0.380 -16.744 -0.380 -16.751 -0.378 -16.766 -0.377 -16.776 -0.377 -16.745 -0.398 -16.737 -0.404 -16.734 -0.407 -16.724 -0.419 -16.702 -0.564 6.128 0.111 1.194 0.053 42.156 40.642
141.600 -11.767 -0.946 -12.143 -0.919 -13.116 -0.848 -14.694 -0.715 -14.706 -0.714 -15.799 -0.579 -16.101 -0.527 -16.153 -0.517 -16.161 -0.515 -16.196 -0.508 -16.442 -0.455 -16.549 -0.429 -16.737 -0.385 -16.740 -0.385 -16.747 -0.384 -16.763 -0.382 -16.773 -0.382 -16.745 -0.402 -16.737 -0.408 -16.734 -0.411 -16.724 -0.422 -16.702 -0.561 6.124 0.109 1.195 0.053 42.156 40.642
142.000 -11.755 -0.933 -12.133 -0.906 -13.110 -0.837 -14.694 -0.708 -14.706 -0.707 -15.800 -0.575 -16.101 -0.525 -16.152 -0.516 -16.160 -0.514 -16.196 -0.507 -16.440 -0.457 -16.547 -0.432 -16.734 -0.390 -16.737 -0.389 -16.744 -0.388 -16.759 -0.386 -16.771 -0.387 -16.745 -0.406 -16.738 -0.412 -16.735 -0.414 -16.725 -0.425 -16.703 -0.559 6.119 0.107 1.196 0.052 42.155 40.642
142.400 -11.742 -0.919 -12.122 -0.893 -13.104 -0.825 -14.694 -0.700 -14.706 -0.699 -15.801 -0.572 -16.101 -0.523 -16.152 -0.514 -16.160 -0.513 -16.195 -0.506 -16.438 -0.458 -16.544 -0.434 -16.731 -0.394 -16.733 -0.393 -16.741 -0.392 -16.756 -0.390 -16.768 -0.391 -16.745 -0.409 -16.738 -0.415 -16.735 -0.417 -16.726 -0.427 -16.704 -0.557 6.115 0.105 1.197 0.052 42.154 40.641
142.800 -11.730 -0.905 -12.111 -0.879 -13.097 -0.813 -14.694 -0.692 -14.706 -0.691 -15.801 -0.568 -16.101 -0.521 -16.151 -0.513 -16.159 -0.511 -16.194 -0.505 -16.436 -0.458 -16.541 -0.436 -16.727 -0.397 -16.730 -0.397 -16.737 -0.396 -16.753 -0.394 -16.766 -0.394 -16.746 -0.412 -16.739 -0.417 -16.736 -0.420 -16.727 -0.430 -16.705 -0.554 6.110 0.104 1.198 0.051 42.154 40.640
143.200 -11.717 -0.891 -12.100 -0.866 -13.091 -0.801 -14.695 -0.683 -14.706 -0.682 -15.802 -0.564 -16.100 -0.519 -16.151 -0.511 -16.159 -0.509 -16.194 -0.503 -16.434 -0.458 -16.538 -0.437 -16.724 -0.400 -16.726 -0.400 -16.734 -0.399 -16.750 -0.397 -16.763 -0.397 -16.746 -0.414 -16.740 -0.419 -16.737 -0.422 -16.729 -0.431 -16.706 -0.550 6.105 0.102 1.199 0.051 42.154 40.639
143.600 -11.704 -0.877 -12.089 -0.852 -13.085 -0.789 -14.695 -0.675 -14.707 -0.674 -15.803 -0.559 -16.100 -0.516 -16.150 -0.508 -16.158 -0.507 -16.193 -0.501 -16.432 -0.458 -16.535 -0.438 -16.720 -0.403 -16.723 -0.402 -16.730 -0.401 -16.747 -0.400 -16.761 -0.400 -16.746 -0.416 -16.740 -0.421 -16.738 -0.423 -16.730 -0.432 -16.708 -0.547 6.100 0.100 1.201 0.050 42.153 40.638
144.000 -11.691 -0.862 -12.077 -0.838 -13.078 -0.777 -14.695 -0.666 -14.707 -0.665 -15.804 -0.554 -16.100 -0.513 -16.149 -0.505 -16.157 -0.504 -16.192 -0.499 -16.429 -0.458 -16.532 -0.438 -16.717 -0.405 -16.719 -0.404 -16.727 -0.403 -16.744 -0.402 -16.759 -0.402 -16.747 -0.417 -16.741 -0.422 -16.739 -0.424 -16.731 -0.433 -16.710 -0.543 6.096 0.099 1.202 0.050 42.153 40.637
144.400 -11.678 -0.848 -12.066 -0.824 -13.072 -0.764 -14.696 -0.657 -14.708 -0.656 -15.805 -0.549 -16.099 -0.510 -16.149 -0.502 -16.157 -0.501 -16.191 -0.496 -16.427 -0.457 -16.529 -0.438 -16.713 -0.406 -16.716 -0.406 -16.724 -0.405 -16.741 -0.403 -16.756 -0.403 -16.747 -0.418 -16.742 -0.423 -16.740 -0.425 -16.733 -0.433 -16.712 -0.539 6.091 0.097 1.204 0.049 42.152 40.636
144.800 -11.665 -0.832 -12.055 -0.809 -13.065 -0.751 -14.696 -0.647 -14.708 -0.647 -15.805 -0.544 -16.099 -0.506 -16.148 -0.499 -16.156 -0.498 -16.190 -0.493 -16.425 -0.455 -16.526 -0.438 -16.709 -0.407 -16.712 -0.406 -16.720 -0.406 -16.738 -0.404 -16.754 -0.404 -16.748 -0.418 -16.743 -0.423 -16.741 -0.425 -16.734 -0.433 -16.714 -0.534 6.086 0.095 1.205 0.049 42.152 40.634
145.200 -11.652 -0.817 -12.043 -0.794 -13.059 -0.738 -14.697 -0.638 -14.709 -0.637 -15.806 -0.538 -16.098 -0.502 -16.147 -0.495 -16.155 -0.494 -16.189 -0.489 -16.422 -0.453 -16.523 -0.436 -16.706 -0.407 -16.709 -0.407 -16.716 -0.406 -16.735 -0.404 -16.752 -0.404 -16.749 -0.418 -16.744 -0.422 -16.742 -0.424 -16.736 -0.432 -16.716 -0.529 6.081 0.094 1.207 0.048 42.152 40.632
145.600 -11.638 -0.801 -12.031 -0.779 -13.052 -0.724 -14.697 -0.628 -14.709 -0.627 -15.807 -0.532 -16.098 -0.497 -16.147 -0.490 -16.154 -0.489 -16.188 -0.485 -16.420 -0.451 -16.520 -0.435 -16.702 -0.407 -16.705 -0.406 -16.713 -0.406 -16.731 -0.404 -16.749 -0.404 -16.749 -0.417 -16.746 -0.421 -16.744 -0.423 -16.738 -0.431 -16.719 -0.524 6.076 0.092 1.208 0.048 42.152 40.630
146.000 -11.625 -0.786 -12.019 -0.763 -13.045 -0.710 -14.698 -0.617 -14.710 -0.617 -15.807 -0.525 -16.097 -0.492 -16.146 -0.486 -16.153 -0.485 -16.187 -0.480 -16.417 -0.448 -16.516 -0.433 -16.698 -0.406 -16.701 -0.406 -16.709 -0.405 -16.728 -0.403 -16.747 -0.403 -16.750 -0.416 -16.747 -0.420 -16.745 -0.422 -16.740 -0.429 -16.721 -0.519 6.071 0.091 1.210 0.047 42.151 40.628
146.400 -11.611 -0.769 -12.007 -0.748 -13.039 -0.696 -14.699 -0.607 -14.711 -0.606 -15.808 -0.518 -16.096 -0.486 -16.145 -0.480 -16.152 -0.479 -16.186 -0.475 -16.414 -0.444 -16.513 -0.430 -16.694 -0.405 -16.697 -0.404 -16.706 -0.403 -16.725 -0.402 -16.744 -0.402 -16.751 -0.414 -16.748 -0.418 -16.746 -0.420 -16.742 -0.426 -16.724 -0.512 6.066 0.089 1.211 0.047 42.151 40.625
146.800 -11.597 -0.753 -11.995 -0.732 -13.032 -0.682 -14.699 -0.596 -14.711 -0.595 -15.808 -0.511 -16.095 -0.480 -16.143 -0.475 -16.151 -0.474 -16.184 -0.470 -16.411 -0.440 -16.509 -0.427 -16.690 -0.403 -16.694 -0.402 -16.702 -0.401 -16.721 -0.400 -16.742 -0.400 -16.752 -0.412 -16.749 -0.415 -16.748 -0.417 -16.743 -0.423 -16.727 -0.506 6.061 0.087 1.213 0.046 42.151 40.623
147.200 -11.583 -0.736 -11.983 -0.716 -13.025 -0.667 -14.700 -0.584 -14.712 -0.584 -15.809 -0.503 -16.094 -0.474 -16.142 -0.469 -16.150 -0.468 -16.183 -0.464 -16.408 -0.436 -16.505 -0.423 -16.686 -0.400 -16.690 -0.400 -16.698 -0.399 -16.718 -0.398 -16.739 -0.397 -16.753 -0.409 -16.750 -0.412 -16.749 -0.414 -16.745 -0.420 -16.730 -0.499 6.055 0.086 1.215 0.046 42.151 40.620
147.600 -11.569 -0.719 -11.971 -0.699 -13.018 -0.652 -14.701 -0.573 -14.713 -0.572 -15.809 -0.495 -16.093 -0.467 -16.141 -0.462 -16.148 -0.461 -16.181 -0.458 -16.405 -0.431 -16.502 -0.419 -16.682 -0.397 -16.685 -0.397 -16.694 -0.396 -16.714 -0.394 -16.737 -0.394 -16.753 -0.405 -16.752 -0.408 -16.751 -0.410 -16.747 -0.416 -16.733 -0.492 6.050 0.084 1.217 0.045 42.150 40.616
148.000 -11.554 -0.702 -11.958 -0.682 -13.011 -0.637 -14.701 -0.561 -14.713 -0.560 -15.809 -0.486 -16.092 -0.460 -16.139 -0.455 -16.147 -0.454 -16.179 -0.451 -16.401 -0.426 -16.497 -0.414 -16.678 -0.393 -16.681 -0.393 -16.690 -0.392 -16.711 -0.391 -16.734 -0.391 -16.754 -0.401 -16.753 -0.404 -16.752 -0.406 -16.749 -0.411 -16.736 -0.484 6.045 0.083 1.219 0.045 42.150 40.613
148.400 -11.540 -0.684 -11.945 -0.665 -13.003 -0.621 -14.702 -0.548 -14.714 -0.548 -15.809 -0.477 -16.091 -0.452 -16.137 -0.447 -16.145 -0.447 -16.177 -0.443 -16.397 -0.420 -16.493 -0.409 -16.674 -0.389 -16.677 -0.388 -16.686 -0.388 -16.707 -0.387 -16.731 -0.386 -16.755 -0.396 -16.754 -0.399 -16.754 -0.401 -16.751 -0.406 -16.739 -0.476 6.039 0.081 1.220 0.044 42.150 40.609
148.800 -11.525 -0.667 -11.933 -0.648 -12.996 -0.605 -14.702 -0.536 -14.715 -0.535 -15.809 -0.468 -16.089 -0.444 -16.135 -0.439 -16.143 -0.439 -16.175 -0.436 -16.394 -0.413 -16.489 -0.403 -16.669 -0.384 -16.673 -0.384 -16.681 -0.383 -16.703 -0.382 -16.728 -0.382 -16.756 -0.391 -16.756 -0.394 -16.755 -0.395 -16.754 -0.401 -16.742 -0.468 6.033 0.079 1.222 0.043 42.149 40.606
149.200 -11.510 -0.649 -11.919 -0.630 -12.988 -0.589 -14.703 -0.522 -14.715 -0.522 -15.809 -0.458 -16.087 -0.435 -16.133 -0.431 -16.140 -0.430 -16.172 -0.427 -16.390 -0.406 -16.484 -0.396 -16.665 -0.378 -16.668 -0.378 -16.677 -0.378 -16.699 -0.376 -16.726 -0.376 -16.757 -0.385 -16.757 -0.388 -16.757 -0.390 -16.756 -0.395 -16.746 -0.459 6.028 0.078 1.224 0.043 42.149 40.601
149.600 -11.495 -0.630 -11.906 -0.612 -12.981 -0.573 -14.703 -0.509 -14.716 -0.508 -15.809 -0.447 -16.085 -0.426 -16.131 -0.422 -16.138 -0.421 -16.170 -0.418 -16.385 -0.398 -16.479 -0.389 -16.660 -0.372 -16.663 -0.372 -16.672 -0.372 -16.695 -0.370 -16.723 -0.370 -16.758 -0.379 -16.758 -0.382 -16.758 -0.383 -16.758 -0.388 -16.749 -0.449 6.022 0.076 1.226 0.042 42.149 40.597
150.000 -11.480 -0.612 -11.893 -0.594 -12.973 -0.556 -14.704 -0.495 -14.716 -0.495 -15.808 -0.437 -16.083 -0.416 -16.128 -0.412 -16.135 -0.412 -16.167 -0.409 -16.381 -0.390 -16.474 -0.382 -16.655 -0.366 -16.658 -0.365 -16.668 -0.365 -16.691 -0.364 -16.720 -0.364 -16.758 -0.372 -16.760 -0.375 -16.760 -0.376 -16.760 -0.381 -16.753 -0.439 6.016 0.075 1.228 0.042 42.148 40.592
150.400 -11.464 -0.593 -11.879 -0.575 -12.965 -0.539 -14.704 -0.481 -14.717 -0.480 -15.807 -0.425 -16.080 -0.406 -16.125 -0.402 -16.132 -0.402 -16.164 -0.399 -16.376 -0.382 -16.469 -0.373 -16.650 -0.358 -16.654 -0.358 -16.663 -0.358 -16.687 -0.357 -16.717 -0.357 -16.759 -0.364 -16.761 -0.367 -16.761 -0.368 -16.762 -0.373 -16.756 -0.429 6.009 0.073 1.230 0.041 42.148 40.588
150.800 -11.449 -0.574 -11.865 -0.557 -12.957 -0.521 -14.704 -0.466 -14.717 -0.466 -15.806 -0.414 -16.077 -0.395 -16.122 -0.392 -16.129 -0.391 -16.160 -0.389 -16.371 -0.372 -16.464 -0.365 -16.645 -0.351 -16.648 -0.350 -16.658 -0.350 -16.683 -0.349 -16.714 -0.349 -16.760 -0.356 -16.762 -0.359 -16.763 -0.360 -16.764 -0.364 -16.760 -0.418 6.003 0.072 1.232 0.041 42.148 40.582
151.200 -11.433 -0.554 -11.851 -0.538 -12.948 -0.503 -14.704 -0.451 -14.717 -0.451 -15.805 -0.401 -16.074 -0.384 -16.118 -0.381 -16.126 -0.380 -16.156 -0.378 -16.366 -0.363 -16.458 -0.355 -16.640 -0.342 -16.643 -0.342 -16.653 -0.341 -16.678 -0.341 -16.710 -0.341 -16.761 -0.348 -16.763 -0.350 -16.764 -0.351 -16.766 -0.355 -16.764 -0.407 5.997 0.070 1.234 0.040 42.147 40.577
151.600 -11.417 -0.535 -11.837 -0.518 -12.940 -0.485 -14.704 -0.436 -14.717 -0.436 -15.803 -0.389 -16.070 -0.372 -16.115 -0.369 -16.122 -0.369 -16.152 -0.367 -16.361 -0.352 -16.452 -0.346 -16.634 -0.333 -16.638 -0.333 -16.648 -0.333 -16.674 -0.332 -16.707 -0.332 -16.762 -0.338 -16.765 -0.341 -16.766 -0.342 -16.768 -0.346 -16.767 -0.396 5.990 0.069 1.236 0.039 42.147 40.572
152.000 -11.401 -0.515 -11.823 -0.499 -12.931 -0.467 -14.704 -0.420 -14.716 -0.420 -15.801 -0.376 -16.067 -0.360 -16.111 -0.357 -16.118 -0.357 -16.148 -0.355 -16.355 -0.341 -16.446 -0.335 -16.629 -0.324 -16.632 -0.323 -16.643 -0.323 -16.669 -0.322 -16.704 -0.322 -16.762 -0.329 -16.766 -0.331 -16.767 -0.332 -16.770 -0.336 -16.771 -0.384 5.983 0.068 1.238 0.039 42.146 40.566
152.400 -11.385 -0.495 -11.808 -0.479 -12.922 -0.448 -14.703 -0.404 -14.716 -0.404 -15.799 -0.362 -16.063 -0.347 -16.106 -0.345 -16.113 -0.344 -16.143 -0.342 -16.349 -0.330 -16.440 -0.324 -16.623 -0.313 -16.627 -0.313 -16.637 -0.313 -16.664 -0.312 -16.700 -0.312 -16.763 -0.318 -16.767 -0.320 -16.768 -0.321 -16.772 -0.325 -16.775 -0.372 5.976 0.066 1.240 0.038 42.146 40.560
152.800 -11.368 -0.475 -11.793 -0.459 -12.913 -0.429 -14.702 -0.388 -14.715 -0.387 -15.796 -0.348 -16.058 -0.334 -16.101 -0.332 -16.108 -0.331 -16.138 -0.330 -16.343 -0.318 -16.434 -0.313 -16.617 -0.303 -16.621 -0.302 -16.632 -0.302 -16.659 -0.301 -16.697 -0.302 -16.763 -0.307 -16.768 -0.309 -16.770 -0.310 -16.773 -0.314 -16.778 -0.359 5.969 0.065 1.242 0.038 42.145 40.554
153.200 -11.351 -0.454 -11.778 -0.438 -12.903 -0.410 -14.701 -0.371 -14.714 -0.371 -15.793 -0.333 -16.053 -0.320 -16.096 -0.318 -16.103 -0.318 -16.133 -0.316 -16.337 -0.306 -16.427 -0.301 -16.611 -0.291 -16.615 -0.291 -16.626 -0.291 -16.654 -0.290 -16.693 -0.291 -16.764 -0.296 -16.769 -0.298 -16.771 -0.298 -16.775 -0.302 -16.782 -0.346 5.961 0.063 1.245 0.037 42.144 40.548
153.600 -11.335 -0.434 -11.763 -0.418 -12.893 -0.391 -14.700 -0.354 -14.713 -0.353 -15.789 -0.318 -16.048 -0.306 -16.091 -0.304 -16.097 -0.304 -16.127 -0.302 -16.330 -0.293 -16.420 -0.288 -16.605 -0.279 -16.609 -0.279 -16.620 -0.279 -16.649 -0.278 -16.689 -0.279 -16.765 -0.284 -16.770 -0.285 -16.772 -0.286 -16.777 -0.290 -16.786 -0.332 5.954 0.062 1.247 0.037 42.143 40.541
154.000 -11.318 -0.413 -11.747 -0.397 -12.883 -0.371 -14.698 -0.336 -14.711 -0.336 -15.785 -0.303 -16.042 -0.291 -16.085 -0.289 -16.092 -0.289 -16.121 -0.288 -16.323 -0.279 -16.413 -0.275 -16.599 -0.267 -16.603 -0.267 -16.614 -0.266 -16.644 -0.266 -16.686 -0.267 -16.765 -0.271 -16.771 -0.273 -16.773 -0.273 -16.779 -0.277 -16.790 -0.318 5.946 0.061 1.249 0.036 42.143 40.534
154.400 -11.300 -0.392 -11.732 -0.376 -12.873 -0.351 -14.696 -0.318 -14.709 -0.318 -15.781 -0.287 -16.036 -0.276 -16.078 -0.274 -16.085 -0.274 -16.114 -0.273 -16.316 -0.265 -16.406 -0.262 -16.592 -0.254 -16.597 -0.254 -16.608 -0.253 -16.639 -0.253 -16.682 -0.254 -16.765 -0.258 -16.772 -0.259 -16.774 -0.260 -16.780 -0.264 -16.793 -0.304 5.937 0.060 1.251 0.036 42.142 40.527
154.800 -11.283 -0.371 -11.716 -0.355 -12.862 -0.331 -14.693 -0.300 -14.706 -0.300 -15.776 -0.271 -16.030 -0.260 -16.072 -0.258 -16.078 -0.258 -16.107 -0.257 -16.308 -0.250 -16.398 -0.248 -16.586 -0.240 -16.590 -0.240 -16.602 -0.240 -16.633 -0.240 -16.678 -0.241 -16.766 -0.244 -16.773 -0.246 -16.775 -0.246 -16.782 -0.250 -16.797 -0.290 5.929 0.059 1.254 0.035 42.141 40.520
155.200 -11.266 -0.350 -11.700 -0.334 -12.851 -0.310 -14.690 -0.282 -14.703 -0.281 -15.771 -0.254 -16.023 -0.244 -16.064 -0.242 -16.071 -0.242 -16.100 -0.241 -16.301 -0.235 -16.391 -0.233 -16.579 -0.226 -16.584 -0.226 -16.595 -0.226 -16.628 -0.226 -16.674 -0.227 -16.766 -0.230 -16.773 -0.231 -16.776 -0.232 -16.783 -0.236 -16.800 -0.275 5.920 0.057 1.256 0.035 42.140 40.513
155.600 -11.248 -0.330 -11.684 -0.313 -12.840 -0.290 -14.687 -0.263 -14.699 -0.263 -15.765 -0.237 -16.015 -0.227 -16.057 -0.226 -16.063 -0.226 -16.092 -0.225 -16.293 -0.220 -16.383 -0.218 -16.573 -0.212 -16.577 -0.212 -16.589 -0.211 -16.622 -0.211 -16.670 -0.213 -16.766 -0.216 -16.774 -0.216 -16.777 -0.217 -16.785 -0.221 -16.804 -0.260 5.910 0.056 1.259 0.034 42.139 40.505
156.000 -11.231 -0.309 -11.667 -0.292 -12.828 -0.270 -14.682 -0.244 -14.695 -0.244 -15.758 -0.219 -16.007 -0.210 -16.049 -0.209 -16.055 -0.209 -16.084 -0.208 -16.285 -0.204 -16.375 -0.203 -16.566 -0.197 -16.570 -0.197 -16.582 -0.196 -16.617 -0.196 -16.666 -0.198 -16.766 -0.200 -16.774 -0.201 -16.778 -0.202 -16.786 -0.206 -16.807 -0.246 5.900 0.055 1.261 0.034 42.138 40.497
156.400 -11.213 -0.289 -11.651 -0.271 -12.816 -0.249 -14.678 -0.225 -14.690 -0.225 -15.751 -0.202 -15.999 -0.193 -16.040 -0.191 -16.047 -0.191 -16.075 -0.190 -16.276 -0.188 -16.367 -0.187 -16.559 -0.181 -16.563 -0.181 -16.576 -0.181 -16.611 -0.181 -16.661 -0.183 -16.766 -0.185 -16.775 -0.186 -16.778 -0.186 -16.787 -0.190 -16.811 -0.231 5.890 0.054 1.264 0.033 42.137 40.488
156.800 -11.196 -0.269 -11.634 -0.251 -12.804 -0.229 -14.672 -0.206 -14.685 -0.205 -15.743 -0.184 -15.990 -0.175 -16.031 -0.173 -16.038 -0.173 -16.066 -0.173 -16.267 -0.171 -16.358 -0.171 -16.552 -0.166 -16.556 -0.165 -16.569 -0.165 -16.605 -0.165 -16.657 -0.168 -16.766 -0.169 -16.775 -0.170 -16.779 -0.170 -16.788 -0.174 -16.814 -0.216 5.879 0.053 1.267 0.033 42.136 40.478
157.200 -11.178 -0.250 -11.618 -0.231 -12.791 -0.209 -14.665 -0.187 -14.678 -0.186 -15.735 -0.166 -15.981 -0.156 -16.021 -0.155 -16.028 -0.155 -16.057 -0.155 -16.258 -0.154 -16.350 -0.155 -16.544 -0.150 -16.549 -0.149 -16.562 -0.149 -16.599 -0.149 -16.653 -0.152 -16.766 -0.153 -16.775 -0.153 -16.779 -0.154 -16.789 -0.159 -16.817 -0.202 5.868 0.053 1.271 0.032 42.135 40.467
157.600 -11.161 -0.232 -11.601 -0.212 -12.778 -0.190 -14.658 -0.168 -14.671 -0.168 -15.726 -0.148 -15.971 -0.138 -16.012 -0.137 -16.018 -0.137 -16.047 -0.136 -16.249 -0.137 -16.341 -0.139 -16.537 -0.134 -16.542 -0.133 -16.555 -0.133 -16.593 -0.133 -16.649 -0.137 -16.765 -0.137 -16.776 -0.137 -16.779 -0.138 -16.790 -0.143 -16.820 -0.189 5.855 0.052 1.275 0.032 42.134 40.453
158.000 -11.144 -0.216 -11.585 -0.195 -12.764 -0.172 -14.650 -0.150 -14.663 -0.150 -15.717 -0.130 -15.960 -0.120 -16.001 -0.119 -16.008 -0.119 -16.036 -0.118 -16.240 -0.120 -16.332 -0.123 -16.530 -0.118 -16.535 -0.117 -16.548 -0.117 -16.587 -0.117 -16.644 -0.122 -16.765 -0.122 -16.776 -0.121 -16.780 -0.122 -16.791 -0.127 -16.823 -0.176 5.842 0.051 1.279 0.031 42.133 40.437
158.400 -11.126 -0.201 -11.568 -0.179 -12.751 -0.155 -14.641 -0.133 -14.654 -0.133 -15.706 -0.113 -15.950 -0.102 -15.990 -0.101 -15.997 -0.101 -16.026 -0.100 -16.230 -0.104 -16.323 -0.108 -16.523 -0.102 -16.528 -0.102 -16.542 -0.101 -16.581 -0.101 -16.640 -0.107 -16.764 -0.106 -16.775 -0.106 -16.780 -0.106 -16.791 -0.112 -16.826 -0.165 5.828 0.050 1.283 0.031 42.132 40.417
158.800 -11.110 -0.189 -11.552 -0.165 -12.736 -0.141 -14.630 -0.118 -14.643 -0.118 -15.696 -0.098 -15.938 -0.085 -15.979 -0.084 -15.986 -0.084 -16.015 -0.084 -16.220 -0.089 -16.314 -0.094 -16.515 -0.088 -16.520 -0.087 -16.535 -0.086 -16.575 -0.087 -16.635 -0.094 -16.763 -0.093 -16.775 -0.091 -16.779 -0.092 -16.791 -0.099 -16.829 -0.156 5.814 0.049 1.288 0.030 42.131 40.393
159.200 -11.093 -0.180 -11.535 -0.155 -12.722 -0.130 -14.619 -0.106 -14.632 -0.105 -15.684 -0.085 -15.927 -0.070 -15.968 -0.069 -15.974 -0.069 -16.003 -0.069 -16.210 -0.077 -16.305 -0.082 -16.508 -0.076 -16.513 -0.075 -16.528 -0.074 -16.569 -0.075 -16.631 -0.083 -16.762 -0.081 -16.775 -0.079 -16.779 -0.080 -16.792 -0.088 -16.832 -0.149 5.801 0.048 1.292 0.029 42.129 40.367
159.600 -11.076 -0.175 -11.519 -0.149 -12.707 -0.122 -14.606 -0.098 -14.619 -0.098 -15.672 -0.076 -15.915 -0.060 -15.956 -0.058 -15.963 -0.058 -15.991 -0.058 -16.200 -0.068 -16.295 -0.075 -16.501 -0.067 -16.506 -0.067 -16.521 -0.066 -16.563 -0.067 -16.626 -0.076 -16.761 -0.073 -16.774 -0.071 -16.779 -0.072 -16.792 -0.080 -16.835 -0.146 5.788 0.047 1.296 0.029 42.128 40.344
160.000 -11.060 -0.175 -11.503 -0.148 -12.691 -0.121 -14.592 -0.095 -14.605 -0.095 -15.659 -0.074 -15.903 -0.057 -15.944 -0.055 -15.951 -0.055 -15.980 -0.055 -16.189 -0.066 -16.285 -0.073 -16.494 -0.065 -16.499 -0.065 -16.514 -0.064 -16.557 -0.064 -16.621 -0.075 -16.760 -0.071 -16.773 -0.069 -16.778 -0.069 -16.792 -0.078 -16.837 -0.146 5.774 0.046 1.300 0.029 42.126 40.335
160.400 -11.045 -0.178 -11.487 -0.152 -12.675 -0.124 -14.576 -0.100 -14.589 -0.099 -15.645 -0.078 -15.890 -0.063 -15.932 -0.061 -15.938 -0.061 -15.967 -0.061 -16.178 -0.071 -16.275 -0.077 -16.487 -0.070 -16.493 -0.069 -16.508 -0.068 -16.551 -0.069 -16.616 -0.079 -16.759 -0.075 -16.772 -0.073 -16.777 -0.074 -16.792 -0.082 -16.840 -0.150 5.759 0.046 1.303 0.029 42.124 40.346
160.800 -11.029 -0.186 -11.472 -0.161 -12.659 -0.133 -14.559 -0.109 -14.572 -0.109 -15.631 -0.089 -15.877 -0.076 -15.919 -0.075 -15.926 -0.074 -15.955 -0.074 -16.167 -0.082 -16.265 -0.087 -16.480 -0.081 -16.486 -0.080 -16.501 -0.079 -16.545 -0.080 -16.611 -0.088 -16.757 -0.085 -16.771 -0.084 -16.776 -0.084 -16.791 -0.092 -16.842 -0.157 5.745 0.047 1.306 0.030 42.122 40.371
