"Time (MJD)" B-4345.28 B-4345.28_err U-3520.88 U-3520.88_err UVM2-2245.03 UVM2-2245.03_err UVW1-2681.67 UVW1-2681.67_err V-5411.45 V-5411.45_err cyan-5182.42 cyan-5182.42_err g-4746.48 g-4746.48_err g-4793.46 g-4793.46_err i-7589.41 i-7589.41_err orange-6629.82 orange-6629.82_err r-6120.65 r-6120.65_err r-6366.38 r-6366.38_err z-8970.57 z-8970.57_err "Temp./1e3 (K)" "Temp. Err." "Radius/1e15 (cm)" "Radius Err." "Log10(Bol. Lum)" "Log10(Bol. Err)"
-49.000 -18.368 -0.238 -18.823 -0.185 -19.518 -0.172 -19.826 -0.126 -19.833 -0.102 -19.831 -0.101 -19.805 -0.102 -19.793 -0.108 -19.794 -0.094 -19.788 -0.084 -19.747 -0.098 -19.376 -0.166 -18.984 -0.203 12.496 0.491 1.553 0.096 43.622 42.336
-48.600 -18.381 -0.236 -18.839 -0.184 -19.541 -0.171 -19.855 -0.125 -19.864 -0.100 -19.861 -0.099 -19.835 -0.100 -19.822 -0.106 -19.824 -0.093 -19.818 -0.082 -19.776 -0.096 -19.402 -0.164 -19.007 -0.202 12.459 0.498 1.581 0.100 43.633 42.353
-48.200 -18.394 -0.235 -18.856 -0.183 -19.565 -0.170 -19.884 -0.123 -19.894 -0.098 -19.891 -0.097 -19.865 -0.099 -19.852 -0.105 -19.854 -0.091 -19.849 -0.080 -19.806 -0.094 -19.427 -0.163 -19.029 -0.200 12.422 0.505 1.609 0.103 43.643 42.369
-47.800 -18.407 -0.233 -18.872 -0.182 -19.588 -0.169 -19.913 -0.122 -19.924 -0.097 -19.921 -0.096 -19.895 -0.097 -19.882 -0.104 -19.884 -0.090 -19.879 -0.078 -19.836 -0.092 -19.453 -0.162 -19.052 -0.199 12.387 0.511 1.638 0.107 43.653 42.386
-47.400 -18.420 -0.232 -18.888 -0.182 -19.611 -0.169 -19.941 -0.121 -19.954 -0.095 -19.952 -0.094 -19.925 -0.096 -19.912 -0.102 -19.914 -0.089 -19.909 -0.077 -19.865 -0.091 -19.478 -0.161 -19.074 -0.199 12.352 0.517 1.667 0.110 43.663 42.402
-47.000 -18.433 -0.231 -18.905 -0.181 -19.634 -0.169 -19.970 -0.120 -19.984 -0.094 -19.982 -0.093 -19.955 -0.095 -19.941 -0.101 -19.944 -0.088 -19.939 -0.076 -19.894 -0.089 -19.504 -0.161 -19.097 -0.198 12.317 0.524 1.696 0.114 43.674 42.417
-46.600 -18.446 -0.230 -18.921 -0.181 -19.657 -0.169 -19.999 -0.119 -20.014 -0.093 -20.012 -0.092 -19.985 -0.094 -19.971 -0.100 -19.973 -0.088 -19.969 -0.075 -19.923 -0.088 -19.529 -0.160 -19.119 -0.198 12.283 0.530 1.725 0.118 43.684 42.433
-46.200 -18.458 -0.230 -18.937 -0.181 -19.679 -0.169 -20.027 -0.118 -20.044 -0.092 -20.042 -0.091 -20.015 -0.093 -20.001 -0.100 -20.003 -0.087 -19.999 -0.074 -19.952 -0.087 -19.554 -0.160 -19.141 -0.198 12.251 0.535 1.755 0.122 43.694 42.448
-45.800 -18.471 -0.229 -18.952 -0.181 -19.702 -0.169 -20.055 -0.118 -20.074 -0.092 -20.072 -0.090 -20.045 -0.092 -20.030 -0.099 -20.032 -0.087 -20.028 -0.074 -19.981 -0.087 -19.579 -0.160 -19.164 -0.198 12.219 0.541 1.785 0.126 43.704 42.463
-45.400 -18.483 -0.229 -18.968 -0.182 -19.725 -0.169 -20.084 -0.117 -20.104 -0.091 -20.102 -0.090 -20.074 -0.091 -20.059 -0.098 -20.061 -0.087 -20.057 -0.074 -20.009 -0.086 -19.605 -0.160 -19.186 -0.198 12.187 0.547 1.815 0.130 43.714 42.478
-45.000 -18.495 -0.229 -18.984 -0.182 -19.747 -0.169 -20.112 -0.117 -20.133 -0.090 -20.132 -0.089 -20.104 -0.090 -20.089 -0.098 -20.090 -0.087 -20.086 -0.074 -20.037 -0.086 -19.630 -0.160 -19.209 -0.198 12.157 0.552 1.845 0.134 43.724 42.492
-44.600 -18.508 -0.229 -18.999 -0.183 -19.769 -0.170 -20.140 -0.117 -20.163 -0.090 -20.162 -0.088 -20.134 -0.090 -20.118 -0.097 -20.119 -0.087 -20.114 -0.074 -20.065 -0.086 -19.654 -0.160 -19.231 -0.199 12.127 0.558 1.875 0.138 43.734 42.507
-44.200 -18.520 -0.229 -19.015 -0.184 -19.791 -0.171 -20.168 -0.116 -20.193 -0.089 -20.191 -0.088 -20.163 -0.089 -20.147 -0.097 -20.147 -0.088 -20.142 -0.075 -20.092 -0.086 -19.679 -0.161 -19.253 -0.200 12.098 0.563 1.905 0.142 43.744 42.521
-43.800 -18.531 -0.229 -19.030 -0.185 -19.813 -0.171 -20.196 -0.116 -20.223 -0.089 -20.221 -0.087 -20.192 -0.089 -20.176 -0.097 -20.175 -0.088 -20.170 -0.076 -20.120 -0.086 -19.704 -0.161 -19.275 -0.201 12.070 0.568 1.936 0.147 43.754 42.535
-43.400 -18.543 -0.230 -19.045 -0.186 -19.835 -0.172 -20.224 -0.116 -20.252 -0.088 -20.251 -0.087 -20.222 -0.088 -20.205 -0.096 -20.203 -0.089 -20.197 -0.076 -20.146 -0.087 -19.728 -0.162 -19.297 -0.202 12.043 0.573 1.967 0.151 43.763 42.548
-43.000 -18.555 -0.230 -19.060 -0.187 -19.857 -0.173 -20.252 -0.116 -20.282 -0.088 -20.280 -0.087 -20.251 -0.088 -20.233 -0.096 -20.231 -0.090 -20.224 -0.077 -20.173 -0.087 -19.753 -0.162 -19.319 -0.203 12.016 0.578 1.998 0.156 43.773 42.562
-42.600 -18.566 -0.231 -19.075 -0.188 -19.878 -0.174 -20.280 -0.116 -20.311 -0.088 -20.309 -0.086 -20.280 -0.087 -20.262 -0.096 -20.258 -0.091 -20.251 -0.078 -20.199 -0.087 -19.777 -0.163 -19.342 -0.205 11.989 0.583 2.030 0.160 43.783 42.575
-42.200 -18.578 -0.231 -19.089 -0.190 -19.900 -0.175 -20.307 -0.116 -20.340 -0.087 -20.339 -0.086 -20.308 -0.087 -20.290 -0.096 -20.285 -0.092 -20.277 -0.079 -20.225 -0.088 -19.801 -0.163 -19.364 -0.206 11.963 0.588 2.061 0.165 43.792 42.588
-41.800 -18.589 -0.232 -19.104 -0.191 -19.921 -0.176 -20.335 -0.116 -20.369 -0.087 -20.368 -0.085 -20.337 -0.086 -20.318 -0.096 -20.312 -0.092 -20.303 -0.080 -20.250 -0.089 -19.826 -0.164 -19.385 -0.208 11.937 0.593 2.093 0.170 43.802 42.601
-41.400 -18.600 -0.233 -19.118 -0.193 -19.942 -0.177 -20.362 -0.116 -20.398 -0.087 -20.397 -0.085 -20.365 -0.086 -20.346 -0.095 -20.339 -0.093 -20.329 -0.082 -20.275 -0.089 -19.849 -0.165 -19.407 -0.209 11.911 0.597 2.126 0.174 43.812 42.614
-41.000 -18.611 -0.234 -19.133 -0.194 -19.963 -0.178 -20.389 -0.116 -20.427 -0.086 -20.426 -0.085 -20.394 -0.086 -20.374 -0.095 -20.365 -0.094 -20.354 -0.083 -20.300 -0.090 -19.873 -0.166 -19.429 -0.211 11.886 0.602 2.158 0.179 43.821 42.627
-40.600 -18.622 -0.235 -19.147 -0.196 -19.984 -0.179 -20.416 -0.116 -20.455 -0.086 -20.454 -0.084 -20.422 -0.085 -20.401 -0.095 -20.391 -0.095 -20.379 -0.084 -20.324 -0.091 -19.897 -0.167 -19.451 -0.213 11.861 0.606 2.191 0.184 43.831 42.640
-40.200 -18.632 -0.236 -19.161 -0.198 -20.005 -0.181 -20.443 -0.116 -20.484 -0.085 -20.483 -0.083 -20.450 -0.085 -20.428 -0.095 -20.417 -0.096 -20.404 -0.085 -20.348 -0.091 -19.920 -0.167 -19.473 -0.215 11.837 0.611 2.224 0.189 43.840 42.652
-39.800 -18.643 -0.237 -19.175 -0.199 -20.025 -0.182 -20.469 -0.116 -20.512 -0.085 -20.511 -0.083 -20.477 -0.084 -20.456 -0.095 -20.442 -0.097 -20.428 -0.086 -20.372 -0.092 -19.944 -0.168 -19.494 -0.216 11.812 0.616 2.258 0.195 43.850 42.665
-39.400 -18.653 -0.239 -19.188 -0.201 -20.045 -0.183 -20.495 -0.116 -20.540 -0.084 -20.539 -0.082 -20.505 -0.083 -20.482 -0.094 -20.467 -0.098 -20.452 -0.087 -20.395 -0.093 -19.967 -0.169 -19.516 -0.218 11.788 0.620 2.292 0.200 43.859 42.677
-39.000 -18.663 -0.240 -19.202 -0.203 -20.065 -0.184 -20.522 -0.116 -20.568 -0.083 -20.567 -0.081 -20.532 -0.083 -20.509 -0.094 -20.492 -0.099 -20.476 -0.088 -20.418 -0.093 -19.990 -0.170 -19.538 -0.220 11.764 0.625 2.327 0.205 43.869 42.689
-38.600 -18.673 -0.241 -19.215 -0.205 -20.085 -0.186 -20.548 -0.116 -20.595 -0.082 -20.595 -0.081 -20.559 -0.082 -20.535 -0.094 -20.516 -0.100 -20.499 -0.090 -20.441 -0.094 -20.013 -0.171 -19.559 -0.222 11.741 0.629 2.361 0.211 43.878 42.701
-38.200 -18.683 -0.242 -19.229 -0.206 -20.105 -0.187 -20.573 -0.116 -20.623 -0.082 -20.622 -0.080 -20.586 -0.082 -20.562 -0.094 -20.540 -0.101 -20.522 -0.091 -20.463 -0.094 -20.036 -0.172 -19.580 -0.224 11.718 0.634 2.397 0.216 43.887 42.713
-37.800 -18.693 -0.244 -19.242 -0.208 -20.125 -0.188 -20.599 -0.115 -20.650 -0.081 -20.649 -0.079 -20.612 -0.081 -20.587 -0.093 -20.564 -0.102 -20.545 -0.091 -20.485 -0.095 -20.058 -0.172 -19.602 -0.226 11.695 0.638 2.432 0.222 43.897 42.724
-37.400 -18.703 -0.245 -19.255 -0.210 -20.144 -0.189 -20.624 -0.115 -20.677 -0.080 -20.676 -0.078 -20.639 -0.080 -20.613 -0.093 -20.587 -0.103 -20.567 -0.092 -20.507 -0.095 -20.081 -0.173 -19.623 -0.228 11.672 0.643 2.468 0.228 43.906 42.736
-37.000 -18.712 -0.246 -19.268 -0.212 -20.163 -0.191 -20.649 -0.115 -20.704 -0.079 -20.703 -0.077 -20.665 -0.079 -20.638 -0.093 -20.611 -0.103 -20.589 -0.093 -20.529 -0.096 -20.103 -0.174 -19.644 -0.230 11.650 0.647 2.504 0.234 43.916 42.747
-36.600 -18.722 -0.248 -19.280 -0.214 -20.182 -0.192 -20.674 -0.115 -20.730 -0.078 -20.729 -0.076 -20.690 -0.079 -20.663 -0.093 -20.634 -0.104 -20.611 -0.094 -20.550 -0.096 -20.125 -0.175 -19.665 -0.232 11.629 0.652 2.541 0.240 43.925 42.758
-36.200 -18.731 -0.249 -19.293 -0.215 -20.201 -0.193 -20.699 -0.115 -20.756 -0.077 -20.755 -0.075 -20.716 -0.078 -20.688 -0.092 -20.656 -0.105 -20.633 -0.095 -20.571 -0.097 -20.147 -0.175 -19.686 -0.234 11.607 0.656 2.578 0.246 43.934 42.769
-35.800 -18.740 -0.250 -19.305 -0.217 -20.220 -0.194 -20.723 -0.114 -20.782 -0.075 -20.781 -0.073 -20.741 -0.077 -20.712 -0.092 -20.678 -0.106 -20.654 -0.095 -20.591 -0.097 -20.169 -0.176 -19.707 -0.236 11.586 0.661 2.615 0.252 43.944 42.780
-35.400 -18.749 -0.252 -19.317 -0.219 -20.238 -0.195 -20.747 -0.114 -20.808 -0.074 -20.807 -0.072 -20.765 -0.076 -20.737 -0.092 -20.700 -0.106 -20.675 -0.096 -20.611 -0.097 -20.190 -0.177 -19.728 -0.238 11.566 0.666 2.652 0.258 43.953 42.791
-35.000 -18.758 -0.253 -19.329 -0.220 -20.257 -0.197 -20.771 -0.114 -20.833 -0.073 -20.832 -0.071 -20.790 -0.075 -20.760 -0.091 -20.722 -0.107 -20.696 -0.096 -20.631 -0.097 -20.212 -0.177 -19.749 -0.240 11.546 0.670 2.690 0.264 43.962 42.802
-34.600 -18.767 -0.254 -19.341 -0.222 -20.275 -0.198 -20.794 -0.113 -20.858 -0.071 -20.857 -0.069 -20.814 -0.074 -20.784 -0.091 -20.744 -0.107 -20.716 -0.097 -20.651 -0.098 -20.233 -0.178 -19.770 -0.242 11.526 0.675 2.728 0.271 43.971 42.812
-34.200 -18.775 -0.256 -19.352 -0.224 -20.293 -0.199 -20.818 -0.113 -20.883 -0.070 -20.882 -0.068 -20.838 -0.073 -20.807 -0.091 -20.765 -0.107 -20.736 -0.097 -20.671 -0.098 -20.254 -0.178 -19.790 -0.244 11.507 0.679 2.766 0.277 43.981 42.823
-33.800 -18.783 -0.257 -19.364 -0.225 -20.310 -0.200 -20.841 -0.113 -20.907 -0.068 -20.906 -0.066 -20.861 -0.073 -20.830 -0.090 -20.786 -0.108 -20.756 -0.097 -20.690 -0.098 -20.275 -0.179 -19.811 -0.246 11.489 0.684 2.805 0.284 43.990 42.833
-33.400 -18.792 -0.258 -19.375 -0.227 -20.328 -0.201 -20.863 -0.112 -20.931 -0.067 -20.930 -0.065 -20.884 -0.072 -20.852 -0.090 -20.806 -0.108 -20.775 -0.098 -20.709 -0.098 -20.295 -0.179 -19.831 -0.248 11.471 0.689 2.843 0.291 43.999 42.843
-33.000 -18.800 -0.259 -19.386 -0.228 -20.345 -0.202 -20.886 -0.112 -20.955 -0.065 -20.954 -0.063 -20.907 -0.071 -20.875 -0.090 -20.826 -0.108 -20.795 -0.098 -20.727 -0.097 -20.316 -0.180 -19.852 -0.249 11.454 0.694 2.882 0.297 44.008 42.853
-32.600 -18.808 -0.260 -19.397 -0.229 -20.362 -0.203 -20.908 -0.112 -20.978 -0.063 -20.977 -0.062 -20.929 -0.070 -20.896 -0.089 -20.846 -0.109 -20.814 -0.098 -20.746 -0.097 -20.336 -0.180 -19.872 -0.251 11.437 0.698 2.921 0.304 44.017 42.862
-32.200 -18.815 -0.262 -19.408 -0.231 -20.378 -0.203 -20.929 -0.111 -21.001 -0.062 -21.000 -0.060 -20.951 -0.070 -20.918 -0.089 -20.866 -0.109 -20.832 -0.098 -20.764 -0.097 -20.356 -0.180 -19.892 -0.253 11.421 0.703 2.960 0.311 44.026 42.872
-31.800 -18.823 -0.263 -19.418 -0.232 -20.395 -0.204 -20.951 -0.111 -21.023 -0.060 -21.023 -0.058 -20.973 -0.069 -20.939 -0.089 -20.885 -0.109 -20.851 -0.098 -20.782 -0.097 -20.376 -0.180 -19.912 -0.254 11.405 0.708 2.999 0.318 44.035 42.881
-31.400 -18.830 -0.264 -19.429 -0.233 -20.411 -0.205 -20.972 -0.110 -21.045 -0.058 -21.045 -0.057 -20.994 -0.068 -20.960 -0.089 -20.904 -0.109 -20.869 -0.098 -20.800 -0.097 -20.396 -0.181 -19.932 -0.256 11.391 0.713 3.038 0.325 44.044 42.890
-31.000 -18.837 -0.265 -19.439 -0.234 -20.427 -0.206 -20.992 -0.110 -21.067 -0.057 -21.066 -0.055 -21.015 -0.068 -20.980 -0.089 -20.923 -0.109 -20.887 -0.098 -20.817 -0.096 -20.415 -0.181 -19.952 -0.257 11.376 0.717 3.077 0.333 44.053 42.899
-30.600 -18.845 -0.266 -19.449 -0.236 -20.443 -0.206 -21.013 -0.109 -21.089 -0.055 -21.088 -0.053 -21.035 -0.068 -21.000 -0.088 -20.942 -0.109 -20.905 -0.097 -20.834 -0.096 -20.434 -0.181 -19.972 -0.259 11.362 0.722 3.116 0.340 44.062 42.907
-30.200 -18.851 -0.266 -19.459 -0.237 -20.459 -0.207 -21.033 -0.109 -21.110 -0.053 -21.109 -0.052 -21.056 -0.067 -21.020 -0.088 -20.960 -0.108 -20.922 -0.097 -20.851 -0.095 -20.453 -0.181 -19.991 -0.260 11.349 0.726 3.155 0.347 44.071 42.915
-29.800 -18.858 -0.267 -19.469 -0.238 -20.474 -0.208 -21.052 -0.108 -21.130 -0.052 -21.129 -0.050 -21.075 -0.067 -21.040 -0.088 -20.978 -0.108 -20.939 -0.097 -20.868 -0.095 -20.472 -0.181 -20.011 -0.262 11.336 0.731 3.194 0.354 44.079 42.923
-29.400 -18.865 -0.268 -19.478 -0.239 -20.489 -0.208 -21.072 -0.108 -21.150 -0.050 -21.149 -0.049 -21.095 -0.067 -21.059 -0.088 -20.996 -0.108 -20.956 -0.096 -20.885 -0.094 -20.491 -0.180 -20.030 -0.263 11.323 0.735 3.233 0.361 44.088 42.931
-29.000 -18.871 -0.269 -19.487 -0.239 -20.504 -0.209 -21.091 -0.108 -21.170 -0.049 -21.169 -0.047 -21.113 -0.067 -21.077 -0.088 -21.013 -0.108 -20.973 -0.096 -20.901 -0.094 -20.509 -0.180 -20.050 -0.264 11.311 0.739 3.271 0.368 44.096 42.939
-28.600 -18.877 -0.269 -19.497 -0.240 -20.519 -0.209 -21.109 -0.107 -21.189 -0.047 -21.188 -0.046 -21.132 -0.067 -21.095 -0.088 -21.030 -0.107 -20.990 -0.095 -20.917 -0.093 -20.528 -0.180 -20.069 -0.265 11.298 0.742 3.309 0.375 44.104 42.946
-28.200 -18.884 -0.270 -19.506 -0.241 -20.533 -0.210 -21.127 -0.107 -21.208 -0.046 -21.207 -0.045 -21.150 -0.067 -21.113 -0.088 -21.047 -0.107 -21.006 -0.095 -20.933 -0.093 -20.546 -0.179 -20.088 -0.266 11.285 0.745 3.347 0.382 44.112 42.953
-27.800 -18.890 -0.271 -19.514 -0.241 -20.547 -0.210 -21.145 -0.107 -21.226 -0.045 -21.225 -0.044 -21.168 -0.067 -21.131 -0.088 -21.064 -0.106 -21.022 -0.094 -20.949 -0.092 -20.564 -0.179 -20.107 -0.267 11.272 0.748 3.384 0.388 44.120 42.960
-27.400 -18.895 -0.271 -19.523 -0.242 -20.561 -0.210 -21.163 -0.106 -21.244 -0.044 -21.243 -0.043 -21.185 -0.067 -21.148 -0.089 -21.080 -0.106 -21.038 -0.093 -20.964 -0.091 -20.581 -0.179 -20.126 -0.268 11.259 0.750 3.420 0.394 44.127 42.966
-27.000 -18.901 -0.271 -19.531 -0.243 -20.575 -0.210 -21.180 -0.106 -21.261 -0.044 -21.260 -0.043 -21.202 -0.067 -21.165 -0.089 -21.096 -0.105 -21.054 -0.092 -20.980 -0.090 -20.599 -0.178 -20.144 -0.269 11.245 0.751 3.456 0.400 44.134 42.972
-26.600 -18.906 -0.272 -19.539 -0.243 -20.588 -0.211 -21.197 -0.106 -21.278 -0.043 -21.277 -0.042 -21.219 -0.068 -21.181 -0.089 -21.112 -0.105 -21.069 -0.092 -20.995 -0.090 -20.616 -0.177 -20.163 -0.270 11.229 0.751 3.491 0.405 44.140 42.979
-26.200 -18.912 -0.272 -19.547 -0.243 -20.602 -0.211 -21.213 -0.106 -21.294 -0.043 -21.293 -0.042 -21.235 -0.068 -21.197 -0.089 -21.128 -0.104 -21.084 -0.091 -21.010 -0.089 -20.633 -0.177 -20.181 -0.271 11.213 0.751 3.525 0.410 44.146 42.985
-25.800 -18.917 -0.272 -19.555 -0.244 -20.614 -0.211 -21.229 -0.105 -21.310 -0.043 -21.309 -0.042 -21.251 -0.069 -21.213 -0.089 -21.143 -0.103 -21.099 -0.090 -21.025 -0.088 -20.650 -0.176 -20.200 -0.271 11.196 0.750 3.558 0.414 44.152 42.990
-25.400 -18.922 -0.272 -19.563 -0.244 -20.627 -0.211 -21.245 -0.105 -21.325 -0.043 -21.324 -0.042 -21.266 -0.069 -21.228 -0.089 -21.158 -0.103 -21.114 -0.089 -21.039 -0.087 -20.667 -0.175 -20.218 -0.272 11.178 0.748 3.590 0.418 44.157 42.996
-25.000 -18.927 -0.272 -19.570 -0.244 -20.640 -0.211 -21.260 -0.105 -21.340 -0.043 -21.339 -0.043 -21.281 -0.070 -21.243 -0.090 -21.173 -0.102 -21.128 -0.088 -21.053 -0.087 -20.683 -0.174 -20.236 -0.273 11.160 0.746 3.622 0.421 44.161 43.001
-24.600 -18.931 -0.272 -19.577 -0.244 -20.652 -0.211 -21.275 -0.105 -21.354 -0.044 -21.353 -0.043 -21.296 -0.070 -21.258 -0.090 -21.188 -0.101 -21.143 -0.087 -21.067 -0.086 -20.699 -0.173 -20.254 -0.273 11.140 0.743 3.653 0.424 44.166 43.006
-24.200 -18.936 -0.272 -19.584 -0.244 -20.664 -0.210 -21.290 -0.105 -21.368 -0.044 -21.367 -0.044 -21.310 -0.071 -21.272 -0.090 -21.202 -0.100 -21.157 -0.086 -21.081 -0.085 -20.715 -0.172 -20.272 -0.274 11.121 0.740 3.683 0.427 44.170 43.011
-23.800 -18.940 -0.272 -19.591 -0.244 -20.675 -0.210 -21.304 -0.105 -21.382 -0.045 -21.381 -0.044 -21.324 -0.071 -21.286 -0.090 -21.216 -0.099 -21.171 -0.085 -21.095 -0.084 -20.731 -0.171 -20.289 -0.274 11.100 0.736 3.713 0.429 44.174 43.016
-23.400 -18.944 -0.272 -19.598 -0.244 -20.687 -0.210 -21.318 -0.105 -21.395 -0.045 -21.394 -0.045 -21.337 -0.071 -21.300 -0.090 -21.230 -0.098 -21.184 -0.084 -21.108 -0.083 -20.747 -0.170 -20.307 -0.274 11.079 0.732 3.742 0.431 44.177 43.020
-23.000 -18.948 -0.272 -19.604 -0.244 -20.698 -0.210 -21.331 -0.105 -21.408 -0.046 -21.407 -0.046 -21.350 -0.072 -21.313 -0.090 -21.244 -0.097 -21.198 -0.083 -21.122 -0.082 -20.762 -0.169 -20.324 -0.274 11.058 0.727 3.771 0.432 44.180 43.024
-22.600 -18.952 -0.271 -19.611 -0.243 -20.709 -0.209 -21.344 -0.105 -21.421 -0.047 -21.419 -0.046 -21.363 -0.072 -21.326 -0.090 -21.257 -0.096 -21.211 -0.082 -21.135 -0.081 -20.777 -0.168 -20.342 -0.274 11.037 0.722 3.799 0.434 44.184 43.028
-22.200 -18.955 -0.271 -19.617 -0.243 -20.720 -0.209 -21.357 -0.105 -21.433 -0.048 -21.431 -0.047 -21.375 -0.073 -21.338 -0.090 -21.270 -0.095 -21.224 -0.080 -21.148 -0.080 -20.792 -0.167 -20.359 -0.275 11.016 0.717 3.828 0.435 44.187 43.032
-21.800 -18.959 -0.271 -19.623 -0.242 -20.730 -0.208 -21.370 -0.105 -21.444 -0.048 -21.443 -0.048 -21.387 -0.073 -21.350 -0.090 -21.283 -0.094 -21.237 -0.079 -21.160 -0.080 -20.807 -0.165 -20.376 -0.275 10.994 0.712 3.856 0.436 44.190 43.035
-21.400 -18.962 -0.270 -19.628 -0.242 -20.740 -0.208 -21.382 -0.105 -21.456 -0.049 -21.454 -0.049 -21.399 -0.073 -21.362 -0.090 -21.296 -0.093 -21.250 -0.078 -21.173 -0.079 -20.821 -0.164 -20.393 -0.274 10.972 0.707 3.884 0.437 44.192 43.038
-21.000 -18.965 -0.269 -19.634 -0.241 -20.750 -0.207 -21.394 -0.105 -21.467 -0.050 -21.465 -0.050 -21.410 -0.074 -21.373 -0.090 -21.308 -0.092 -21.262 -0.077 -21.185 -0.078 -20.835 -0.162 -20.409 -0.274 10.951 0.702 3.911 0.437 44.195 43.040
-20.600 -18.968 -0.269 -19.639 -0.241 -20.760 -0.207 -21.406 -0.105 -21.478 -0.051 -21.476 -0.050 -21.421 -0.074 -21.384 -0.090 -21.320 -0.091 -21.274 -0.075 -21.197 -0.077 -20.849 -0.161 -20.426 -0.274 10.929 0.696 3.939 0.438 44.198 43.042
-20.200 -18.971 -0.268 -19.644 -0.240 -20.769 -0.206 -21.417 -0.105 -21.488 -0.052 -21.487 -0.051 -21.431 -0.074 -21.395 -0.090 -21.332 -0.090 -21.286 -0.074 -21.209 -0.076 -20.863 -0.159 -20.442 -0.274 10.908 0.691 3.966 0.438 44.200 43.044
-19.800 -18.973 -0.267 -19.649 -0.239 -20.778 -0.205 -21.428 -0.105 -21.499 -0.052 -21.497 -0.052 -21.441 -0.074 -21.405 -0.090 -21.343 -0.089 -21.298 -0.073 -21.220 -0.075 -20.877 -0.158 -20.459 -0.273 10.886 0.685 3.993 0.439 44.203 43.046
-19.400 -18.976 -0.266 -19.654 -0.238 -20.787 -0.205 -21.439 -0.104 -21.509 -0.053 -21.507 -0.052 -21.451 -0.074 -21.415 -0.090 -21.355 -0.088 -21.309 -0.071 -21.232 -0.074 -20.890 -0.156 -20.475 -0.273 10.865 0.680 4.020 0.439 44.205 43.048
-19.000 -18.978 -0.265 -19.658 -0.237 -20.796 -0.204 -21.449 -0.104 -21.518 -0.054 -21.517 -0.053 -21.461 -0.074 -21.425 -0.089 -21.366 -0.087 -21.321 -0.070 -21.243 -0.073 -20.904 -0.154 -20.491 -0.273 10.844 0.674 4.047 0.439 44.208 43.049
-18.600 -18.980 -0.264 -19.662 -0.236 -20.804 -0.203 -21.459 -0.104 -21.528 -0.054 -21.526 -0.054 -21.470 -0.074 -21.434 -0.089 -21.377 -0.085 -21.332 -0.068 -21.254 -0.072 -20.917 -0.152 -20.507 -0.272 10.823 0.669 4.074 0.439 44.210 43.050
-18.200 -18.982 -0.263 -19.667 -0.235 -20.812 -0.202 -21.469 -0.104 -21.537 -0.055 -21.535 -0.054 -21.478 -0.074 -21.443 -0.089 -21.387 -0.084 -21.343 -0.067 -21.265 -0.071 -20.929 -0.150 -20.522 -0.271 10.802 0.664 4.101 0.439 44.213 43.051
-17.800 -18.984 -0.262 -19.670 -0.234 -20.820 -0.201 -21.479 -0.104 -21.546 -0.055 -21.544 -0.055 -21.487 -0.073 -21.452 -0.088 -21.398 -0.083 -21.353 -0.066 -21.275 -0.070 -20.942 -0.149 -20.538 -0.271 10.782 0.659 4.127 0.439 44.215 43.052
-17.400 -18.985 -0.261 -19.674 -0.233 -20.827 -0.200 -21.488 -0.104 -21.555 -0.056 -21.553 -0.055 -21.495 -0.073 -21.460 -0.088 -21.408 -0.082 -21.364 -0.064 -21.285 -0.069 -20.954 -0.147 -20.553 -0.270 10.762 0.654 4.154 0.439 44.217 43.052
-17.000 -18.987 -0.260 -19.678 -0.232 -20.835 -0.199 -21.497 -0.104 -21.563 -0.056 -21.561 -0.055 -21.503 -0.073 -21.468 -0.087 -21.418 -0.081 -21.374 -0.063 -21.295 -0.069 -20.966 -0.145 -20.568 -0.269 10.743 0.649 4.180 0.439 44.220 43.053
-16.600 -18.988 -0.258 -19.681 -0.230 -20.842 -0.198 -21.506 -0.103 -21.572 -0.056 -21.569 -0.055 -21.510 -0.072 -21.476 -0.087 -21.427 -0.079 -21.384 -0.062 -21.305 -0.068 -20.978 -0.142 -20.583 -0.268 10.724 0.644 4.206 0.440 44.222 43.053
-16.200 -18.989 -0.257 -19.684 -0.229 -20.849 -0.196 -21.514 -0.103 -21.580 -0.056 -21.577 -0.056 -21.518 -0.072 -21.484 -0.086 -21.437 -0.078 -21.394 -0.060 -21.315 -0.067 -20.990 -0.140 -20.598 -0.267 10.705 0.640 4.232 0.440 44.224 43.054
-15.800 -18.990 -0.255 -19.687 -0.227 -20.855 -0.195 -21.522 -0.103 -21.587 -0.056 -21.585 -0.056 -21.524 -0.071 -21.491 -0.086 -21.446 -0.077 -21.403 -0.059 -21.324 -0.066 -21.001 -0.138 -20.613 -0.266 10.687 0.635 4.257 0.440 44.227 43.054
-15.400 -18.991 -0.254 -19.690 -0.226 -20.861 -0.194 -21.530 -0.103 -21.595 -0.056 -21.592 -0.056 -21.531 -0.071 -21.498 -0.085 -21.454 -0.076 -21.412 -0.058 -21.333 -0.065 -21.012 -0.136 -20.627 -0.265 10.669 0.631 4.283 0.440 44.229 43.054
-15.000 -18.991 -0.252 -19.692 -0.224 -20.868 -0.193 -21.538 -0.102 -21.602 -0.056 -21.599 -0.055 -21.537 -0.070 -21.504 -0.084 -21.463 -0.075 -21.421 -0.057 -21.342 -0.064 -21.023 -0.134 -20.642 -0.264 10.652 0.627 4.308 0.441 44.231 43.054
-14.600 -18.992 -0.250 -19.695 -0.222 -20.873 -0.191 -21.545 -0.102 -21.609 -0.056 -21.606 -0.055 -21.543 -0.069 -21.510 -0.083 -21.471 -0.073 -21.430 -0.056 -21.351 -0.064 -21.034 -0.131 -20.656 -0.263 10.635 0.623 4.333 0.441 44.233 43.054
-14.200 -18.992 -0.249 -19.697 -0.221 -20.879 -0.190 -21.552 -0.101 -21.616 -0.056 -21.613 -0.055 -21.549 -0.068 -21.516 -0.083 -21.479 -0.072 -21.439 -0.055 -21.359 -0.063 -21.044 -0.129 -20.670 -0.261 10.619 0.620 4.357 0.442 44.236 43.054
-13.800 -18.992 -0.247 -19.699 -0.219 -20.884 -0.188 -21.559 -0.101 -21.622 -0.056 -21.619 -0.054 -21.554 -0.068 -21.522 -0.082 -21.487 -0.071 -21.447 -0.054 -21.367 -0.062 -21.055 -0.127 -20.684 -0.260 10.603 0.616 4.381 0.442 44.238 43.054
-13.400 -18.992 -0.245 -19.701 -0.217 -20.889 -0.187 -21.566 -0.100 -21.628 -0.055 -21.625 -0.054 -21.560 -0.067 -21.527 -0.081 -21.495 -0.070 -21.455 -0.053 -21.375 -0.062 -21.065 -0.124 -20.698 -0.259 10.588 0.613 4.405 0.443 44.240 43.054
-13.000 -18.992 -0.243 -19.702 -0.215 -20.894 -0.185 -21.572 -0.100 -21.634 -0.055 -21.631 -0.053 -21.565 -0.066 -21.532 -0.080 -21.502 -0.069 -21.463 -0.052 -21.383 -0.061 -21.074 -0.122 -20.711 -0.257 10.573 0.610 4.429 0.444 44.242 43.054
-12.600 -18.991 -0.241 -19.704 -0.213 -20.899 -0.184 -21.579 -0.099 -21.640 -0.054 -21.637 -0.053 -21.569 -0.065 -21.537 -0.080 -21.509 -0.067 -21.470 -0.051 -21.390 -0.060 -21.084 -0.120 -20.725 -0.256 10.559 0.607 4.451 0.445 44.244 43.054
-12.200 -18.991 -0.239 -19.705 -0.211 -20.903 -0.182 -21.585 -0.099 -21.646 -0.053 -21.642 -0.052 -21.574 -0.064 -21.542 -0.079 -21.516 -0.066 -21.477 -0.050 -21.397 -0.060 -21.093 -0.117 -20.738 -0.254 10.546 0.605 4.474 0.446 44.247 43.054
-11.800 -18.990 -0.237 -19.706 -0.209 -20.907 -0.180 -21.590 -0.098 -21.651 -0.052 -21.647 -0.051 -21.578 -0.063 -21.546 -0.078 -21.522 -0.065 -21.484 -0.049 -21.404 -0.059 -21.102 -0.115 -20.751 -0.252 10.533 0.603 4.496 0.447 44.249 43.054
-11.400 -18.989 -0.235 -19.707 -0.207 -20.911 -0.178 -21.596 -0.097 -21.656 -0.052 -21.652 -0.050 -21.582 -0.062 -21.550 -0.077 -21.528 -0.064 -21.491 -0.048 -21.411 -0.059 -21.111 -0.112 -20.764 -0.251 10.521 0.601 4.517 0.449 44.251 43.054
-11.000 -18.988 -0.233 -19.708 -0.205 -20.914 -0.177 -21.601 -0.097 -21.661 -0.051 -21.657 -0.050 -21.585 -0.061 -21.554 -0.076 -21.534 -0.063 -21.498 -0.047 -21.417 -0.058 -21.120 -0.110 -20.776 -0.249 10.509 0.599 4.538 0.450 44.253 43.054
-10.600 -18.987 -0.231 -19.708 -0.203 -20.918 -0.175 -21.606 -0.096 -21.666 -0.050 -21.662 -0.049 -21.589 -0.060 -21.558 -0.076 -21.540 -0.062 -21.504 -0.046 -21.423 -0.058 -21.128 -0.107 -20.789 -0.247 10.498 0.597 4.558 0.451 44.255 43.054
-10.200 -18.985 -0.228 -19.708 -0.200 -20.921 -0.173 -21.611 -0.095 -21.670 -0.049 -21.666 -0.048 -21.592 -0.059 -21.561 -0.075 -21.545 -0.061 -21.510 -0.045 -21.429 -0.057 -21.137 -0.105 -20.801 -0.245 10.488 0.596 4.578 0.453 44.257 43.054
-9.800 -18.984 -0.226 -19.709 -0.198 -20.924 -0.171 -21.615 -0.095 -21.675 -0.048 -21.670 -0.047 -21.595 -0.059 -21.565 -0.074 -21.551 -0.059 -21.515 -0.044 -21.434 -0.057 -21.144 -0.102 -20.813 -0.243 10.477 0.594 4.597 0.455 44.259 43.054
-9.400 -18.982 -0.224 -19.709 -0.196 -20.926 -0.169 -21.619 -0.094 -21.679 -0.047 -21.674 -0.046 -21.598 -0.058 -21.568 -0.074 -21.555 -0.058 -21.521 -0.043 -21.440 -0.057 -21.152 -0.100 -20.825 -0.241 10.467 0.593 4.615 0.456 44.261 43.055
-9.000 -18.980 -0.221 -19.708 -0.193 -20.929 -0.167 -21.623 -0.093 -21.682 -0.046 -21.678 -0.045 -21.601 -0.057 -21.570 -0.073 -21.560 -0.057 -21.526 -0.043 -21.445 -0.056 -21.160 -0.097 -20.837 -0.239 10.458 0.592 4.633 0.458 44.262 43.055
-8.600 -18.978 -0.219 -19.708 -0.191 -20.931 -0.165 -21.627 -0.092 -21.686 -0.045 -21.681 -0.044 -21.603 -0.056 -21.573 -0.073 -21.564 -0.056 -21.530 -0.042 -21.450 -0.056 -21.167 -0.095 -20.849 -0.237 10.448 0.592 4.651 0.460 44.264 43.055
-8.200 -18.976 -0.217 -19.707 -0.189 -20.933 -0.163 -21.631 -0.091 -21.689 -0.044 -21.684 -0.043 -21.605 -0.056 -21.576 -0.072 -21.568 -0.055 -21.535 -0.041 -21.454 -0.056 -21.174 -0.093 -20.860 -0.235 10.439 0.591 4.668 0.462 44.266 43.056
-7.800 -18.974 -0.214 -19.707 -0.186 -20.934 -0.161 -21.634 -0.091 -21.693 -0.043 -21.687 -0.042 -21.607 -0.055 -21.578 -0.072 -21.572 -0.054 -21.539 -0.041 -21.458 -0.056 -21.181 -0.090 -20.871 -0.233 10.430 0.590 4.685 0.464 44.267 43.056
-7.400 -18.971 -0.212 -19.706 -0.184 -20.936 -0.159 -21.637 -0.090 -21.695 -0.042 -21.690 -0.041 -21.609 -0.055 -21.580 -0.071 -21.576 -0.053 -21.543 -0.040 -21.462 -0.056 -21.187 -0.088 -20.882 -0.230 10.420 0.589 4.701 0.467 44.269 43.057
-7.000 -18.969 -0.209 -19.705 -0.181 -20.937 -0.157 -21.640 -0.089 -21.698 -0.041 -21.693 -0.040 -21.611 -0.055 -21.582 -0.071 -21.579 -0.052 -21.547 -0.040 -21.466 -0.055 -21.194 -0.086 -20.893 -0.228 10.410 0.589 4.718 0.469 44.270 43.057
-6.600 -18.966 -0.206 -19.703 -0.178 -20.938 -0.155 -21.643 -0.088 -21.701 -0.040 -21.695 -0.039 -21.612 -0.055 -21.583 -0.071 -21.582 -0.052 -21.550 -0.040 -21.469 -0.055 -21.200 -0.084 -20.904 -0.226 10.399 0.588 4.734 0.471 44.271 43.057
-6.200 -18.963 -0.204 -19.702 -0.176 -20.939 -0.153 -21.645 -0.087 -21.703 -0.039 -21.697 -0.038 -21.614 -0.055 -21.585 -0.071 -21.585 -0.051 -21.553 -0.039 -21.472 -0.055 -21.206 -0.082 -20.915 -0.223 10.388 0.587 4.750 0.474 44.272 43.058
-5.800 -18.960 -0.201 -19.700 -0.173 -20.939 -0.151 -21.647 -0.086 -21.705 -0.038 -21.699 -0.037 -21.615 -0.055 -21.586 -0.070 -21.587 -0.050 -21.556 -0.039 -21.475 -0.055 -21.211 -0.080 -20.925 -0.221 10.377 0.586 4.766 0.476 44.273 43.058
-5.400 -18.957 -0.199 -19.698 -0.171 -20.939 -0.149 -21.649 -0.085 -21.707 -0.037 -21.701 -0.037 -21.616 -0.055 -21.588 -0.070 -21.590 -0.049 -21.558 -0.039 -21.478 -0.055 -21.217 -0.078 -20.935 -0.218 10.364 0.585 4.783 0.479 44.274 43.058
-5.000 -18.953 -0.196 -19.696 -0.168 -20.939 -0.146 -21.651 -0.085 -21.708 -0.037 -21.703 -0.036 -21.617 -0.055 -21.589 -0.070 -21.592 -0.049 -21.560 -0.039 -21.480 -0.055 -21.222 -0.077 -20.945 -0.216 10.350 0.584 4.800 0.481 44.275 43.059
-4.600 -18.950 -0.193 -19.694 -0.165 -20.939 -0.144 -21.653 -0.084 -21.710 -0.036 -21.704 -0.035 -21.618 -0.055 -21.590 -0.070 -21.594 -0.048 -21.562 -0.039 -21.482 -0.055 -21.227 -0.075 -20.955 -0.213 10.335 0.582 4.817 0.484 44.276 43.059
-4.200 -18.946 -0.191 -19.692 -0.163 -20.939 -0.142 -21.654 -0.083 -21.711 -0.035 -21.705 -0.035 -21.619 -0.055 -21.590 -0.070 -21.595 -0.048 -21.564 -0.039 -21.484 -0.056 -21.231 -0.074 -20.965 -0.210 10.318 0.581 4.835 0.486 44.276 43.058
-3.800 -18.942 -0.188 -19.690 -0.160 -20.938 -0.140 -21.655 -0.082 -21.712 -0.035 -21.706 -0.035 -21.620 -0.056 -21.591 -0.071 -21.597 -0.048 -21.566 -0.039 -21.486 -0.056 -21.236 -0.072 -20.974 -0.208 10.300 0.578 4.854 0.489 44.276 43.058
-3.400 -18.939 -0.185 -19.687 -0.157 -20.937 -0.138 -21.656 -0.081 -21.713 -0.034 -21.707 -0.034 -21.620 -0.056 -21.591 -0.071 -21.598 -0.048 -21.567 -0.040 -21.487 -0.056 -21.240 -0.071 -20.983 -0.205 10.280 0.576 4.874 0.491 44.277 43.058
-3.000 -18.934 -0.182 -19.684 -0.155 -20.936 -0.136 -21.657 -0.081 -21.714 -0.034 -21.708 -0.034 -21.620 -0.057 -21.592 -0.071 -21.599 -0.048 -21.568 -0.040 -21.488 -0.056 -21.244 -0.071 -20.992 -0.202 10.258 0.572 4.895 0.493 44.277 43.057
-2.600 -18.930 -0.180 -19.681 -0.152 -20.935 -0.133 -21.657 -0.080 -21.715 -0.034 -21.709 -0.034 -21.621 -0.057 -21.592 -0.071 -21.600 -0.048 -21.569 -0.040 -21.489 -0.056 -21.248 -0.070 -21.001 -0.199 10.234 0.569 4.916 0.496 44.276 43.056
-2.200 -18.926 -0.177 -19.678 -0.150 -20.933 -0.131 -21.658 -0.079 -21.715 -0.034 -21.709 -0.034 -21.621 -0.057 -21.592 -0.071 -21.601 -0.048 -21.570 -0.041 -21.490 -0.057 -21.251 -0.069 -21.010 -0.196 10.208 0.564 4.938 0.497 44.276 43.054
-1.800 -18.921 -0.174 -19.675 -0.147 -20.931 -0.129 -21.658 -0.078 -21.715 -0.034 -21.709 -0.034 -21.621 -0.058 -21.592 -0.071 -21.601 -0.048 -21.570 -0.041 -21.490 -0.057 -21.255 -0.069 -21.018 -0.194 10.182 0.559 4.960 0.499 44.275 43.053
-1.400 -18.917 -0.172 -19.672 -0.144 -20.929 -0.127 -21.658 -0.077 -21.715 -0.034 -21.709 -0.034 -21.620 -0.058 -21.592 -0.072 -21.602 -0.049 -21.570 -0.042 -21.491 -0.057 -21.258 -0.069 -21.027 -0.191 10.154 0.554 4.983 0.500 44.274 43.051
-1.000 -18.912 -0.169 -19.668 -0.142 -20.927 -0.125 -21.657 -0.077 -21.715 -0.034 -21.709 -0.034 -21.620 -0.059 -21.591 -0.072 -21.602 -0.049 -21.570 -0.042 -21.491 -0.057 -21.261 -0.068 -21.035 -0.188 10.124 0.548 5.007 0.501 44.273 43.050
-0.600 -18.907 -0.167 -19.665 -0.139 -20.924 -0.123 -21.657 -0.076 -21.715 -0.034 -21.708 -0.034 -21.619 -0.059 -21.591 -0.072 -21.602 -0.049 -21.570 -0.043 -21.491 -0.058 -21.263 -0.068 -21.043 -0.185 10.093 0.542 5.030 0.502 44.272 43.048
-0.200 -18.902 -0.164 -19.661 -0.137 -20.922 -0.121 -21.656 -0.075 -21.714 -0.034 -21.708 -0.035 -21.619 -0.060 -21.590 -0.072 -21.602 -0.050 -21.570 -0.043 -21.491 -0.058 -21.266 -0.068 -21.050 -0.182 10.063 0.536 5.054 0.503 44.271 43.046
0.200 -18.897 -0.162 -19.657 -0.135 -20.919 -0.119 -21.655 -0.075 -21.713 -0.034 -21.707 -0.035 -21.618 -0.060 -21.589 -0.073 -21.602 -0.050 -21.570 -0.044 -21.491 -0.058 -21.268 -0.068 -21.058 -0.179 10.032 0.530 5.077 0.503 44.270 43.044
0.600 -18.892 -0.159 -19.653 -0.132 -20.916 -0.117 -21.654 -0.074 -21.712 -0.035 -21.706 -0.035 -21.617 -0.060 -21.588 -0.073 -21.602 -0.051 -21.569 -0.045 -21.490 -0.058 -21.270 -0.069 -21.065 -0.176 10.001 0.523 5.101 0.503 44.268 43.041
1.000 -18.886 -0.157 -19.649 -0.130 -20.912 -0.115 -21.653 -0.073 -21.711 -0.035 -21.705 -0.036 -21.615 -0.061 -21.587 -0.073 -21.601 -0.051 -21.569 -0.045 -21.490 -0.059 -21.272 -0.069 -21.073 -0.173 9.971 0.516 5.123 0.503 44.267 43.039
1.400 -18.881 -0.155 -19.644 -0.128 -20.909 -0.113 -21.652 -0.073 -21.710 -0.035 -21.703 -0.036 -21.614 -0.061 -21.586 -0.073 -21.600 -0.051 -21.568 -0.046 -21.490 -0.059 -21.273 -0.069 -21.080 -0.170 9.942 0.510 5.145 0.502 44.265 43.037
1.800 -18.875 -0.152 -19.640 -0.125 -20.905 -0.112 -21.650 -0.072 -21.708 -0.036 -21.702 -0.036 -21.612 -0.061 -21.584 -0.073 -21.600 -0.052 -21.568 -0.046 -21.489 -0.059 -21.275 -0.069 -21.086 -0.167 9.913 0.503 5.166 0.502 44.264 43.034
2.200 -18.869 -0.150 -19.635 -0.123 -20.901 -0.110 -21.648 -0.072 -21.706 -0.036 -21.700 -0.037 -21.610 -0.061 -21.583 -0.073 -21.599 -0.052 -21.567 -0.046 -21.488 -0.059 -21.276 -0.069 -21.093 -0.164 9.885 0.496 5.186 0.501 44.262 43.032
2.600 -18.863 -0.148 -19.631 -0.121 -20.897 -0.108 -21.646 -0.071 -21.704 -0.036 -21.698 -0.037 -21.608 -0.062 -21.581 -0.073 -21.598 -0.052 -21.566 -0.047 -21.488 -0.060 -21.277 -0.069 -21.099 -0.161 9.858 0.490 5.205 0.500 44.261 43.029
3.000 -18.857 -0.146 -19.626 -0.119 -20.893 -0.107 -21.644 -0.071 -21.702 -0.037 -21.696 -0.037 -21.606 -0.062 -21.579 -0.073 -21.597 -0.052 -21.565 -0.047 -21.487 -0.060 -21.278 -0.069 -21.106 -0.158 9.832 0.484 5.224 0.499 44.259 43.026
3.400 -18.851 -0.144 -19.621 -0.118 -20.888 -0.106 -21.642 -0.070 -21.700 -0.037 -21.693 -0.037 -21.604 -0.062 -21.577 -0.073 -21.596 -0.053 -21.564 -0.047 -21.486 -0.060 -21.279 -0.070 -21.112 -0.155 9.807 0.478 5.241 0.498 44.258 43.024
3.800 -18.845 -0.142 -19.615 -0.116 -20.883 -0.104 -21.639 -0.070 -21.697 -0.037 -21.690 -0.038 -21.601 -0.062 -21.575 -0.073 -21.595 -0.053 -21.563 -0.048 -21.486 -0.060 -21.279 -0.070 -21.118 -0.152 9.784 0.472 5.257 0.496 44.256 43.021
4.200 -18.838 -0.140 -19.610 -0.114 -20.878 -0.103 -21.637 -0.069 -21.694 -0.037 -21.687 -0.038 -21.599 -0.061 -21.572 -0.073 -21.593 -0.053 -21.562 -0.048 -21.485 -0.060 -21.280 -0.070 -21.123 -0.148 9.762 0.467 5.272 0.495 44.255 43.018
4.600 -18.832 -0.139 -19.605 -0.113 -20.873 -0.102 -21.634 -0.069 -21.691 -0.037 -21.684 -0.038 -21.596 -0.061 -21.570 -0.073 -21.592 -0.053 -21.561 -0.048 -21.484 -0.061 -21.280 -0.070 -21.129 -0.145 9.741 0.462 5.287 0.494 44.254 43.015
5.000 -18.825 -0.137 -19.599 -0.111 -20.868 -0.101 -21.631 -0.069 -21.688 -0.037 -21.681 -0.038 -21.593 -0.061 -21.567 -0.072 -21.590 -0.052 -21.560 -0.048 -21.483 -0.061 -21.280 -0.070 -21.134 -0.143 9.722 0.457 5.300 0.493 44.252 43.012
5.400 -18.818 -0.136 -19.594 -0.110 -20.862 -0.100 -21.628 -0.068 -21.684 -0.037 -21.678 -0.038 -21.589 -0.061 -21.564 -0.072 -21.589 -0.052 -21.558 -0.048 -21.482 -0.061 -21.280 -0.070 -21.139 -0.140 9.704 0.453 5.312 0.491 44.251 43.009
5.800 -18.811 -0.134 -19.588 -0.109 -20.856 -0.099 -21.625 -0.068 -21.681 -0.037 -21.674 -0.037 -21.586 -0.060 -21.561 -0.072 -21.587 -0.052 -21.557 -0.047 -21.481 -0.061 -21.280 -0.069 -21.144 -0.137 9.687 0.449 5.323 0.490 44.250 43.006
6.200 -18.804 -0.133 -19.582 -0.108 -20.850 -0.099 -21.621 -0.068 -21.677 -0.037 -21.670 -0.037 -21.582 -0.060 -21.558 -0.072 -21.586 -0.052 -21.556 -0.047 -21.480 -0.061 -21.279 -0.069 -21.149 -0.134 9.672 0.446 5.333 0.490 44.249 43.004
6.600 -18.797 -0.132 -19.576 -0.107 -20.844 -0.098 -21.618 -0.068 -21.673 -0.037 -21.667 -0.037 -21.579 -0.060 -21.555 -0.071 -21.584 -0.051 -21.555 -0.047 -21.479 -0.061 -21.279 -0.069 -21.153 -0.131 9.658 0.443 5.342 0.489 44.248 43.001
7.000 -18.790 -0.131 -19.569 -0.106 -20.838 -0.097 -21.614 -0.067 -21.669 -0.036 -21.663 -0.036 -21.575 -0.059 -21.552 -0.071 -21.582 -0.051 -21.553 -0.047 -21.478 -0.061 -21.278 -0.069 -21.158 -0.128 9.645 0.440 5.350 0.488 44.247 42.998
7.400 -18.782 -0.130 -19.563 -0.106 -20.832 -0.097 -21.610 -0.067 -21.665 -0.036 -21.658 -0.036 -21.571 -0.059 -21.548 -0.071 -21.580 -0.050 -21.552 -0.046 -21.476 -0.061 -21.277 -0.069 -21.162 -0.126 9.633 0.438 5.357 0.487 44.246 42.995
7.800 -18.775 -0.129 -19.557 -0.105 -20.825 -0.097 -21.606 -0.067 -21.661 -0.035 -21.654 -0.036 -21.566 -0.058 -21.544 -0.070 -21.578 -0.050 -21.550 -0.046 -21.475 -0.061 -21.276 -0.069 -21.166 -0.123 9.622 0.436 5.363 0.487 44.245 42.991
8.200 -18.767 -0.129 -19.550 -0.105 -20.819 -0.097 -21.602 -0.067 -21.657 -0.035 -21.650 -0.035 -21.562 -0.057 -21.541 -0.070 -21.576 -0.049 -21.549 -0.046 -21.474 -0.060 -21.275 -0.068 -21.169 -0.121 9.613 0.435 5.368 0.486 44.244 42.988
8.600 -18.759 -0.128 -19.543 -0.105 -20.812 -0.096 -21.598 -0.067 -21.652 -0.035 -21.645 -0.035 -21.558 -0.057 -21.537 -0.069 -21.574 -0.049 -21.547 -0.045 -21.473 -0.060 -21.274 -0.068 -21.173 -0.118 9.604 0.434 5.372 0.486 44.243 42.985
9.000 -18.751 -0.128 -19.536 -0.104 -20.805 -0.096 -21.594 -0.067 -21.648 -0.034 -21.641 -0.034 -21.553 -0.056 -21.533 -0.069 -21.572 -0.048 -21.546 -0.045 -21.471 -0.060 -21.272 -0.068 -21.176 -0.116 9.596 0.433 5.376 0.485 44.242 42.982
9.400 -18.743 -0.128 -19.529 -0.104 -20.798 -0.097 -21.589 -0.066 -21.643 -0.034 -21.636 -0.034 -21.548 -0.056 -21.529 -0.069 -21.570 -0.047 -21.544 -0.044 -21.470 -0.060 -21.271 -0.068 -21.180 -0.114 9.589 0.432 5.378 0.484 44.241 42.978
9.800 -18.735 -0.128 -19.521 -0.105 -20.790 -0.097 -21.584 -0.066 -21.638 -0.033 -21.632 -0.033 -21.544 -0.055 -21.525 -0.068 -21.568 -0.047 -21.543 -0.044 -21.468 -0.060 -21.269 -0.068 -21.183 -0.112 9.582 0.431 5.380 0.484 44.240 42.974
10.200 -18.727 -0.128 -19.514 -0.105 -20.783 -0.097 -21.580 -0.066 -21.634 -0.033 -21.627 -0.033 -21.539 -0.054 -21.520 -0.068 -21.565 -0.046 -21.541 -0.043 -21.466 -0.060 -21.267 -0.067 -21.185 -0.110 9.576 0.431 5.381 0.483 44.239 42.971
10.600 -18.718 -0.128 -19.506 -0.105 -20.776 -0.097 -21.575 -0.066 -21.629 -0.033 -21.622 -0.032 -21.534 -0.054 -21.516 -0.068 -21.563 -0.046 -21.539 -0.043 -21.465 -0.060 -21.265 -0.067 -21.188 -0.108 9.570 0.430 5.381 0.482 44.238 42.967
11.000 -18.710 -0.128 -19.498 -0.106 -20.768 -0.098 -21.569 -0.066 -21.624 -0.032 -21.617 -0.032 -21.529 -0.053 -21.512 -0.067 -21.561 -0.045 -21.537 -0.042 -21.463 -0.059 -21.263 -0.067 -21.190 -0.106 9.564 0.429 5.381 0.482 44.237 42.962
11.400 -18.701 -0.129 -19.490 -0.107 -20.760 -0.098 -21.564 -0.067 -21.619 -0.032 -21.612 -0.032 -21.524 -0.053 -21.507 -0.067 -21.558 -0.045 -21.535 -0.042 -21.461 -0.059 -21.261 -0.067 -21.193 -0.105 9.558 0.429 5.381 0.480 44.236 42.958
11.800 -18.692 -0.129 -19.481 -0.107 -20.752 -0.099 -21.559 -0.067 -21.613 -0.032 -21.606 -0.031 -21.519 -0.052 -21.503 -0.067 -21.556 -0.044 -21.534 -0.041 -21.459 -0.059 -21.259 -0.068 -21.195 -0.104 9.552 0.428 5.380 0.479 44.235 42.954
12.200 -18.683 -0.130 -19.473 -0.108 -20.745 -0.100 -21.553 -0.067 -21.608 -0.032 -21.601 -0.031 -21.514 -0.052 -21.498 -0.066 -21.554 -0.044 -21.532 -0.041 -21.457 -0.059 -21.256 -0.068 -21.197 -0.102 9.545 0.426 5.379 0.477 44.233 42.949
12.600 -18.674 -0.130 -19.464 -0.109 -20.737 -0.100 -21.547 -0.067 -21.602 -0.032 -21.595 -0.031 -21.508 -0.051 -21.493 -0.066 -21.551 -0.044 -21.530 -0.041 -21.455 -0.059 -21.254 -0.068 -21.198 -0.102 9.537 0.425 5.378 0.475 44.232 42.944
13.000 -18.665 -0.131 -19.455 -0.110 -20.729 -0.101 -21.541 -0.067 -21.596 -0.032 -21.590 -0.031 -21.503 -0.051 -21.489 -0.066 -21.548 -0.044 -21.528 -0.040 -21.453 -0.059 -21.251 -0.069 -21.200 -0.101 9.529 0.422 5.377 0.473 44.230 42.938
13.400 -18.656 -0.132 -19.446 -0.111 -20.720 -0.102 -21.535 -0.067 -21.591 -0.032 -21.584 -0.031 -21.498 -0.051 -21.484 -0.066 -21.546 -0.044 -21.525 -0.040 -21.451 -0.058 -21.249 -0.069 -21.201 -0.100 9.520 0.420 5.376 0.470 44.228 42.933
13.800 -18.646 -0.133 -19.437 -0.113 -20.712 -0.103 -21.529 -0.068 -21.585 -0.032 -21.578 -0.032 -21.493 -0.051 -21.479 -0.066 -21.543 -0.044 -21.523 -0.039 -21.449 -0.058 -21.246 -0.070 -21.202 -0.100 9.510 0.417 5.375 0.467 44.226 42.927
14.200 -18.637 -0.134 -19.428 -0.114 -20.704 -0.104 -21.522 -0.068 -21.578 -0.033 -21.572 -0.032 -21.487 -0.051 -21.474 -0.066 -21.541 -0.044 -21.521 -0.039 -21.446 -0.058 -21.243 -0.071 -21.203 -0.100 9.499 0.414 5.374 0.463 44.224 42.921
14.600 -18.627 -0.135 -19.418 -0.115 -20.696 -0.105 -21.516 -0.068 -21.572 -0.033 -21.565 -0.032 -21.482 -0.051 -21.469 -0.066 -21.538 -0.045 -21.519 -0.038 -21.444 -0.058 -21.240 -0.072 -21.204 -0.100 9.488 0.411 5.373 0.460 44.222 42.914
15.000 -18.618 -0.137 -19.409 -0.117 -20.687 -0.106 -21.509 -0.069 -21.565 -0.034 -21.559 -0.033 -21.476 -0.051 -21.464 -0.066 -21.535 -0.045 -21.516 -0.038 -21.441 -0.058 -21.237 -0.072 -21.205 -0.100 9.476 0.407 5.372 0.456 44.220 42.908
15.400 -18.608 -0.138 -19.399 -0.119 -20.679 -0.107 -21.501 -0.069 -21.559 -0.034 -21.552 -0.033 -21.471 -0.051 -21.459 -0.066 -21.532 -0.045 -21.514 -0.037 -21.438 -0.058 -21.234 -0.073 -21.205 -0.100 9.464 0.404 5.371 0.452 44.217 42.901
15.800 -18.598 -0.140 -19.389 -0.120 -20.670 -0.108 -21.494 -0.070 -21.552 -0.035 -21.545 -0.034 -21.465 -0.051 -21.454 -0.066 -21.529 -0.046 -21.511 -0.037 -21.435 -0.058 -21.231 -0.074 -21.206 -0.101 9.452 0.400 5.370 0.448 44.215 42.894
16.200 -18.588 -0.141 -19.380 -0.122 -20.662 -0.109 -21.486 -0.070 -21.545 -0.035 -21.539 -0.035 -21.460 -0.051 -21.449 -0.066 -21.526 -0.046 -21.508 -0.037 -21.432 -0.057 -21.228 -0.075 -21.206 -0.101 9.439 0.396 5.369 0.444 44.212 42.887
16.600 -18.578 -0.143 -19.370 -0.124 -20.654 -0.111 -21.479 -0.071 -21.538 -0.036 -21.532 -0.035 -21.454 -0.051 -21.444 -0.066 -21.523 -0.047 -21.505 -0.036 -21.429 -0.057 -21.224 -0.076 -21.206 -0.102 9.426 0.392 5.368 0.439 44.210 42.880
17.000 -18.568 -0.144 -19.360 -0.125 -20.645 -0.112 -21.471 -0.071 -21.530 -0.036 -21.524 -0.036 -21.448 -0.052 -21.439 -0.067 -21.519 -0.047 -21.502 -0.036 -21.426 -0.057 -21.221 -0.077 -21.206 -0.102 9.414 0.388 5.367 0.435 44.207 42.873
17.400 -18.557 -0.146 -19.350 -0.127 -20.636 -0.113 -21.462 -0.072 -21.523 -0.037 -21.517 -0.037 -21.442 -0.052 -21.433 -0.067 -21.516 -0.048 -21.499 -0.036 -21.423 -0.057 -21.218 -0.078 -21.206 -0.103 9.401 0.384 5.365 0.431 44.205 42.866
17.800 -18.547 -0.148 -19.340 -0.129 -20.628 -0.114 -21.454 -0.073 -21.515 -0.038 -21.509 -0.037 -21.436 -0.052 -21.428 -0.067 -21.512 -0.048 -21.496 -0.036 -21.420 -0.057 -21.214 -0.080 -21.206 -0.103 9.388 0.380 5.364 0.427 44.202 42.858
18.200 -18.536 -0.149 -19.330 -0.131 -20.619 -0.116 -21.445 -0.073 -21.507 -0.038 -21.502 -0.038 -21.430 -0.053 -21.422 -0.068 -21.509 -0.049 -21.492 -0.036 -21.416 -0.057 -21.211 -0.081 -21.205 -0.104 9.374 0.377 5.363 0.423 44.199 42.851
18.600 -18.526 -0.151 -19.319 -0.133 -20.610 -0.117 -21.437 -0.074 -21.499 -0.039 -21.494 -0.039 -21.424 -0.053 -21.417 -0.068 -21.505 -0.049 -21.489 -0.036 -21.412 -0.057 -21.207 -0.082 -21.205 -0.105 9.361 0.373 5.362 0.419 44.197 42.843
19.000 -18.515 -0.153 -19.309 -0.135 -20.602 -0.118 -21.428 -0.075 -21.491 -0.040 -21.486 -0.039 -21.417 -0.054 -21.411 -0.069 -21.501 -0.050 -21.485 -0.035 -21.409 -0.057 -21.204 -0.083 -21.204 -0.106 9.348 0.369 5.361 0.415 44.194 42.836
19.400 -18.504 -0.155 -19.298 -0.137 -20.593 -0.120 -21.419 -0.075 -21.483 -0.041 -21.478 -0.040 -21.411 -0.055 -21.406 -0.069 -21.497 -0.050 -21.481 -0.036 -21.405 -0.057 -21.200 -0.083 -21.204 -0.107 9.335 0.365 5.359 0.411 44.192 42.829
19.800 -18.493 -0.157 -19.288 -0.139 -20.584 -0.121 -21.409 -0.076 -21.474 -0.041 -21.469 -0.041 -21.404 -0.055 -21.400 -0.070 -21.493 -0.051 -21.477 -0.036 -21.401 -0.058 -21.197 -0.084 -21.203 -0.107 9.322 0.361 5.358 0.407 44.189 42.822
20.200 -18.482 -0.159 -19.277 -0.141 -20.575 -0.123 -21.400 -0.076 -21.466 -0.042 -21.461 -0.041 -21.398 -0.056 -21.394 -0.070 -21.489 -0.051 -21.473 -0.036 -21.397 -0.058 -21.193 -0.085 -21.202 -0.108 9.309 0.358 5.356 0.403 44.186 42.815
20.600 -18.471 -0.161 -19.266 -0.143 -20.566 -0.124 -21.390 -0.077 -21.457 -0.043 -21.452 -0.042 -21.391 -0.057 -21.388 -0.071 -21.485 -0.052 -21.468 -0.036 -21.393 -0.058 -21.190 -0.086 -21.202 -0.109 9.296 0.354 5.354 0.400 44.183 42.808
21.000 -18.460 -0.163 -19.256 -0.145 -20.557 -0.126 -21.381 -0.078 -21.448 -0.043 -21.443 -0.043 -21.384 -0.057 -21.382 -0.071 -21.480 -0.052 -21.464 -0.037 -21.388 -0.058 -21.186 -0.087 -21.201 -0.110 9.283 0.351 5.352 0.396 44.181 42.801
21.400 -18.448 -0.164 -19.245 -0.147 -20.548 -0.127 -21.371 -0.078 -21.438 -0.044 -21.434 -0.043 -21.377 -0.058 -21.377 -0.072 -21.476 -0.052 -21.459 -0.037 -21.384 -0.058 -21.183 -0.088 -21.200 -0.110 9.270 0.347 5.350 0.393 44.178 42.794
21.800 -18.437 -0.166 -19.234 -0.149 -20.539 -0.129 -21.361 -0.079 -21.429 -0.045 -21.425 -0.044 -21.370 -0.059 -21.371 -0.073 -21.471 -0.053 -21.454 -0.038 -21.380 -0.059 -21.179 -0.088 -21.199 -0.111 9.257 0.344 5.348 0.390 44.175 42.787
22.200 -18.425 -0.168 -19.223 -0.151 -20.530 -0.130 -21.351 -0.080 -21.419 -0.045 -21.415 -0.045 -21.363 -0.060 -21.364 -0.073 -21.466 -0.053 -21.449 -0.038 -21.375 -0.059 -21.176 -0.089 -21.198 -0.112 9.244 0.340 5.345 0.387 44.172 42.780
22.600 -18.413 -0.171 -19.212 -0.153 -20.521 -0.131 -21.341 -0.080 -21.409 -0.046 -21.406 -0.045 -21.356 -0.061 -21.358 -0.074 -21.461 -0.054 -21.444 -0.039 -21.371 -0.060 -21.173 -0.089 -21.197 -0.112 9.231 0.337 5.343 0.383 44.169 42.773
23.000 -18.401 -0.173 -19.200 -0.155 -20.512 -0.133 -21.331 -0.081 -21.400 -0.046 -21.396 -0.046 -21.349 -0.061 -21.352 -0.074 -21.457 -0.054 -21.439 -0.040 -21.366 -0.060 -21.169 -0.090 -21.196 -0.113 9.219 0.333 5.340 0.380 44.167 42.766
23.400 -18.389 -0.175 -19.189 -0.157 -20.502 -0.134 -21.320 -0.082 -21.390 -0.047 -21.386 -0.046 -21.341 -0.062 -21.346 -0.075 -21.452 -0.054 -21.433 -0.041 -21.361 -0.060 -21.166 -0.090 -21.195 -0.114 9.206 0.330 5.337 0.377 44.164 42.759
23.800 -18.377 -0.177 -19.178 -0.159 -20.493 -0.136 -21.310 -0.082 -21.379 -0.048 -21.376 -0.047 -21.334 -0.063 -21.340 -0.075 -21.447 -0.055 -21.428 -0.041 -21.357 -0.061 -21.162 -0.091 -21.194 -0.114 9.193 0.326 5.334 0.374 44.161 42.752
24.200 -18.365 -0.179 -19.166 -0.161 -20.484 -0.137 -21.299 -0.083 -21.369 -0.048 -21.366 -0.048 -21.326 -0.063 -21.334 -0.076 -21.441 -0.055 -21.422 -0.042 -21.352 -0.061 -21.159 -0.091 -21.193 -0.115 9.181 0.323 5.331 0.371 44.158 42.745
24.600 -18.352 -0.181 -19.155 -0.163 -20.475 -0.139 -21.289 -0.083 -21.359 -0.049 -21.356 -0.048 -21.319 -0.064 -21.327 -0.076 -21.436 -0.055 -21.417 -0.043 -21.347 -0.062 -21.156 -0.092 -21.191 -0.115 9.168 0.320 5.328 0.367 44.155 42.737
25.000 -18.340 -0.183 -19.143 -0.165 -20.465 -0.140 -21.278 -0.084 -21.348 -0.049 -21.346 -0.048 -21.311 -0.065 -21.321 -0.077 -21.431 -0.055 -21.411 -0.043 -21.343 -0.062 -21.153 -0.092 -21.190 -0.115 9.156 0.316 5.325 0.364 44.152 42.730
25.400 -18.327 -0.185 -19.131 -0.167 -20.456 -0.142 -21.267 -0.084 -21.338 -0.049 -21.336 -0.049 -21.303 -0.065 -21.315 -0.077 -21.426 -0.055 -21.406 -0.044 -21.338 -0.063 -21.150 -0.092 -21.189 -0.116 9.143 0.313 5.322 0.361 44.149 42.722
25.800 -18.314 -0.187 -19.119 -0.169 -20.446 -0.143 -21.257 -0.085 -21.327 -0.050 -21.325 -0.049 -21.295 -0.066 -21.308 -0.078 -21.421 -0.056 -21.400 -0.045 -21.333 -0.063 -21.146 -0.092 -21.188 -0.116 9.131 0.309 5.319 0.358 44.147 42.714
26.200 -18.301 -0.189 -19.107 -0.171 -20.437 -0.145 -21.246 -0.086 -21.316 -0.050 -21.315 -0.049 -21.288 -0.066 -21.302 -0.078 -21.415 -0.056 -21.395 -0.045 -21.328 -0.064 -21.143 -0.092 -21.187 -0.116 9.118 0.306 5.317 0.354 44.144 42.705
26.600 -18.288 -0.191 -19.095 -0.173 -20.427 -0.146 -21.235 -0.086 -21.306 -0.050 -21.304 -0.050 -21.280 -0.066 -21.295 -0.079 -21.410 -0.056 -21.389 -0.046 -21.324 -0.064 -21.141 -0.092 -21.186 -0.117 9.105 0.303 5.314 0.351 44.141 42.697
27.000 -18.275 -0.193 -19.083 -0.175 -20.418 -0.147 -21.224 -0.087 -21.295 -0.050 -21.294 -0.050 -21.272 -0.067 -21.289 -0.079 -21.405 -0.056 -21.384 -0.046 -21.319 -0.064 -21.138 -0.092 -21.185 -0.117 9.093 0.299 5.312 0.348 44.138 42.688
27.400 -18.262 -0.196 -19.071 -0.177 -20.409 -0.149 -21.213 -0.087 -21.284 -0.050 -21.283 -0.050 -21.264 -0.067 -21.283 -0.079 -21.400 -0.056 -21.378 -0.047 -21.314 -0.065 -21.135 -0.092 -21.184 -0.117 9.080 0.296 5.310 0.344 44.135 42.680
27.800 -18.248 -0.198 -19.059 -0.179 -20.399 -0.150 -21.202 -0.088 -21.273 -0.051 -21.272 -0.050 -21.256 -0.067 -21.276 -0.079 -21.394 -0.056 -21.373 -0.047 -21.310 -0.065 -21.132 -0.092 -21.183 -0.117 9.067 0.293 5.309 0.341 44.133 42.671
28.200 -18.234 -0.200 -19.046 -0.180 -20.390 -0.152 -21.191 -0.088 -21.262 -0.051 -21.262 -0.050 -21.249 -0.067 -21.270 -0.080 -21.389 -0.056 -21.368 -0.048 -21.305 -0.065 -21.130 -0.092 -21.182 -0.117 9.053 0.289 5.308 0.338 44.130 42.661
28.600 -18.220 -0.202 -19.034 -0.182 -20.380 -0.153 -21.180 -0.089 -21.252 -0.051 -21.251 -0.050 -21.241 -0.068 -21.264 -0.080 -21.384 -0.056 -21.362 -0.048 -21.301 -0.066 -21.127 -0.092 -21.181 -0.117 9.040 0.286 5.307 0.335 44.127 42.652
29.000 -18.206 -0.204 -19.021 -0.184 -20.370 -0.154 -21.169 -0.089 -21.241 -0.051 -21.241 -0.050 -21.233 -0.068 -21.258 -0.080 -21.379 -0.056 -21.357 -0.049 -21.296 -0.066 -21.125 -0.092 -21.181 -0.117 9.026 0.282 5.307 0.331 44.124 42.642
29.400 -18.192 -0.206 -19.008 -0.186 -20.361 -0.156 -21.158 -0.090 -21.230 -0.051 -21.230 -0.050 -21.225 -0.068 -21.252 -0.080 -21.374 -0.055 -21.352 -0.049 -21.292 -0.066 -21.123 -0.092 -21.180 -0.117 9.011 0.279 5.307 0.328 44.122 42.633
29.800 -18.178 -0.208 -18.996 -0.188 -20.351 -0.157 -21.147 -0.090 -21.219 -0.051 -21.220 -0.050 -21.218 -0.068 -21.246 -0.080 -21.369 -0.055 -21.347 -0.049 -21.287 -0.067 -21.121 -0.092 -21.179 -0.117 8.997 0.275 5.308 0.325 44.119 42.623
30.200 -18.164 -0.210 -18.983 -0.190 -20.342 -0.158 -21.136 -0.091 -21.209 -0.050 -21.209 -0.050 -21.210 -0.068 -21.240 -0.080 -21.364 -0.055 -21.342 -0.049 -21.283 -0.067 -21.119 -0.092 -21.179 -0.117 8.982 0.272 5.309 0.321 44.116 42.613
30.600 -18.149 -0.212 -18.970 -0.192 -20.332 -0.160 -21.126 -0.091 -21.198 -0.050 -21.199 -0.049 -21.203 -0.068 -21.234 -0.080 -21.359 -0.055 -21.337 -0.050 -21.279 -0.067 -21.117 -0.092 -21.178 -0.117 8.967 0.268 5.312 0.318 44.114 42.603
31.000 -18.134 -0.215 -18.957 -0.193 -20.322 -0.161 -21.115 -0.092 -21.188 -0.050 -21.189 -0.049 -21.195 -0.068 -21.228 -0.080 -21.354 -0.055 -21.332 -0.050 -21.275 -0.067 -21.115 -0.092 -21.178 -0.117 8.951 0.264 5.314 0.315 44.111 42.593
31.400 -18.120 -0.217 -18.944 -0.195 -20.313 -0.162 -21.104 -0.092 -21.177 -0.050 -21.178 -0.049 -21.188 -0.068 -21.222 -0.080 -21.349 -0.055 -21.328 -0.050 -21.271 -0.067 -21.114 -0.092 -21.177 -0.116 8.934 0.261 5.318 0.312 44.109 42.582
31.800 -18.105 -0.219 -18.930 -0.197 -20.303 -0.164 -21.094 -0.093 -21.167 -0.050 -21.168 -0.049 -21.181 -0.067 -21.217 -0.080 -21.344 -0.055 -21.323 -0.050 -21.267 -0.067 -21.112 -0.092 -21.177 -0.116 8.918 0.257 5.322 0.308 44.106 42.572
32.200 -18.090 -0.221 -18.917 -0.199 -20.293 -0.165 -21.084 -0.093 -21.157 -0.050 -21.159 -0.049 -21.174 -0.067 -21.211 -0.080 -21.339 -0.055 -21.318 -0.050 -21.264 -0.068 -21.111 -0.092 -21.177 -0.116 8.901 0.253 5.327 0.305 44.104 42.562
32.600 -18.074 -0.223 -18.904 -0.200 -20.284 -0.166 -21.073 -0.094 -21.147 -0.050 -21.149 -0.049 -21.167 -0.067 -21.206 -0.080 -21.334 -0.055 -21.314 -0.050 -21.260 -0.068 -21.110 -0.092 -21.177 -0.116 8.883 0.250 5.333 0.302 44.101 42.552
33.000 -18.059 -0.225 -18.890 -0.202 -20.274 -0.167 -21.063 -0.094 -21.138 -0.050 -21.139 -0.049 -21.160 -0.067 -21.201 -0.080 -21.330 -0.055 -21.310 -0.051 -21.257 -0.068 -21.109 -0.092 -21.176 -0.116 8.866 0.246 5.340 0.299 44.099 42.542
33.400 -18.044 -0.227 -18.876 -0.203 -20.264 -0.168 -21.053 -0.094 -21.128 -0.049 -21.130 -0.048 -21.154 -0.067 -21.196 -0.080 -21.325 -0.055 -21.305 -0.051 -21.253 -0.068 -21.108 -0.092 -21.176 -0.115 8.848 0.243 5.347 0.296 44.096 42.532
33.800 -18.028 -0.229 -18.863 -0.205 -20.255 -0.169 -21.044 -0.095 -21.119 -0.049 -21.121 -0.048 -21.148 -0.067 -21.191 -0.080 -21.321 -0.055 -21.301 -0.051 -21.250 -0.068 -21.107 -0.092 -21.176 -0.115 8.829 0.239 5.355 0.294 44.094 42.522
34.200 -18.012 -0.230 -18.849 -0.207 -20.245 -0.171 -21.034 -0.095 -21.110 -0.049 -21.112 -0.048 -21.142 -0.067 -21.186 -0.080 -21.317 -0.055 -21.297 -0.051 -21.247 -0.068 -21.106 -0.092 -21.176 -0.115 8.811 0.236 5.364 0.291 44.092 42.513
34.600 -17.997 -0.232 -18.835 -0.208 -20.235 -0.172 -21.025 -0.096 -21.101 -0.049 -21.104 -0.048 -21.136 -0.067 -21.182 -0.080 -21.312 -0.055 -21.294 -0.051 -21.244 -0.068 -21.106 -0.092 -21.176 -0.115 8.792 0.233 5.373 0.289 44.090 42.503
35.000 -17.981 -0.234 -18.821 -0.210 -20.225 -0.173 -21.015 -0.096 -21.093 -0.049 -21.095 -0.047 -21.130 -0.067 -21.177 -0.080 -21.309 -0.055 -21.290 -0.050 -21.242 -0.068 -21.105 -0.092 -21.176 -0.114 8.773 0.230 5.384 0.286 44.088 42.494
35.400 -17.965 -0.236 -18.807 -0.211 -20.216 -0.174 -21.006 -0.096 -21.084 -0.048 -21.087 -0.047 -21.125 -0.067 -21.173 -0.080 -21.305 -0.055 -21.287 -0.050 -21.239 -0.068 -21.105 -0.092 -21.176 -0.114 8.754 0.227 5.395 0.284 44.086 42.486
35.800 -17.949 -0.238 -18.793 -0.212 -20.206 -0.174 -20.997 -0.097 -21.077 -0.048 -21.080 -0.047 -21.120 -0.067 -21.169 -0.080 -21.301 -0.055 -21.283 -0.050 -21.237 -0.068 -21.104 -0.092 -21.177 -0.114 8.735 0.224 5.407 0.282 44.084 42.477
36.200 -17.933 -0.239 -18.779 -0.214 -20.196 -0.175 -20.989 -0.097 -21.069 -0.048 -21.072 -0.047 -21.115 -0.066 -21.165 -0.081 -21.298 -0.055 -21.280 -0.050 -21.235 -0.068 -21.104 -0.092 -21.177 -0.114 8.716 0.221 5.419 0.281 44.082 42.469
36.600 -17.916 -0.241 -18.765 -0.215 -20.186 -0.176 -20.980 -0.097 -21.062 -0.048 -21.065 -0.046 -21.110 -0.067 -21.162 -0.081 -21.294 -0.054 -21.277 -0.050 -21.233 -0.068 -21.104 -0.092 -21.177 -0.113 8.696 0.219 5.433 0.279 44.080 42.462
37.000 -17.900 -0.243 -18.750 -0.216 -20.176 -0.177 -20.972 -0.098 -21.055 -0.047 -21.058 -0.046 -21.106 -0.067 -21.158 -0.081 -21.291 -0.054 -21.274 -0.050 -21.231 -0.068 -21.104 -0.092 -21.177 -0.113 8.676 0.216 5.447 0.278 44.078 42.455
37.400 -17.883 -0.244 -18.736 -0.218 -20.166 -0.178 -20.964 -0.098 -21.048 -0.047 -21.052 -0.046 -21.102 -0.067 -21.155 -0.081 -21.288 -0.054 -21.272 -0.050 -21.229 -0.068 -21.104 -0.092 -21.177 -0.113 8.657 0.214 5.462 0.277 44.077 42.448
37.800 -17.867 -0.246 -18.721 -0.219 -20.157 -0.179 -20.956 -0.098 -21.042 -0.047 -21.046 -0.045 -21.098 -0.067 -21.152 -0.081 -21.286 -0.054 -21.269 -0.050 -21.227 -0.068 -21.105 -0.092 -21.177 -0.113 8.637 0.212 5.478 0.276 44.075 42.443
38.200 -17.850 -0.247 -18.707 -0.220 -20.147 -0.179 -20.948 -0.098 -21.036 -0.046 -21.040 -0.045 -21.094 -0.067 -21.149 -0.081 -21.283 -0.054 -21.267 -0.049 -21.226 -0.068 -21.105 -0.092 -21.177 -0.113 8.617 0.210 5.494 0.276 44.074 42.438
38.600 -17.833 -0.249 -18.692 -0.221 -20.137 -0.180 -20.941 -0.099 -21.030 -0.046 -21.035 -0.045 -21.091 -0.067 -21.147 -0.081 -21.281 -0.054 -21.265 -0.049 -21.225 -0.068 -21.105 -0.092 -21.177 -0.112 8.597 0.208 5.511 0.275 44.073 42.433
39.000 -17.816 -0.250 -18.677 -0.222 -20.127 -0.181 -20.933 -0.099 -21.025 -0.046 -21.030 -0.045 -21.088 -0.067 -21.144 -0.081 -21.279 -0.054 -21.264 -0.049 -21.224 -0.068 -21.106 -0.092 -21.176 -0.112 8.576 0.207 5.529 0.276 44.071 42.430
39.400 -17.800 -0.251 -18.662 -0.223 -20.117 -0.181 -20.926 -0.099 -21.020 -0.046 -21.025 -0.045 -21.085 -0.067 -21.142 -0.081 -21.277 -0.054 -21.262 -0.049 -21.223 -0.068 -21.106 -0.092 -21.176 -0.112 8.556 0.206 5.548 0.276 44.070 42.427
39.800 -17.782 -0.253 -18.647 -0.224 -20.107 -0.182 -20.919 -0.099 -21.016 -0.046 -21.021 -0.045 -21.082 -0.067 -21.140 -0.081 -21.275 -0.054 -21.261 -0.049 -21.222 -0.068 -21.107 -0.092 -21.176 -0.112 8.535 0.204 5.568 0.277 44.069 42.425
40.200 -17.765 -0.254 -18.632 -0.225 -20.097 -0.182 -20.913 -0.100 -21.012 -0.046 -21.017 -0.045 -21.080 -0.068 -21.138 -0.082 -21.274 -0.054 -21.259 -0.049 -21.221 -0.068 -21.108 -0.091 -21.176 -0.112 8.515 0.204 5.588 0.278 44.068 42.424
40.600 -17.748 -0.255 -18.617 -0.226 -20.087 -0.183 -20.906 -0.100 -21.008 -0.046 -21.014 -0.045 -21.078 -0.068 -21.137 -0.082 -21.272 -0.055 -21.259 -0.049 -21.221 -0.068 -21.108 -0.091 -21.175 -0.112 8.494 0.203 5.609 0.279 44.067 42.424
41.000 -17.731 -0.256 -18.602 -0.227 -20.077 -0.183 -20.900 -0.100 -21.005 -0.046 -21.011 -0.045 -21.076 -0.068 -21.135 -0.082 -21.271 -0.055 -21.258 -0.049 -21.220 -0.068 -21.109 -0.091 -21.175 -0.112 8.473 0.202 5.631 0.281 44.066 42.425
41.400 -17.713 -0.257 -18.587 -0.228 -20.067 -0.184 -20.893 -0.100 -21.002 -0.046 -21.008 -0.045 -21.074 -0.068 -21.134 -0.082 -21.270 -0.055 -21.257 -0.049 -21.220 -0.068 -21.110 -0.092 -21.174 -0.112 8.452 0.202 5.654 0.283 44.065 42.427
41.800 -17.696 -0.258 -18.571 -0.228 -20.057 -0.184 -20.887 -0.100 -20.999 -0.047 -21.006 -0.045 -21.073 -0.069 -21.133 -0.083 -21.270 -0.055 -21.257 -0.049 -21.220 -0.068 -21.111 -0.091 -21.174 -0.112 8.431 0.202 5.677 0.285 44.065 42.429
42.200 -17.678 -0.259 -18.556 -0.229 -20.047 -0.184 -20.881 -0.101 -20.996 -0.047 -21.004 -0.046 -21.072 -0.069 -21.132 -0.083 -21.269 -0.056 -21.257 -0.049 -21.220 -0.068 -21.112 -0.091 -21.173 -0.112 8.410 0.202 5.701 0.288 44.064 42.432
42.600 -17.661 -0.260 -18.540 -0.230 -20.037 -0.184 -20.876 -0.101 -20.994 -0.047 -21.002 -0.046 -21.071 -0.069 -21.131 -0.083 -21.269 -0.056 -21.257 -0.050 -21.220 -0.068 -21.113 -0.091 -21.173 -0.112 8.389 0.202 5.726 0.291 44.063 42.436
43.000 -17.643 -0.261 -18.525 -0.230 -20.027 -0.185 -20.870 -0.101 -20.992 -0.048 -21.000 -0.046 -21.070 -0.070 -21.130 -0.083 -21.269 -0.056 -21.257 -0.050 -21.221 -0.068 -21.114 -0.091 -21.172 -0.112 8.368 0.203 5.751 0.294 44.063 42.441
43.400 -17.625 -0.262 -18.509 -0.231 -20.016 -0.185 -20.864 -0.101 -20.990 -0.048 -20.998 -0.047 -21.070 -0.070 -21.130 -0.084 -21.269 -0.057 -21.257 -0.050 -21.221 -0.068 -21.115 -0.091 -21.171 -0.112 8.346 0.203 5.777 0.297 44.062 42.445
43.800 -17.607 -0.263 -18.494 -0.231 -20.006 -0.185 -20.859 -0.101 -20.989 -0.048 -20.997 -0.047 -21.069 -0.071 -21.129 -0.084 -21.269 -0.057 -21.258 -0.050 -21.222 -0.068 -21.116 -0.091 -21.170 -0.112 8.325 0.204 5.803 0.301 44.062 42.451
44.200 -17.589 -0.263 -18.478 -0.232 -19.996 -0.185 -20.854 -0.101 -20.987 -0.049 -20.996 -0.048 -21.069 -0.071 -21.129 -0.084 -21.269 -0.058 -21.258 -0.050 -21.222 -0.068 -21.118 -0.091 -21.169 -0.112 8.304 0.205 5.830 0.305 44.061 42.457
44.600 -17.571 -0.264 -18.462 -0.232 -19.986 -0.185 -20.848 -0.101 -20.986 -0.049 -20.995 -0.048 -21.069 -0.071 -21.129 -0.084 -21.269 -0.058 -21.259 -0.051 -21.223 -0.068 -21.119 -0.091 -21.168 -0.112 8.283 0.206 5.857 0.309 44.061 42.463
45.000 -17.553 -0.264 -18.446 -0.232 -19.975 -0.185 -20.843 -0.101 -20.985 -0.049 -20.994 -0.048 -21.068 -0.072 -21.129 -0.084 -21.270 -0.058 -21.260 -0.051 -21.224 -0.068 -21.120 -0.091 -21.167 -0.112 8.262 0.207 5.884 0.314 44.060 42.469
45.400 -17.535 -0.265 -18.430 -0.233 -19.965 -0.185 -20.838 -0.101 -20.984 -0.049 -20.993 -0.049 -21.068 -0.072 -21.128 -0.085 -21.271 -0.059 -21.261 -0.051 -21.224 -0.068 -21.121 -0.090 -21.165 -0.112 8.241 0.208 5.911 0.318 44.060 42.475
45.800 -17.517 -0.265 -18.414 -0.233 -19.955 -0.185 -20.833 -0.101 -20.982 -0.050 -20.992 -0.049 -21.068 -0.072 -21.128 -0.085 -21.271 -0.059 -21.262 -0.052 -21.225 -0.068 -21.122 -0.090 -21.164 -0.112 8.220 0.209 5.939 0.323 44.060 42.482
46.200 -17.499 -0.266 -18.398 -0.233 -19.944 -0.185 -20.828 -0.101 -20.981 -0.050 -20.992 -0.049 -21.068 -0.073 -21.128 -0.085 -21.272 -0.059 -21.263 -0.052 -21.226 -0.068 -21.123 -0.090 -21.162 -0.112 8.200 0.210 5.967 0.328 44.059 42.489
46.600 -17.481 -0.266 -18.382 -0.233 -19.934 -0.185 -20.823 -0.101 -20.980 -0.050 -20.991 -0.049 -21.068 -0.073 -21.128 -0.085 -21.273 -0.059 -21.264 -0.052 -21.227 -0.068 -21.124 -0.089 -21.161 -0.112 8.179 0.211 5.994 0.333 44.059 42.496
47.000 -17.462 -0.266 -18.366 -0.233 -19.923 -0.185 -20.817 -0.101 -20.979 -0.050 -20.990 -0.049 -21.068 -0.073 -21.128 -0.085 -21.273 -0.059 -21.265 -0.052 -21.227 -0.068 -21.125 -0.089 -21.159 -0.111 8.159 0.213 6.022 0.338 44.059 42.502
47.400 -17.444 -0.267 -18.349 -0.233 -19.913 -0.184 -20.812 -0.101 -20.978 -0.050 -20.989 -0.049 -21.068 -0.073 -21.128 -0.085 -21.274 -0.059 -21.266 -0.052 -21.228 -0.068 -21.126 -0.088 -21.158 -0.111 8.140 0.214 6.049 0.344 44.059 42.509
47.800 -17.425 -0.267 -18.333 -0.233 -19.902 -0.184 -20.807 -0.101 -20.977 -0.050 -20.988 -0.049 -21.068 -0.073 -21.128 -0.085 -21.275 -0.059 -21.267 -0.052 -21.229 -0.068 -21.127 -0.087 -21.156 -0.111 8.120 0.215 6.076 0.349 44.058 42.516
48.200 -17.407 -0.267 -18.317 -0.233 -19.891 -0.184 -20.802 -0.101 -20.976 -0.050 -20.987 -0.049 -21.067 -0.074 -21.127 -0.085 -21.276 -0.059 -21.268 -0.052 -21.230 -0.068 -21.127 -0.087 -21.154 -0.111 8.101 0.217 6.103 0.355 44.058 42.522
48.600 -17.388 -0.267 -18.300 -0.232 -19.881 -0.183 -20.797 -0.101 -20.974 -0.050 -20.986 -0.049 -21.067 -0.074 -21.127 -0.085 -21.276 -0.059 -21.269 -0.052 -21.230 -0.068 -21.128 -0.086 -21.152 -0.110 8.083 0.218 6.129 0.360 44.058 42.528
49.000 -17.370 -0.267 -18.284 -0.232 -19.870 -0.183 -20.791 -0.101 -20.973 -0.050 -20.985 -0.049 -21.067 -0.074 -21.127 -0.085 -21.277 -0.059 -21.270 -0.052 -21.231 -0.068 -21.129 -0.085 -21.150 -0.110 8.064 0.220 6.155 0.366 44.058 42.535
49.400 -17.351 -0.267 -18.267 -0.232 -19.859 -0.183 -20.786 -0.101 -20.971 -0.049 -20.983 -0.048 -21.066 -0.074 -21.126 -0.085 -21.277 -0.059 -21.271 -0.052 -21.231 -0.068 -21.129 -0.084 -21.148 -0.110 8.046 0.221 6.180 0.371 44.057 42.540
49.800 -17.332 -0.266 -18.250 -0.231 -19.848 -0.182 -20.780 -0.101 -20.969 -0.049 -20.982 -0.048 -21.065 -0.074 -21.126 -0.085 -21.278 -0.058 -21.272 -0.052 -21.232 -0.068 -21.130 -0.083 -21.145 -0.109 8.029 0.223 6.205 0.377 44.057 42.546
50.200 -17.313 -0.266 -18.234 -0.231 -19.837 -0.182 -20.775 -0.101 -20.967 -0.048 -20.980 -0.048 -21.064 -0.073 -21.125 -0.085 -21.278 -0.058 -21.272 -0.051 -21.232 -0.068 -21.130 -0.082 -21.143 -0.109 8.012 0.224 6.229 0.383 44.057 42.551
50.600 -17.295 -0.266 -18.217 -0.230 -19.827 -0.181 -20.769 -0.101 -20.964 -0.048 -20.978 -0.047 -21.063 -0.073 -21.124 -0.085 -21.279 -0.057 -21.273 -0.051 -21.232 -0.068 -21.130 -0.081 -21.140 -0.108 7.995 0.226 6.252 0.388 44.056 42.556
51.000 -17.276 -0.265 -18.200 -0.230 -19.815 -0.181 -20.763 -0.100 -20.962 -0.047 -20.975 -0.047 -21.062 -0.073 -21.123 -0.085 -21.279 -0.057 -21.273 -0.051 -21.232 -0.068 -21.130 -0.080 -21.138 -0.108 7.978 0.227 6.275 0.393 44.056 42.561
51.400 -17.257 -0.265 -18.183 -0.229 -19.804 -0.180 -20.757 -0.100 -20.959 -0.047 -20.973 -0.046 -21.061 -0.073 -21.122 -0.085 -21.279 -0.056 -21.273 -0.050 -21.232 -0.068 -21.130 -0.079 -21.135 -0.107 7.962 0.228 6.297 0.398 44.055 42.565
51.800 -17.238 -0.265 -18.166 -0.228 -19.793 -0.180 -20.751 -0.100 -20.956 -0.046 -20.970 -0.045 -21.059 -0.073 -21.121 -0.085 -21.278 -0.056 -21.273 -0.050 -21.232 -0.068 -21.130 -0.078 -21.132 -0.107 7.946 0.230 6.318 0.404 44.055 42.569
52.200 -17.219 -0.264 -18.150 -0.228 -19.782 -0.179 -20.745 -0.100 -20.952 -0.045 -20.967 -0.045 -21.057 -0.072 -21.119 -0.085 -21.278 -0.055 -21.273 -0.049 -21.231 -0.067 -21.130 -0.077 -21.130 -0.106 7.931 0.231 6.338 0.408 44.054 42.573
52.600 -17.200 -0.263 -18.133 -0.227 -19.771 -0.178 -20.738 -0.100 -20.949 -0.045 -20.963 -0.044 -21.055 -0.072 -21.118 -0.084 -21.278 -0.054 -21.273 -0.049 -21.230 -0.067 -21.130 -0.076 -21.127 -0.105 7.916 0.232 6.357 0.413 44.053 42.576
53.000 -17.181 -0.263 -18.115 -0.226 -19.759 -0.178 -20.732 -0.099 -20.944 -0.044 -20.959 -0.043 -21.053 -0.072 -21.116 -0.084 -21.277 -0.053 -21.272 -0.048 -21.229 -0.067 -21.129 -0.074 -21.124 -0.104 7.901 0.233 6.375 0.418 44.052 42.579
53.400 -17.162 -0.262 -18.098 -0.225 -19.748 -0.177 -20.725 -0.099 -20.940 -0.043 -20.955 -0.042 -21.050 -0.072 -21.114 -0.084 -21.276 -0.053 -21.271 -0.048 -21.228 -0.067 -21.128 -0.073 -21.120 -0.104 7.886 0.234 6.393 0.422 44.052 42.581
53.800 -17.143 -0.261 -18.081 -0.224 -19.736 -0.176 -20.718 -0.099 -20.935 -0.043 -20.950 -0.042 -21.047 -0.071 -21.111 -0.084 -21.274 -0.052 -21.270 -0.047 -21.227 -0.067 -21.128 -0.072 -21.117 -0.103 7.871 0.234 6.409 0.426 44.051 42.583
54.200 -17.124 -0.261 -18.064 -0.223 -19.725 -0.176 -20.711 -0.099 -20.930 -0.042 -20.945 -0.041 -21.044 -0.071 -21.109 -0.083 -21.273 -0.051 -21.269 -0.047 -21.225 -0.067 -21.126 -0.070 -21.114 -0.102 7.857 0.235 6.425 0.429 44.050 42.585
54.600 -17.105 -0.260 -18.047 -0.222 -19.713 -0.175 -20.703 -0.099 -20.924 -0.041 -20.940 -0.040 -21.041 -0.071 -21.106 -0.083 -21.271 -0.050 -21.267 -0.046 -21.224 -0.067 -21.125 -0.069 -21.110 -0.101 7.842 0.236 6.440 0.433 44.048 42.586
55.000 -17.086 -0.259 -18.030 -0.221 -19.701 -0.174 -20.696 -0.098 -20.918 -0.041 -20.934 -0.040 -21.037 -0.070 -21.103 -0.083 -21.269 -0.049 -21.265 -0.045 -21.222 -0.066 -21.124 -0.068 -21.106 -0.101 7.828 0.236 6.454 0.436 44.047 42.587
55.400 -17.066 -0.258 -18.012 -0.219 -19.689 -0.174 -20.688 -0.098 -20.912 -0.040 -20.928 -0.039 -21.033 -0.070 -21.100 -0.082 -21.267 -0.048 -21.263 -0.045 -21.219 -0.066 -21.122 -0.067 -21.103 -0.100 7.813 0.236 6.468 0.439 44.046 42.588
55.800 -17.047 -0.257 -17.995 -0.218 -19.678 -0.173 -20.680 -0.098 -20.905 -0.040 -20.922 -0.039 -21.029 -0.069 -21.097 -0.082 -21.264 -0.048 -21.261 -0.045 -21.217 -0.066 -21.121 -0.065 -21.099 -0.099 7.798 0.236 6.481 0.441 44.044 42.588
56.200 -17.028 -0.256 -17.978 -0.217 -19.666 -0.172 -20.672 -0.098 -20.898 -0.040 -20.915 -0.038 -21.025 -0.069 -21.093 -0.082 -21.261 -0.047 -21.258 -0.044 -21.214 -0.066 -21.119 -0.064 -21.095 -0.098 7.782 0.236 6.493 0.444 44.042 42.588
56.600 -17.009 -0.255 -17.960 -0.215 -19.654 -0.171 -20.664 -0.097 -20.891 -0.039 -20.908 -0.038 -21.020 -0.069 -21.089 -0.082 -21.258 -0.046 -21.254 -0.044 -21.211 -0.066 -21.116 -0.063 -21.091 -0.097 7.767 0.236 6.505 0.446 44.040 42.589
57.000 -16.990 -0.253 -17.943 -0.214 -19.641 -0.170 -20.656 -0.097 -20.883 -0.039 -20.900 -0.038 -21.015 -0.068 -21.085 -0.081 -21.254 -0.046 -21.251 -0.044 -21.208 -0.066 -21.114 -0.062 -21.087 -0.097 7.751 0.236 6.517 0.448 44.038 42.589
57.400 -16.971 -0.252 -17.926 -0.212 -19.629 -0.169 -20.647 -0.097 -20.875 -0.039 -20.893 -0.037 -21.010 -0.068 -21.081 -0.081 -21.250 -0.045 -21.247 -0.044 -21.204 -0.066 -21.112 -0.061 -21.082 -0.096 7.734 0.236 6.529 0.449 44.036 42.589
57.800 -16.952 -0.251 -17.908 -0.211 -19.617 -0.168 -20.638 -0.097 -20.867 -0.039 -20.885 -0.037 -21.005 -0.068 -21.077 -0.081 -21.246 -0.045 -21.242 -0.043 -21.201 -0.066 -21.109 -0.060 -21.078 -0.095 7.717 0.235 6.540 0.451 44.034 42.590
58.200 -16.932 -0.250 -17.891 -0.209 -19.605 -0.167 -20.629 -0.096 -20.859 -0.039 -20.877 -0.038 -20.999 -0.067 -21.072 -0.080 -21.241 -0.044 -21.238 -0.043 -21.197 -0.066 -21.106 -0.059 -21.073 -0.095 7.699 0.235 6.552 0.452 44.031 42.590
58.600 -16.913 -0.249 -17.873 -0.208 -19.592 -0.166 -20.620 -0.096 -20.850 -0.040 -20.868 -0.038 -20.994 -0.067 -21.067 -0.080 -21.236 -0.044 -21.233 -0.044 -21.193 -0.066 -21.102 -0.059 -21.069 -0.094 7.680 0.234 6.564 0.454 44.029 42.590
59.000 -16.894 -0.247 -17.856 -0.206 -19.580 -0.165 -20.611 -0.096 -20.841 -0.040 -20.860 -0.038 -20.988 -0.067 -21.062 -0.080 -21.231 -0.044 -21.228 -0.044 -21.188 -0.066 -21.099 -0.058 -21.064 -0.094 7.661 0.233 6.577 0.455 44.026 42.591
59.400 -16.875 -0.246 -17.838 -0.204 -19.567 -0.164 -20.602 -0.096 -20.832 -0.040 -20.851 -0.039 -20.982 -0.067 -21.057 -0.079 -21.225 -0.044 -21.222 -0.044 -21.184 -0.066 -21.095 -0.058 -21.059 -0.093 7.641 0.232 6.590 0.456 44.023 42.591
59.800 -16.856 -0.244 -17.821 -0.202 -19.554 -0.163 -20.592 -0.095 -20.823 -0.041 -20.842 -0.039 -20.976 -0.066 -21.052 -0.079 -21.219 -0.044 -21.216 -0.044 -21.179 -0.067 -21.091 -0.058 -21.054 -0.093 7.621 0.231 6.603 0.456 44.020 42.592
60.200 -16.837 -0.243 -17.803 -0.201 -19.542 -0.162 -20.583 -0.095 -20.814 -0.042 -20.833 -0.040 -20.969 -0.066 -21.046 -0.079 -21.213 -0.045 -21.210 -0.044 -21.174 -0.067 -21.087 -0.058 -21.049 -0.092 7.601 0.230 6.616 0.457 44.017 42.592
60.600 -16.818 -0.242 -17.786 -0.199 -19.529 -0.161 -20.573 -0.095 -20.804 -0.042 -20.824 -0.041 -20.962 -0.066 -21.040 -0.079 -21.206 -0.045 -21.204 -0.044 -21.169 -0.067 -21.083 -0.058 -21.044 -0.092 7.580 0.229 6.629 0.458 44.014 42.593
61.000 -16.799 -0.240 -17.768 -0.197 -19.516 -0.160 -20.563 -0.095 -20.795 -0.043 -20.814 -0.041 -20.956 -0.066 -21.034 -0.078 -21.199 -0.045 -21.197 -0.045 -21.164 -0.067 -21.078 -0.058 -21.038 -0.092 7.559 0.227 6.642 0.458 44.011 42.593
61.400 -16.780 -0.239 -17.751 -0.195 -19.503 -0.159 -20.553 -0.094 -20.785 -0.044 -20.805 -0.042 -20.949 -0.065 -21.028 -0.078 -21.192 -0.045 -21.190 -0.045 -21.158 -0.067 -21.074 -0.058 -21.033 -0.091 7.539 0.226 6.654 0.459 44.008 42.594
61.800 -16.761 -0.237 -17.733 -0.193 -19.490 -0.158 -20.543 -0.094 -20.775 -0.045 -20.795 -0.043 -20.942 -0.065 -21.022 -0.078 -21.185 -0.046 -21.183 -0.045 -21.152 -0.068 -21.069 -0.058 -21.028 -0.091 7.518 0.224 6.667 0.459 44.005 42.594
62.200 -16.742 -0.236 -17.716 -0.191 -19.477 -0.156 -20.533 -0.094 -20.765 -0.045 -20.786 -0.044 -20.935 -0.065 -21.016 -0.077 -21.177 -0.046 -21.176 -0.046 -21.146 -0.068 -21.064 -0.058 -21.022 -0.091 7.497 0.223 6.680 0.460 44.002 42.594
62.600 -16.723 -0.235 -17.698 -0.189 -19.464 -0.155 -20.523 -0.093 -20.755 -0.046 -20.776 -0.044 -20.928 -0.065 -21.009 -0.077 -21.169 -0.047 -21.168 -0.046 -21.140 -0.068 -21.059 -0.058 -21.017 -0.091 7.477 0.222 6.692 0.460 43.999 42.594
63.000 -16.704 -0.233 -17.681 -0.187 -19.451 -0.154 -20.512 -0.093 -20.745 -0.047 -20.766 -0.045 -20.920 -0.065 -21.003 -0.077 -21.161 -0.047 -21.161 -0.046 -21.134 -0.069 -21.054 -0.059 -21.011 -0.091 7.456 0.220 6.705 0.461 43.996 42.595
63.400 -16.685 -0.232 -17.663 -0.185 -19.437 -0.153 -20.502 -0.093 -20.735 -0.047 -20.756 -0.046 -20.913 -0.065 -20.996 -0.076 -21.153 -0.047 -21.153 -0.047 -21.127 -0.069 -21.049 -0.059 -21.006 -0.090 7.436 0.218 6.717 0.461 43.993 42.595
63.800 -16.667 -0.230 -17.646 -0.183 -19.424 -0.151 -20.491 -0.092 -20.725 -0.048 -20.746 -0.046 -20.905 -0.065 -20.989 -0.076 -21.145 -0.048 -21.145 -0.047 -21.121 -0.069 -21.044 -0.059 -21.000 -0.090 7.416 0.217 6.729 0.461 43.990 42.595
64.200 -16.648 -0.229 -17.628 -0.181 -19.411 -0.150 -20.481 -0.092 -20.715 -0.048 -20.736 -0.047 -20.898 -0.064 -20.982 -0.076 -21.136 -0.048 -21.137 -0.048 -21.114 -0.070 -21.038 -0.060 -20.995 -0.090 7.396 0.215 6.741 0.462 43.986 42.594
64.600 -16.629 -0.228 -17.611 -0.179 -19.397 -0.149 -20.470 -0.092 -20.705 -0.049 -20.726 -0.048 -20.890 -0.064 -20.975 -0.075 -21.128 -0.048 -21.129 -0.048 -21.107 -0.070 -21.033 -0.060 -20.989 -0.091 7.377 0.214 6.754 0.462 43.983 42.594
65.000 -16.611 -0.226 -17.593 -0.177 -19.384 -0.147 -20.459 -0.091 -20.695 -0.050 -20.716 -0.048 -20.882 -0.064 -20.968 -0.075 -21.119 -0.049 -21.121 -0.048 -21.100 -0.070 -21.027 -0.060 -20.984 -0.091 7.357 0.212 6.766 0.462 43.980 42.594
65.400 -16.592 -0.225 -17.576 -0.176 -19.370 -0.146 -20.449 -0.091 -20.685 -0.050 -20.706 -0.049 -20.875 -0.064 -20.961 -0.075 -21.110 -0.049 -21.112 -0.049 -21.093 -0.071 -21.022 -0.061 -20.978 -0.091 7.338 0.211 6.779 0.463 43.977 42.594
65.800 -16.574 -0.224 -17.558 -0.174 -19.356 -0.145 -20.438 -0.091 -20.675 -0.050 -20.697 -0.049 -20.867 -0.064 -20.953 -0.074 -21.101 -0.049 -21.104 -0.049 -21.086 -0.071 -21.016 -0.061 -20.973 -0.091 7.318 0.209 6.792 0.463 43.974 42.594
66.200 -16.555 -0.223 -17.541 -0.172 -19.342 -0.144 -20.427 -0.090 -20.665 -0.051 -20.687 -0.050 -20.859 -0.064 -20.946 -0.074 -21.093 -0.050 -21.095 -0.050 -21.079 -0.072 -21.011 -0.062 -20.967 -0.092 7.299 0.207 6.806 0.464 43.972 42.594
66.600 -16.537 -0.222 -17.524 -0.170 -19.328 -0.143 -20.416 -0.090 -20.655 -0.051 -20.677 -0.050 -20.851 -0.064 -20.938 -0.074 -21.084 -0.050 -21.087 -0.050 -21.071 -0.072 -21.005 -0.063 -20.962 -0.092 7.279 0.206 6.820 0.464 43.969 42.594
67.000 -16.519 -0.221 -17.506 -0.168 -19.315 -0.141 -20.405 -0.090 -20.645 -0.052 -20.667 -0.050 -20.843 -0.064 -20.931 -0.074 -21.074 -0.050 -21.078 -0.051 -21.064 -0.073 -21.000 -0.063 -20.956 -0.093 7.259 0.204 6.835 0.465 43.966 42.594
67.400 -16.501 -0.220 -17.489 -0.167 -19.301 -0.140 -20.394 -0.089 -20.635 -0.052 -20.658 -0.051 -20.835 -0.064 -20.923 -0.073 -21.065 -0.051 -21.069 -0.051 -21.057 -0.073 -20.994 -0.064 -20.951 -0.093 7.240 0.203 6.851 0.466 43.963 42.595
67.800 -16.482 -0.219 -17.472 -0.165 -19.286 -0.139 -20.383 -0.089 -20.626 -0.053 -20.648 -0.051 -20.827 -0.064 -20.915 -0.073 -21.056 -0.051 -21.061 -0.052 -21.049 -0.074 -20.989 -0.065 -20.946 -0.094 7.220 0.201 6.867 0.467 43.961 42.595
68.200 -16.465 -0.219 -17.455 -0.164 -19.272 -0.138 -20.372 -0.089 -20.616 -0.053 -20.639 -0.052 -20.819 -0.064 -20.907 -0.073 -21.047 -0.052 -21.052 -0.053 -21.041 -0.075 -20.983 -0.066 -20.940 -0.095 7.200 0.199 6.885 0.468 43.958 42.595
68.600 -16.447 -0.218 -17.438 -0.162 -19.258 -0.137 -20.361 -0.088 -20.606 -0.054 -20.629 -0.052 -20.811 -0.064 -20.899 -0.073 -21.038 -0.052 -21.043 -0.054 -21.034 -0.075 -20.978 -0.068 -20.935 -0.096 7.180 0.198 6.903 0.469 43.955 42.596
69.000 -16.429 -0.218 -17.421 -0.161 -19.244 -0.136 -20.350 -0.088 -20.597 -0.054 -20.620 -0.053 -20.803 -0.064 -20.891 -0.072 -21.029 -0.053 -21.035 -0.054 -21.026 -0.076 -20.973 -0.069 -20.930 -0.098 7.160 0.196 6.922 0.470 43.953 42.597
69.400 -16.411 -0.217 -17.404 -0.160 -19.229 -0.136 -20.339 -0.088 -20.587 -0.055 -20.611 -0.053 -20.794 -0.064 -20.883 -0.072 -21.020 -0.054 -21.026 -0.055 -21.018 -0.077 -20.967 -0.070 -20.925 -0.099 7.140 0.195 6.941 0.471 43.950 42.597
69.800 -16.394 -0.217 -17.387 -0.159 -19.215 -0.135 -20.327 -0.088 -20.578 -0.055 -20.602 -0.054 -20.786 -0.064 -20.875 -0.072 -21.011 -0.054 -21.017 -0.056 -21.010 -0.078 -20.962 -0.072 -20.920 -0.100 7.120 0.193 6.960 0.472 43.948 42.598
70.200 -16.376 -0.217 -17.370 -0.158 -19.200 -0.135 -20.316 -0.088 -20.569 -0.056 -20.592 -0.055 -20.778 -0.064 -20.866 -0.072 -21.001 -0.055 -21.008 -0.057 -21.002 -0.079 -20.957 -0.073 -20.915 -0.102 7.100 0.191 6.980 0.473 43.946 42.599
70.600 -16.359 -0.217 -17.353 -0.158 -19.186 -0.134 -20.304 -0.089 -20.559 -0.057 -20.583 -0.056 -20.769 -0.064 -20.858 -0.072 -20.992 -0.056 -20.999 -0.058 -20.994 -0.080 -20.952 -0.075 -20.910 -0.104 7.080 0.190 6.999 0.474 43.943 42.600
71.000 -16.342 -0.217 -17.336 -0.157 -19.171 -0.134 -20.293 -0.089 -20.550 -0.058 -20.574 -0.057 -20.761 -0.065 -20.850 -0.073 -20.983 -0.057 -20.991 -0.060 -20.986 -0.082 -20.946 -0.077 -20.905 -0.106 7.060 0.188 7.019 0.476 43.941 42.601
71.400 -16.324 -0.218 -17.319 -0.157 -19.156 -0.134 -20.281 -0.089 -20.540 -0.059 -20.565 -0.058 -20.752 -0.065 -20.841 -0.073 -20.974 -0.059 -20.982 -0.061 -20.978 -0.083 -20.941 -0.079 -20.900 -0.108 7.041 0.186 7.038 0.477 43.938 42.602
71.800 -16.308 -0.218 -17.303 -0.157 -19.141 -0.134 -20.270 -0.090 -20.531 -0.060 -20.556 -0.059 -20.744 -0.066 -20.832 -0.073 -20.965 -0.060 -20.973 -0.063 -20.970 -0.084 -20.936 -0.081 -20.895 -0.110 7.021 0.185 7.057 0.478 43.936 42.603
72.200 -16.291 -0.219 -17.286 -0.157 -19.126 -0.134 -20.258 -0.090 -20.522 -0.061 -20.546 -0.060 -20.735 -0.067 -20.824 -0.074 -20.956 -0.061 -20.964 -0.064 -20.962 -0.086 -20.930 -0.084 -20.890 -0.113 7.002 0.183 7.075 0.478 43.933 42.604
72.600 -16.274 -0.220 -17.270 -0.157 -19.111 -0.134 -20.246 -0.091 -20.512 -0.063 -20.537 -0.062 -20.726 -0.068 -20.815 -0.075 -20.946 -0.063 -20.955 -0.066 -20.954 -0.088 -20.925 -0.086 -20.885 -0.116 6.984 0.181 7.092 0.479 43.931 42.604
73.000 -16.257 -0.221 -17.253 -0.158 -19.096 -0.135 -20.234 -0.092 -20.502 -0.065 -20.528 -0.063 -20.718 -0.069 -20.806 -0.076 -20.937 -0.065 -20.946 -0.068 -20.946 -0.089 -20.920 -0.089 -20.880 -0.118 6.965 0.180 7.107 0.480 43.928 42.605
73.400 -16.241 -0.223 -17.237 -0.159 -19.081 -0.136 -20.222 -0.094 -20.493 -0.066 -20.518 -0.065 -20.709 -0.070 -20.797 -0.077 -20.928 -0.067 -20.938 -0.070 -20.938 -0.091 -20.914 -0.091 -20.875 -0.121 6.947 0.178 7.122 0.480 43.925 42.606
73.800 -16.225 -0.224 -17.220 -0.160 -19.066 -0.136 -20.210 -0.095 -20.483 -0.068 -20.509 -0.067 -20.700 -0.072 -20.788 -0.078 -20.919 -0.069 -20.929 -0.072 -20.930 -0.093 -20.909 -0.094 -20.870 -0.125 6.930 0.176 7.136 0.480 43.923 42.606
74.200 -16.209 -0.226 -17.204 -0.161 -19.050 -0.138 -20.197 -0.096 -20.473 -0.071 -20.499 -0.069 -20.691 -0.073 -20.779 -0.080 -20.910 -0.071 -20.920 -0.075 -20.922 -0.095 -20.903 -0.097 -20.865 -0.128 6.912 0.175 7.148 0.480 43.920 42.606
74.600 -16.193 -0.228 -17.188 -0.163 -19.035 -0.139 -20.185 -0.098 -20.463 -0.073 -20.489 -0.072 -20.682 -0.075 -20.770 -0.081 -20.900 -0.074 -20.911 -0.077 -20.914 -0.098 -20.897 -0.100 -20.860 -0.131 6.896 0.173 7.158 0.480 43.917 42.606
