"Time (MJD)" G-5850.88 G-5850.88_err cyan-5182.42 cyan-5182.42_err g-4746.48 g-4746.48_err i-7829.03 i-7829.03_err orange-6629.82 orange-6629.82_err r-6366.38 r-6366.38_err "Temp./1e3 (K)" "Temp. Err." "Radius/1e15 (cm)" "Radius Err." "Log10(Bol. Lum)" "Log10(Bol. Err)"
-36.000 -16.627 -0.149 -16.522 -0.139 -16.361 -0.157 -16.243 -0.181 -16.187 -0.196 -15.953 -0.303 12.031 2.367 0.360 0.089 42.287 41.767
-35.600 -16.723 -0.142 -16.620 -0.133 -16.461 -0.151 -16.344 -0.175 -16.287 -0.189 -16.049 -0.295 20.691 0.263 0.212 0.002 42.770 41.216
-35.200 -16.821 -0.138 -16.720 -0.128 -16.562 -0.146 -16.446 -0.169 -16.389 -0.183 -16.145 -0.288 20.516 0.145 0.224 0.001 42.802 40.992
-34.800 -16.918 -0.134 -16.820 -0.124 -16.665 -0.141 -16.549 -0.163 -16.492 -0.177 -16.243 -0.281 20.311 0.059 0.237 0.001 42.833 40.637
-34.400 -17.017 -0.131 -16.921 -0.121 -16.769 -0.138 -16.654 -0.159 -16.596 -0.172 -16.341 -0.275 20.086 0.140 0.251 0.002 42.863 41.043
-34.000 -17.116 -0.130 -17.022 -0.119 -16.874 -0.135 -16.759 -0.155 -16.702 -0.168 -16.439 -0.269 19.848 0.267 0.266 0.003 42.893 41.356
-33.600 -17.215 -0.128 -17.125 -0.118 -16.979 -0.132 -16.865 -0.151 -16.807 -0.163 -16.538 -0.263 19.604 0.398 0.282 0.005 42.922 41.563
-33.200 -17.314 -0.128 -17.227 -0.116 -17.085 -0.130 -16.972 -0.148 -16.914 -0.159 -16.638 -0.258 19.360 0.530 0.299 0.008 42.952 41.720
-32.800 -17.414 -0.127 -17.330 -0.115 -17.191 -0.128 -17.080 -0.144 -17.021 -0.155 -16.738 -0.253 19.118 0.661 0.317 0.010 42.982 41.849
-32.400 -17.514 -0.126 -17.433 -0.114 -17.298 -0.125 -17.187 -0.141 -17.128 -0.151 -16.837 -0.249 18.882 0.790 0.337 0.013 43.012 41.960
-32.000 -17.613 -0.126 -17.536 -0.113 -17.405 -0.123 -17.295 -0.138 -17.235 -0.147 -16.937 -0.244 18.654 0.916 0.358 0.017 43.043 42.058
-31.600 -17.713 -0.125 -17.638 -0.112 -17.511 -0.120 -17.402 -0.134 -17.342 -0.143 -17.036 -0.240 18.435 1.037 0.379 0.020 43.074 42.146
-31.200 -17.812 -0.124 -17.741 -0.110 -17.617 -0.118 -17.509 -0.130 -17.449 -0.139 -17.135 -0.236 18.225 1.153 0.402 0.025 43.105 42.226
-30.800 -17.911 -0.122 -17.843 -0.107 -17.723 -0.114 -17.616 -0.126 -17.555 -0.134 -17.233 -0.232 18.024 1.263 0.427 0.029 43.136 42.299
-30.400 -18.010 -0.120 -17.944 -0.104 -17.828 -0.111 -17.722 -0.122 -17.661 -0.129 -17.330 -0.228 17.833 1.365 0.452 0.034 43.168 42.367
-30.000 -18.108 -0.117 -18.045 -0.101 -17.932 -0.107 -17.827 -0.117 -17.765 -0.124 -17.426 -0.224 17.652 1.459 0.478 0.039 43.200 42.430
-29.600 -18.205 -0.115 -18.145 -0.097 -18.036 -0.103 -17.931 -0.112 -17.868 -0.119 -17.521 -0.220 17.482 1.543 0.506 0.044 43.232 42.488
-29.200 -18.301 -0.112 -18.244 -0.093 -18.138 -0.099 -18.033 -0.106 -17.970 -0.113 -17.615 -0.217 17.325 1.616 0.535 0.049 43.264 42.543
-28.800 -18.396 -0.108 -18.342 -0.089 -18.238 -0.094 -18.134 -0.101 -18.070 -0.107 -17.707 -0.213 17.181 1.678 0.564 0.055 43.296 42.593
-28.400 -18.491 -0.104 -18.439 -0.084 -18.337 -0.089 -18.233 -0.095 -18.168 -0.100 -17.797 -0.210 17.055 1.728 0.595 0.060 43.329 42.640
-28.000 -18.584 -0.101 -18.534 -0.079 -18.434 -0.084 -18.329 -0.089 -18.264 -0.094 -17.886 -0.207 16.952 1.766 0.625 0.065 43.362 42.684
-27.600 -18.676 -0.097 -18.628 -0.074 -18.530 -0.080 -18.424 -0.083 -18.358 -0.087 -17.973 -0.204 16.876 1.792 0.656 0.070 43.396 42.725
-27.200 -18.766 -0.093 -18.721 -0.069 -18.622 -0.075 -18.516 -0.076 -18.449 -0.080 -18.057 -0.202 16.837 1.807 0.686 0.074 43.431 42.765
-26.800 -18.855 -0.089 -18.812 -0.064 -18.713 -0.070 -18.604 -0.070 -18.537 -0.073 -18.139 -0.200 16.844 1.813 0.715 0.077 43.467 42.803
-26.400 -18.942 -0.085 -18.901 -0.060 -18.800 -0.066 -18.690 -0.065 -18.621 -0.067 -18.220 -0.198 16.905 1.813 0.742 0.079 43.505 42.841
-26.000 -19.027 -0.081 -18.989 -0.055 -18.885 -0.062 -18.772 -0.059 -18.703 -0.061 -18.297 -0.197 17.026 1.810 0.766 0.081 43.545 42.879
-25.600 -19.110 -0.077 -19.073 -0.050 -18.966 -0.059 -18.851 -0.055 -18.780 -0.056 -18.373 -0.196 17.214 1.806 0.786 0.081 43.588 42.919
-25.200 -19.190 -0.072 -19.155 -0.045 -19.044 -0.056 -18.925 -0.051 -18.854 -0.053 -18.446 -0.195 17.475 1.811 0.803 0.081 43.632 42.961
-24.800 -19.267 -0.068 -19.233 -0.040 -19.118 -0.053 -18.995 -0.049 -18.924 -0.051 -18.516 -0.195 17.809 1.832 0.816 0.081 43.679 43.007
-24.400 -19.341 -0.064 -19.309 -0.035 -19.188 -0.050 -19.062 -0.047 -18.989 -0.050 -18.585 -0.196 18.206 1.876 0.826 0.082 43.728 43.059
-24.000 -19.411 -0.061 -19.380 -0.029 -19.255 -0.049 -19.125 -0.047 -19.051 -0.051 -18.651 -0.197 18.647 1.948 0.833 0.083 43.777 43.117
-23.600 -19.478 -0.057 -19.447 -0.025 -19.318 -0.048 -19.184 -0.046 -19.110 -0.052 -18.715 -0.198 19.080 2.044 0.840 0.085 43.824 43.177
-23.200 -19.541 -0.055 -19.510 -0.024 -19.377 -0.047 -19.240 -0.047 -19.166 -0.053 -18.777 -0.199 19.402 2.139 0.850 0.089 43.863 43.231
-22.800 -19.601 -0.053 -19.569 -0.026 -19.433 -0.048 -19.294 -0.047 -19.220 -0.055 -18.837 -0.201 19.522 2.184 0.867 0.091 43.891 43.268
-22.400 -19.657 -0.053 -19.623 -0.030 -19.487 -0.049 -19.345 -0.048 -19.271 -0.057 -18.895 -0.203 19.493 2.165 0.890 0.093 43.911 43.285
-22.000 -19.710 -0.053 -19.674 -0.035 -19.537 -0.050 -19.395 -0.050 -19.321 -0.060 -18.952 -0.205 19.407 2.105 0.914 0.093 43.926 43.290
-21.600 -19.760 -0.054 -19.723 -0.041 -19.586 -0.053 -19.443 -0.052 -19.370 -0.062 -19.007 -0.208 19.316 2.027 0.938 0.092 43.941 43.290
-21.200 -19.809 -0.057 -19.769 -0.047 -19.632 -0.056 -19.490 -0.055 -19.418 -0.066 -19.060 -0.210 19.236 1.948 0.962 0.091 43.955 43.289
-20.800 -19.855 -0.060 -19.814 -0.053 -19.678 -0.060 -19.536 -0.058 -19.465 -0.069 -19.113 -0.213 19.168 1.876 0.985 0.091 43.970 43.289
-20.400 -19.901 -0.065 -19.858 -0.059 -19.722 -0.064 -19.582 -0.062 -19.511 -0.074 -19.165 -0.216 19.111 1.812 1.008 0.090 43.985 43.290
-20.000 -19.945 -0.070 -19.900 -0.065 -19.766 -0.069 -19.628 -0.068 -19.557 -0.079 -19.215 -0.219 19.059 1.756 1.031 0.089 44.000 43.293
-19.600 -19.989 -0.076 -19.942 -0.072 -19.809 -0.074 -19.673 -0.074 -19.603 -0.084 -19.265 -0.222 19.003 1.707 1.055 0.089 44.015 43.296
-19.200 -20.032 -0.083 -19.983 -0.079 -19.851 -0.080 -19.718 -0.080 -19.649 -0.090 -19.314 -0.225 18.937 1.663 1.080 0.089 44.029 43.300
-18.800 -20.074 -0.090 -20.024 -0.086 -19.893 -0.086 -19.763 -0.087 -19.694 -0.097 -19.362 -0.228 18.860 1.625 1.106 0.090 44.042 43.305
-18.400 -20.116 -0.097 -20.065 -0.092 -19.936 -0.092 -19.807 -0.093 -19.739 -0.103 -19.409 -0.231 18.775 1.591 1.133 0.091 44.055 43.310
-18.000 -20.158 -0.104 -20.106 -0.099 -19.977 -0.099 -19.851 -0.100 -19.784 -0.109 -19.456 -0.234 18.681 1.562 1.160 0.092 44.068 43.316
-17.600 -20.199 -0.111 -20.146 -0.106 -20.019 -0.105 -19.895 -0.107 -19.829 -0.115 -19.502 -0.236 18.581 1.537 1.189 0.093 44.079 43.323
-17.200 -20.239 -0.118 -20.186 -0.112 -20.061 -0.111 -19.939 -0.113 -19.873 -0.121 -19.548 -0.239 18.476 1.517 1.219 0.095 44.091 43.330
-16.800 -20.279 -0.125 -20.225 -0.119 -20.102 -0.116 -19.982 -0.119 -19.917 -0.127 -19.593 -0.242 18.369 1.500 1.249 0.097 44.102 43.338
-16.400 -20.319 -0.131 -20.265 -0.124 -20.143 -0.122 -20.025 -0.124 -19.960 -0.132 -19.637 -0.244 18.259 1.486 1.280 0.099 44.113 43.346
-16.000 -20.358 -0.136 -20.304 -0.130 -20.184 -0.127 -20.067 -0.130 -20.003 -0.137 -19.681 -0.246 18.147 1.475 1.312 0.102 44.124 43.355
-15.600 -20.397 -0.142 -20.343 -0.135 -20.224 -0.132 -20.109 -0.134 -20.046 -0.141 -19.724 -0.248 18.036 1.466 1.344 0.105 44.134 43.365
-15.200 -20.435 -0.146 -20.382 -0.140 -20.264 -0.136 -20.151 -0.138 -20.088 -0.145 -19.766 -0.250 17.924 1.458 1.378 0.108 44.145 43.375
-14.800 -20.473 -0.150 -20.420 -0.144 -20.304 -0.140 -20.192 -0.142 -20.129 -0.149 -19.808 -0.251 17.813 1.452 1.411 0.111 44.155 43.385
-14.400 -20.510 -0.154 -20.457 -0.147 -20.343 -0.143 -20.232 -0.145 -20.170 -0.151 -19.849 -0.253 17.702 1.447 1.446 0.114 44.165 43.395
-14.000 -20.547 -0.157 -20.495 -0.150 -20.382 -0.146 -20.272 -0.147 -20.210 -0.153 -19.889 -0.254 17.592 1.442 1.480 0.118 44.175 43.404
-13.600 -20.583 -0.159 -20.531 -0.152 -20.420 -0.148 -20.311 -0.149 -20.250 -0.155 -19.929 -0.254 17.483 1.437 1.515 0.121 44.184 43.414
-13.200 -20.618 -0.161 -20.567 -0.154 -20.457 -0.149 -20.350 -0.150 -20.289 -0.156 -19.967 -0.254 17.374 1.432 1.551 0.125 44.194 43.423
-12.800 -20.653 -0.162 -20.602 -0.155 -20.494 -0.150 -20.387 -0.151 -20.327 -0.156 -20.005 -0.254 17.266 1.426 1.587 0.129 44.203 43.432
-12.400 -20.687 -0.163 -20.637 -0.156 -20.529 -0.150 -20.424 -0.150 -20.364 -0.156 -20.042 -0.254 17.158 1.418 1.623 0.132 44.211 43.440
-12.000 -20.720 -0.162 -20.671 -0.156 -20.564 -0.150 -20.460 -0.150 -20.400 -0.154 -20.078 -0.254 17.050 1.410 1.660 0.136 44.220 43.447
-11.600 -20.752 -0.161 -20.704 -0.155 -20.599 -0.149 -20.495 -0.148 -20.435 -0.153 -20.113 -0.253 16.942 1.399 1.697 0.139 44.228 43.453
-11.200 -20.784 -0.160 -20.736 -0.153 -20.632 -0.147 -20.529 -0.146 -20.469 -0.151 -20.147 -0.252 16.834 1.385 1.734 0.142 44.236 43.457
-10.800 -20.814 -0.157 -20.767 -0.151 -20.664 -0.145 -20.562 -0.143 -20.503 -0.148 -20.180 -0.250 16.724 1.369 1.771 0.145 44.243 43.461
-10.400 -20.844 -0.154 -20.797 -0.148 -20.695 -0.143 -20.594 -0.140 -20.535 -0.144 -20.212 -0.249 16.614 1.349 1.809 0.147 44.250 43.462
-10.000 -20.873 -0.151 -20.826 -0.145 -20.725 -0.139 -20.624 -0.136 -20.566 -0.140 -20.243 -0.247 16.504 1.325 1.847 0.149 44.256 43.462
-9.600 -20.900 -0.146 -20.854 -0.141 -20.754 -0.136 -20.654 -0.132 -20.595 -0.136 -20.273 -0.246 16.392 1.296 1.884 0.151 44.262 43.459
-9.200 -20.927 -0.141 -20.881 -0.137 -20.781 -0.132 -20.682 -0.127 -20.624 -0.131 -20.301 -0.244 16.280 1.262 1.922 0.151 44.267 43.454
-8.800 -20.953 -0.136 -20.907 -0.132 -20.807 -0.127 -20.709 -0.122 -20.651 -0.126 -20.328 -0.242 16.168 1.223 1.959 0.151 44.272 43.446
-8.400 -20.977 -0.129 -20.931 -0.126 -20.832 -0.122 -20.734 -0.117 -20.676 -0.120 -20.355 -0.240 16.058 1.178 1.996 0.150 44.276 43.435
-8.000 -21.000 -0.122 -20.955 -0.120 -20.856 -0.117 -20.758 -0.111 -20.701 -0.114 -20.379 -0.238 15.949 1.127 2.033 0.148 44.280 43.420
-7.600 -21.022 -0.115 -20.977 -0.114 -20.878 -0.111 -20.780 -0.105 -20.723 -0.108 -20.403 -0.237 15.844 1.069 2.068 0.144 44.283 43.401
-7.200 -21.043 -0.107 -20.997 -0.107 -20.898 -0.106 -20.801 -0.099 -20.744 -0.102 -20.425 -0.235 15.746 1.006 2.102 0.140 44.287 43.378
-6.800 -21.063 -0.098 -21.017 -0.100 -20.917 -0.100 -20.820 -0.093 -20.764 -0.096 -20.446 -0.234 15.656 0.937 2.134 0.134 44.290 43.351
-6.400 -21.081 -0.089 -21.035 -0.092 -20.935 -0.094 -20.838 -0.086 -20.782 -0.091 -20.466 -0.233 15.576 0.865 2.163 0.126 44.293 43.318
-6.000 -21.098 -0.080 -21.052 -0.085 -20.951 -0.088 -20.854 -0.080 -20.798 -0.085 -20.485 -0.232 15.509 0.789 2.190 0.118 44.296 43.281
-5.600 -21.114 -0.070 -21.067 -0.077 -20.965 -0.083 -20.868 -0.075 -20.812 -0.080 -20.502 -0.232 15.453 0.713 2.214 0.109 44.299 43.238
-5.200 -21.129 -0.060 -21.082 -0.070 -20.979 -0.077 -20.881 -0.069 -20.825 -0.075 -20.519 -0.232 15.405 0.638 2.235 0.099 44.302 43.190
-4.800 -21.143 -0.051 -21.095 -0.064 -20.991 -0.072 -20.892 -0.063 -20.837 -0.071 -20.534 -0.232 15.364 0.566 2.254 0.090 44.305 43.138
-4.400 -21.155 -0.042 -21.106 -0.058 -21.001 -0.068 -20.903 -0.058 -20.847 -0.067 -20.548 -0.233 15.332 0.500 2.271 0.081 44.308 43.083
-4.000 -21.166 -0.035 -21.117 -0.054 -21.011 -0.064 -20.912 -0.054 -20.857 -0.064 -20.561 -0.234 15.314 0.447 2.284 0.074 44.311 43.033
-3.600 -21.175 -0.033 -21.126 -0.052 -21.019 -0.062 -20.920 -0.050 -20.865 -0.062 -20.573 -0.235 15.323 0.416 2.292 0.069 44.315 43.005
-3.200 -21.184 -0.036 -21.134 -0.052 -21.027 -0.060 -20.927 -0.047 -20.873 -0.061 -20.584 -0.237 15.366 0.411 2.294 0.067 44.320 43.009
-2.800 -21.191 -0.042 -21.141 -0.054 -21.034 -0.060 -20.934 -0.047 -20.880 -0.062 -20.594 -0.239 15.425 0.424 2.293 0.068 44.326 43.035
-2.400 -21.197 -0.051 -21.147 -0.058 -21.040 -0.061 -20.940 -0.049 -20.886 -0.064 -20.604 -0.242 15.478 0.445 2.291 0.070 44.332 43.066
-2.000 -21.202 -0.060 -21.152 -0.063 -21.045 -0.063 -20.945 -0.052 -20.892 -0.068 -20.613 -0.245 15.509 0.466 2.293 0.073 44.336 43.092
-1.600 -21.206 -0.069 -21.157 -0.069 -21.049 -0.066 -20.951 -0.057 -20.897 -0.073 -20.620 -0.248 15.517 0.484 2.296 0.075 44.338 43.113
-1.200 -21.209 -0.079 -21.160 -0.075 -21.053 -0.069 -20.955 -0.063 -20.902 -0.078 -20.628 -0.251 15.503 0.498 2.303 0.078 44.339 43.127
-0.800 -21.211 -0.088 -21.162 -0.080 -21.057 -0.073 -20.959 -0.069 -20.906 -0.084 -20.634 -0.255 15.470 0.508 2.312 0.080 44.339 43.136
-0.400 -21.212 -0.096 -21.164 -0.086 -21.059 -0.076 -20.962 -0.074 -20.910 -0.090 -20.640 -0.259 15.420 0.513 2.322 0.081 44.337 43.140
-0.000 -21.212 -0.104 -21.164 -0.091 -21.061 -0.080 -20.965 -0.080 -20.913 -0.095 -20.645 -0.263 15.355 0.516 2.335 0.083 44.334 43.141
0.400 -21.212 -0.112 -21.164 -0.096 -21.062 -0.082 -20.968 -0.084 -20.916 -0.100 -20.650 -0.268 15.278 0.515 2.349 0.084 44.331 43.138
0.800 -21.211 -0.119 -21.164 -0.100 -21.063 -0.084 -20.969 -0.088 -20.918 -0.105 -20.654 -0.272 15.191 0.512 2.364 0.084 44.326 43.131
1.200 -21.209 -0.125 -21.162 -0.103 -21.063 -0.086 -20.970 -0.092 -20.919 -0.109 -20.658 -0.277 15.094 0.506 2.380 0.085 44.321 43.123
1.600 -21.206 -0.131 -21.160 -0.106 -21.062 -0.086 -20.971 -0.094 -20.920 -0.113 -20.660 -0.281 14.997 0.499 2.396 0.085 44.316 43.112
2.000 -21.202 -0.136 -21.157 -0.108 -21.061 -0.086 -20.971 -0.096 -20.921 -0.116 -20.663 -0.286 14.882 0.489 2.415 0.085 44.309 43.098
2.400 -21.198 -0.141 -21.154 -0.110 -21.059 -0.084 -20.970 -0.097 -20.920 -0.119 -20.664 -0.291 14.788 0.481 2.429 0.085 44.303 43.086
2.800 -21.193 -0.145 -21.150 -0.111 -21.057 -0.081 -20.969 -0.098 -20.920 -0.121 -20.666 -0.296 14.650 0.468 2.451 0.085 44.295 43.067
3.200 -21.187 -0.149 -21.145 -0.111 -21.054 -0.078 -20.967 -0.097 -20.918 -0.123 -20.666 -0.301 14.529 0.457 2.470 0.084 44.287 43.050
3.600 -21.181 -0.153 -21.140 -0.111 -21.050 -0.073 -20.964 -0.096 -20.916 -0.124 -20.666 -0.306 14.446 0.448 2.482 0.084 44.282 43.037
4.000 -21.174 -0.156 -21.134 -0.111 -21.046 -0.067 -20.961 -0.095 -20.914 -0.125 -20.666 -0.310 14.284 0.435 2.509 0.084 44.271 43.015
4.400 -21.167 -0.160 -21.127 -0.110 -21.041 -0.060 -20.958 -0.093 -20.911 -0.126 -20.665 -0.316 14.212 0.429 2.518 0.083 44.265 43.004
4.800 -21.159 -0.163 -21.120 -0.109 -21.035 -0.051 -20.953 -0.091 -20.907 -0.127 -20.663 -0.321 14.040 0.417 2.546 0.084 44.254 42.982
5.200 -21.150 -0.166 -21.112 -0.109 -21.029 -0.042 -20.948 -0.090 -20.903 -0.129 -20.661 -0.326 13.920 0.412 2.565 0.084 44.246 42.968
5.600 -21.140 -0.170 -21.104 -0.109 -21.023 -0.031 -20.943 -0.089 -20.898 -0.130 -20.658 -0.331 13.803 0.409 2.582 0.085 44.237 42.957
6.000 -21.130 -0.174 -21.095 -0.110 -21.015 -0.020 -20.937 -0.089 -20.892 -0.132 -20.655 -0.337 13.689 0.408 2.599 0.087 44.228 42.947
6.400 -21.119 -0.178 -21.085 -0.112 -21.008 -0.011 -20.930 -0.091 -20.886 -0.135 -20.651 -0.342 13.583 0.405 2.614 0.088 44.219 42.935
6.800 -21.108 -0.183 -21.075 -0.115 -20.999 -0.014 -20.923 -0.094 -20.879 -0.139 -20.646 -0.348 13.473 0.395 2.627 0.087 44.210 42.915
7.200 -21.096 -0.188 -21.064 -0.119 -20.990 -0.026 -20.915 -0.098 -20.872 -0.144 -20.641 -0.354 13.363 0.378 2.640 0.085 44.200 42.887
7.600 -21.083 -0.194 -21.052 -0.125 -20.980 -0.040 -20.906 -0.104 -20.864 -0.150 -20.636 -0.360 13.260 0.359 2.650 0.082 44.189 42.855
8.000 -21.070 -0.201 -21.040 -0.132 -20.970 -0.055 -20.897 -0.112 -20.855 -0.156 -20.629 -0.366 13.161 0.341 2.658 0.080 44.179 42.823
8.400 -21.056 -0.208 -21.027 -0.140 -20.958 -0.070 -20.887 -0.121 -20.846 -0.164 -20.623 -0.373 13.067 0.326 2.666 0.077 44.169 42.794
8.800 -21.042 -0.216 -21.014 -0.149 -20.946 -0.085 -20.877 -0.131 -20.836 -0.172 -20.615 -0.380 12.976 0.313 2.672 0.075 44.159 42.766
9.200 -21.027 -0.224 -20.999 -0.159 -20.934 -0.100 -20.865 -0.142 -20.825 -0.181 -20.608 -0.386 12.887 0.301 2.678 0.074 44.149 42.739
9.600 -21.011 -0.233 -20.984 -0.170 -20.921 -0.115 -20.853 -0.154 -20.814 -0.191 -20.599 -0.394 12.799 0.290 2.682 0.072 44.139 42.713
10.000 -20.994 -0.242 -20.969 -0.181 -20.907 -0.131 -20.841 -0.166 -20.802 -0.202 -20.590 -0.401 12.713 0.279 2.686 0.070 44.128 42.685
10.400 -20.977 -0.252 -20.953 -0.193 -20.892 -0.146 -20.828 -0.179 -20.790 -0.213 -20.581 -0.409 12.627 0.268 2.690 0.068 44.117 42.657
10.800 -20.960 -0.262 -20.936 -0.205 -20.877 -0.161 -20.814 -0.192 -20.777 -0.224 -20.571 -0.416 12.542 0.257 2.693 0.066 44.107 42.628
11.200 -20.942 -0.273 -20.919 -0.217 -20.861 -0.177 -20.800 -0.206 -20.763 -0.236 -20.560 -0.424 12.457 0.245 2.695 0.064 44.096 42.597
11.600 -20.923 -0.283 -20.901 -0.230 -20.845 -0.192 -20.785 -0.219 -20.749 -0.248 -20.549 -0.432 12.372 0.234 2.697 0.062 44.084 42.565
12.000 -20.904 -0.294 -20.883 -0.243 -20.828 -0.207 -20.769 -0.233 -20.734 -0.260 -20.537 -0.441 12.288 0.222 2.699 0.059 44.073 42.531
12.400 -20.884 -0.306 -20.864 -0.256 -20.811 -0.222 -20.753 -0.246 -20.718 -0.273 -20.525 -0.449 12.204 0.210 2.700 0.057 44.061 42.496
12.800 -20.864 -0.317 -20.844 -0.269 -20.793 -0.237 -20.736 -0.260 -20.702 -0.285 -20.512 -0.458 12.120 0.198 2.700 0.054 44.050 42.458
13.200 -20.843 -0.328 -20.824 -0.282 -20.774 -0.252 -20.719 -0.273 -20.686 -0.298 -20.499 -0.466 12.036 0.186 2.701 0.052 44.038 42.419
13.600 -20.821 -0.340 -20.804 -0.295 -20.755 -0.266 -20.702 -0.287 -20.669 -0.310 -20.486 -0.475 11.953 0.174 2.700 0.049 44.026 42.377
14.000 -20.799 -0.351 -20.783 -0.308 -20.736 -0.281 -20.683 -0.300 -20.652 -0.323 -20.471 -0.484 11.870 0.162 2.700 0.046 44.013 42.334
14.400 -20.777 -0.363 -20.761 -0.321 -20.716 -0.295 -20.665 -0.314 -20.634 -0.335 -20.457 -0.492 11.787 0.150 2.699 0.043 44.001 42.288
14.800 -20.754 -0.374 -20.739 -0.334 -20.695 -0.309 -20.646 -0.327 -20.615 -0.348 -20.442 -0.501 11.705 0.138 2.698 0.040 43.988 42.240
15.200 -20.731 -0.385 -20.717 -0.346 -20.674 -0.322 -20.626 -0.340 -20.596 -0.360 -20.426 -0.510 11.623 0.127 2.696 0.037 43.976 42.190
15.600 -20.707 -0.397 -20.694 -0.359 -20.653 -0.336 -20.606 -0.352 -20.577 -0.372 -20.410 -0.519 11.542 0.116 2.694 0.034 43.963 42.137
16.000 -20.683 -0.408 -20.670 -0.371 -20.631 -0.349 -20.585 -0.365 -20.557 -0.384 -20.394 -0.527 11.462 0.105 2.691 0.032 43.950 42.082
16.400 -20.659 -0.419 -20.647 -0.383 -20.609 -0.361 -20.565 -0.377 -20.537 -0.395 -20.377 -0.536 11.382 0.095 2.688 0.029 43.937 42.025
16.800 -20.634 -0.429 -20.623 -0.395 -20.586 -0.374 -20.543 -0.389 -20.517 -0.407 -20.360 -0.544 11.303 0.086 2.685 0.026 43.923 41.967
17.200 -20.608 -0.440 -20.598 -0.406 -20.563 -0.386 -20.522 -0.401 -20.496 -0.418 -20.343 -0.553 11.225 0.077 2.681 0.024 43.910 41.908
17.600 -20.583 -0.450 -20.573 -0.417 -20.540 -0.398 -20.499 -0.412 -20.474 -0.429 -20.325 -0.561 11.148 0.070 2.676 0.022 43.897 41.850
18.000 -20.557 -0.460 -20.548 -0.428 -20.516 -0.409 -20.477 -0.423 -20.452 -0.440 -20.307 -0.569 11.072 0.064 2.672 0.020 43.883 41.795
18.400 -20.530 -0.470 -20.522 -0.439 -20.492 -0.421 -20.454 -0.434 -20.430 -0.450 -20.288 -0.577 10.996 0.059 2.666 0.019 43.870 41.748
18.800 -20.503 -0.480 -20.496 -0.449 -20.467 -0.431 -20.431 -0.445 -20.408 -0.460 -20.269 -0.585 10.922 0.056 2.661 0.018 43.856 41.711
19.200 -20.476 -0.489 -20.470 -0.459 -20.442 -0.442 -20.407 -0.455 -20.385 -0.470 -20.250 -0.592 10.848 0.055 2.655 0.018 43.842 41.688
19.600 -20.449 -0.498 -20.443 -0.469 -20.417 -0.452 -20.383 -0.465 -20.362 -0.479 -20.230 -0.600 10.776 0.056 2.649 0.018 43.829 41.680
20.000 -20.421 -0.507 -20.416 -0.478 -20.392 -0.462 -20.359 -0.474 -20.338 -0.489 -20.210 -0.607 10.704 0.058 2.642 0.019 43.815 41.684
20.400 -20.393 -0.515 -20.389 -0.487 -20.366 -0.471 -20.335 -0.483 -20.315 -0.497 -20.190 -0.614 10.633 0.062 2.635 0.021 43.801 41.697
20.800 -20.365 -0.523 -20.361 -0.495 -20.340 -0.480 -20.310 -0.492 -20.291 -0.506 -20.169 -0.621 10.563 0.067 2.627 0.023 43.787 41.714
21.200 -20.336 -0.531 -20.334 -0.504 -20.314 -0.488 -20.285 -0.500 -20.266 -0.514 -20.148 -0.627 10.495 0.072 2.619 0.025 43.773 41.733
21.600 -20.307 -0.538 -20.306 -0.511 -20.287 -0.496 -20.260 -0.508 -20.242 -0.521 -20.127 -0.633 10.427 0.078 2.611 0.027 43.759 41.753
22.000 -20.278 -0.545 -20.277 -0.519 -20.260 -0.504 -20.234 -0.515 -20.217 -0.529 -20.106 -0.639 10.360 0.085 2.603 0.029 43.745 41.771
22.400 -20.248 -0.552 -20.249 -0.526 -20.233 -0.511 -20.208 -0.523 -20.192 -0.536 -20.084 -0.645 10.293 0.091 2.594 0.032 43.731 41.787
22.800 -20.219 -0.558 -20.220 -0.532 -20.206 -0.518 -20.182 -0.529 -20.166 -0.542 -20.063 -0.650 10.228 0.098 2.585 0.034 43.717 41.802
23.200 -20.189 -0.564 -20.191 -0.538 -20.178 -0.524 -20.156 -0.535 -20.141 -0.548 -20.041 -0.655 10.164 0.104 2.575 0.037 43.703 41.814
23.600 -20.159 -0.569 -20.162 -0.544 -20.150 -0.530 -20.130 -0.541 -20.115 -0.554 -20.018 -0.660 10.101 0.111 2.565 0.040 43.689 41.825
24.000 -20.129 -0.574 -20.132 -0.549 -20.122 -0.536 -20.103 -0.547 -20.089 -0.559 -19.996 -0.664 10.038 0.117 2.555 0.042 43.674 41.834
24.400 -20.098 -0.579 -20.103 -0.554 -20.094 -0.541 -20.076 -0.552 -20.063 -0.564 -19.973 -0.668 9.977 0.124 2.545 0.045 43.660 41.841
24.800 -20.068 -0.583 -20.073 -0.559 -20.066 -0.545 -20.049 -0.556 -20.037 -0.569 -19.950 -0.672 9.916 0.130 2.535 0.047 43.646 41.847
25.200 -20.037 -0.587 -20.043 -0.563 -20.037 -0.549 -20.022 -0.560 -20.010 -0.573 -19.927 -0.675 9.856 0.136 2.524 0.050 43.632 41.851
25.600 -20.006 -0.590 -20.013 -0.566 -20.009 -0.553 -19.994 -0.564 -19.983 -0.576 -19.904 -0.679 9.797 0.142 2.513 0.053 43.618 41.854
26.000 -19.975 -0.593 -19.982 -0.569 -19.980 -0.556 -19.967 -0.567 -19.957 -0.579 -19.881 -0.681 9.739 0.148 2.502 0.055 43.603 41.856
26.400 -19.944 -0.596 -19.952 -0.572 -19.951 -0.559 -19.939 -0.570 -19.930 -0.582 -19.857 -0.684 9.681 0.154 2.491 0.058 43.589 41.856
26.800 -19.912 -0.598 -19.921 -0.574 -19.922 -0.561 -19.912 -0.572 -19.903 -0.584 -19.834 -0.686 9.625 0.160 2.479 0.060 43.575 41.855
27.200 -19.881 -0.600 -19.891 -0.576 -19.893 -0.563 -19.884 -0.574 -19.876 -0.586 -19.810 -0.687 9.569 0.165 2.468 0.063 43.561 41.854
27.600 -19.849 -0.601 -19.860 -0.577 -19.864 -0.565 -19.856 -0.575 -19.848 -0.587 -19.786 -0.689 9.514 0.170 2.456 0.065 43.547 41.851
28.000 -19.818 -0.602 -19.829 -0.578 -19.834 -0.565 -19.828 -0.576 -19.821 -0.588 -19.762 -0.690 9.460 0.176 2.444 0.067 43.533 41.848
28.400 -19.786 -0.603 -19.798 -0.579 -19.805 -0.566 -19.799 -0.577 -19.793 -0.589 -19.738 -0.691 9.406 0.181 2.432 0.070 43.518 41.844
28.800 -19.754 -0.603 -19.767 -0.579 -19.775 -0.566 -19.771 -0.577 -19.766 -0.589 -19.714 -0.691 9.353 0.186 2.420 0.072 43.504 41.839
29.200 -19.722 -0.602 -19.736 -0.578 -19.746 -0.565 -19.743 -0.576 -19.738 -0.588 -19.690 -0.691 9.301 0.191 2.408 0.074 43.490 41.834
29.600 -19.690 -0.602 -19.705 -0.577 -19.716 -0.564 -19.715 -0.575 -19.711 -0.588 -19.666 -0.690 9.250 0.195 2.396 0.076 43.476 41.828
30.000 -19.658 -0.600 -19.674 -0.576 -19.686 -0.563 -19.686 -0.574 -19.683 -0.586 -19.642 -0.690 9.200 0.200 2.383 0.079 43.462 41.822
30.400 -19.626 -0.599 -19.643 -0.574 -19.657 -0.561 -19.658 -0.572 -19.655 -0.585 -19.618 -0.689 9.150 0.204 2.371 0.081 43.448 41.815
30.800 -19.594 -0.597 -19.612 -0.572 -19.627 -0.558 -19.630 -0.570 -19.628 -0.582 -19.594 -0.687 9.100 0.209 2.359 0.083 43.434 41.807
31.200 -19.562 -0.594 -19.581 -0.569 -19.597 -0.555 -19.601 -0.567 -19.600 -0.580 -19.569 -0.685 9.052 0.213 2.346 0.085 43.421 41.799
31.600 -19.530 -0.591 -19.549 -0.566 -19.568 -0.552 -19.573 -0.564 -19.572 -0.577 -19.545 -0.683 9.004 0.217 2.334 0.087 43.407 41.791
32.000 -19.498 -0.588 -19.518 -0.562 -19.538 -0.548 -19.544 -0.560 -19.545 -0.573 -19.521 -0.681 8.957 0.221 2.321 0.089 43.393 41.782
32.400 -19.466 -0.584 -19.487 -0.558 -19.508 -0.544 -19.516 -0.556 -19.517 -0.569 -19.497 -0.678 8.910 0.225 2.309 0.091 43.379 41.772
32.800 -19.434 -0.580 -19.456 -0.553 -19.479 -0.539 -19.488 -0.551 -19.489 -0.565 -19.472 -0.675 8.865 0.228 2.297 0.093 43.366 41.763
33.200 -19.402 -0.575 -19.425 -0.548 -19.449 -0.534 -19.459 -0.546 -19.462 -0.560 -19.448 -0.671 8.819 0.232 2.284 0.095 43.352 41.753
33.600 -19.371 -0.570 -19.394 -0.543 -19.420 -0.528 -19.431 -0.541 -19.434 -0.555 -19.424 -0.668 8.775 0.235 2.272 0.096 43.338 41.743
34.000 -19.339 -0.565 -19.363 -0.537 -19.390 -0.522 -19.403 -0.535 -19.407 -0.549 -19.400 -0.664 8.731 0.239 2.259 0.098 43.325 41.732
34.400 -19.307 -0.559 -19.332 -0.531 -19.361 -0.515 -19.375 -0.529 -19.379 -0.543 -19.376 -0.659 8.688 0.242 2.247 0.100 43.312 41.721
34.800 -19.275 -0.553 -19.301 -0.524 -19.331 -0.508 -19.347 -0.522 -19.352 -0.537 -19.352 -0.654 8.645 0.245 2.235 0.102 43.298 41.710
35.200 -19.244 -0.547 -19.271 -0.517 -19.302 -0.501 -19.319 -0.515 -19.325 -0.530 -19.328 -0.649 8.603 0.248 2.222 0.103 43.285 41.699
35.600 -19.212 -0.540 -19.240 -0.509 -19.273 -0.493 -19.291 -0.507 -19.298 -0.523 -19.305 -0.644 8.562 0.251 2.210 0.105 43.272 41.687
36.000 -19.181 -0.532 -19.209 -0.501 -19.244 -0.485 -19.263 -0.499 -19.271 -0.515 -19.281 -0.639 8.521 0.254 2.198 0.106 43.259 41.676
36.400 -19.150 -0.525 -19.179 -0.493 -19.215 -0.476 -19.236 -0.491 -19.244 -0.507 -19.258 -0.633 8.481 0.257 2.186 0.108 43.246 41.664
36.800 -19.118 -0.517 -19.149 -0.484 -19.186 -0.467 -19.208 -0.482 -19.217 -0.498 -19.234 -0.627 8.441 0.260 2.174 0.109 43.233 41.651
37.200 -19.087 -0.509 -19.119 -0.475 -19.158 -0.457 -19.181 -0.472 -19.190 -0.490 -19.211 -0.621 8.402 0.262 2.162 0.111 43.220 41.639
37.600 -19.056 -0.500 -19.089 -0.466 -19.129 -0.447 -19.154 -0.463 -19.164 -0.480 -19.188 -0.614 8.364 0.265 2.150 0.112 43.207 41.626
38.000 -19.026 -0.492 -19.059 -0.456 -19.101 -0.436 -19.127 -0.453 -19.138 -0.471 -19.165 -0.608 8.327 0.267 2.138 0.114 43.195 41.613
38.400 -18.995 -0.482 -19.029 -0.446 -19.073 -0.425 -19.100 -0.443 -19.111 -0.461 -19.142 -0.601 8.290 0.269 2.126 0.115 43.182 41.600
38.800 -18.965 -0.473 -19.000 -0.435 -19.045 -0.414 -19.073 -0.432 -19.085 -0.451 -19.120 -0.594 8.253 0.271 2.115 0.116 43.170 41.587
39.200 -18.935 -0.464 -18.970 -0.424 -19.017 -0.403 -19.047 -0.421 -19.060 -0.441 -19.097 -0.586 8.218 0.273 2.103 0.117 43.157 41.574
39.600 -18.904 -0.454 -18.941 -0.413 -18.990 -0.390 -19.021 -0.409 -19.034 -0.430 -19.075 -0.579 8.183 0.275 2.091 0.118 43.145 41.560
40.000 -18.875 -0.444 -18.912 -0.402 -18.962 -0.378 -18.995 -0.398 -19.009 -0.419 -19.053 -0.572 8.148 0.277 2.080 0.120 43.133 41.547
40.400 -18.845 -0.434 -18.883 -0.390 -18.935 -0.365 -18.969 -0.386 -18.984 -0.408 -19.032 -0.564 8.114 0.279 2.069 0.121 43.121 41.533
40.800 -18.816 -0.423 -18.855 -0.378 -18.908 -0.352 -18.943 -0.373 -18.959 -0.396 -19.010 -0.556 8.081 0.281 2.057 0.122 43.109 41.519
41.200 -18.786 -0.413 -18.827 -0.366 -18.882 -0.339 -18.918 -0.361 -18.934 -0.384 -18.989 -0.549 8.049 0.282 2.046 0.123 43.098 41.505
41.600 -18.758 -0.402 -18.799 -0.354 -18.855 -0.325 -18.893 -0.348 -18.910 -0.373 -18.968 -0.541 8.017 0.283 2.035 0.123 43.086 41.490
42.000 -18.729 -0.392 -18.771 -0.341 -18.829 -0.311 -18.868 -0.335 -18.886 -0.361 -18.947 -0.533 7.985 0.285 2.024 0.124 43.074 41.476
42.400 -18.700 -0.381 -18.744 -0.328 -18.803 -0.296 -18.843 -0.322 -18.862 -0.348 -18.926 -0.525 7.955 0.286 2.013 0.125 43.063 41.461
42.800 -18.672 -0.371 -18.716 -0.316 -18.778 -0.282 -18.819 -0.308 -18.838 -0.336 -18.906 -0.517 7.925 0.287 2.002 0.126 43.052 41.446
43.200 -18.644 -0.360 -18.689 -0.303 -18.752 -0.267 -18.795 -0.295 -18.815 -0.324 -18.886 -0.509 7.895 0.288 1.991 0.126 43.041 41.430
43.600 -18.617 -0.350 -18.663 -0.290 -18.727 -0.251 -18.772 -0.281 -18.792 -0.311 -18.867 -0.502 7.866 0.289 1.981 0.127 43.029 41.415
44.000 -18.589 -0.340 -18.636 -0.277 -18.703 -0.236 -18.748 -0.267 -18.770 -0.299 -18.847 -0.494 7.837 0.289 1.971 0.127 43.019 41.399
44.400 -18.562 -0.330 -18.610 -0.264 -18.678 -0.220 -18.725 -0.253 -18.747 -0.287 -18.828 -0.487 7.808 0.290 1.960 0.128 43.008 41.383
44.800 -18.536 -0.320 -18.585 -0.252 -18.654 -0.204 -18.702 -0.239 -18.725 -0.275 -18.809 -0.479 7.780 0.291 1.951 0.128 42.997 41.367
45.200 -18.509 -0.311 -18.559 -0.239 -18.630 -0.188 -18.680 -0.226 -18.704 -0.263 -18.791 -0.472 7.751 0.291 1.941 0.129 42.986 41.351
45.600 -18.483 -0.302 -18.534 -0.227 -18.607 -0.172 -18.658 -0.212 -18.682 -0.251 -18.773 -0.465 7.723 0.292 1.932 0.129 42.976 41.335
46.000 -18.457 -0.293 -18.510 -0.216 -18.584 -0.155 -18.636 -0.199 -18.661 -0.240 -18.755 -0.458 7.694 0.293 1.923 0.130 42.966 41.318
46.400 -18.432 -0.285 -18.485 -0.205 -18.561 -0.139 -18.615 -0.186 -18.641 -0.230 -18.738 -0.451 7.665 0.295 1.915 0.131 42.955 41.301
46.800 -18.407 -0.278 -18.461 -0.194 -18.539 -0.122 -18.594 -0.174 -18.621 -0.219 -18.721 -0.445 7.635 0.297 1.907 0.132 42.945 41.284
47.200 -18.382 -0.272 -18.438 -0.185 -18.517 -0.105 -18.574 -0.162 -18.601 -0.210 -18.704 -0.439 7.605 0.300 1.900 0.134 42.935 41.266
47.600 -18.358 -0.266 -18.414 -0.177 -18.496 -0.089 -18.554 -0.151 -18.581 -0.202 -18.688 -0.433 7.572 0.305 1.894 0.136 42.924 41.248
48.000 -18.334 -0.261 -18.392 -0.169 -18.475 -0.073 -18.534 -0.142 -18.562 -0.194 -18.672 -0.427 7.538 0.311 1.888 0.140 42.914 41.228
48.400 -18.311 -0.257 -18.369 -0.164 -18.454 -0.057 -18.515 -0.134 -18.544 -0.187 -18.657 -0.421 7.501 0.319 1.884 0.144 42.904 41.204
48.800 -18.288 -0.254 -18.347 -0.160 -18.434 -0.044 -18.496 -0.127 -18.526 -0.182 -18.642 -0.416 7.462 0.328 1.882 0.149 42.893 41.176
49.200 -18.265 -0.252 -18.326 -0.157 -18.414 -0.033 -18.477 -0.123 -18.508 -0.178 -18.627 -0.411 7.422 0.334 1.881 0.154 42.884 41.144
49.600 -18.243 -0.251 -18.305 -0.156 -18.395 -0.031 -18.459 -0.120 -18.491 -0.175 -18.613 -0.406 7.384 0.335 1.882 0.156 42.875 41.118
50.000 -18.221 -0.250 -18.284 -0.157 -18.376 -0.037 -18.442 -0.120 -18.474 -0.173 -18.599 -0.402 7.348 0.331 1.883 0.155 42.867 41.106
50.400 -18.199 -0.250 -18.264 -0.159 -18.357 -0.048 -18.425 -0.121 -18.458 -0.173 -18.586 -0.397 7.315 0.323 1.885 0.153 42.861 41.103
50.800 -18.178 -0.251 -18.244 -0.163 -18.339 -0.061 -18.408 -0.124 -18.442 -0.173 -18.573 -0.393 7.284 0.314 1.888 0.150 42.854 41.103
51.200 -18.158 -0.253 -18.224 -0.167 -18.322 -0.074 -18.392 -0.128 -18.426 -0.175 -18.560 -0.389 7.252 0.307 1.891 0.148 42.848 41.102
51.600 -18.138 -0.255 -18.206 -0.172 -18.305 -0.087 -18.377 -0.133 -18.411 -0.177 -18.548 -0.385 7.219 0.302 1.894 0.147 42.842 41.099
52.000 -18.118 -0.257 -18.187 -0.178 -18.288 -0.099 -18.362 -0.139 -18.397 -0.180 -18.536 -0.381 7.184 0.298 1.899 0.147 42.835 41.096
52.400 -18.099 -0.260 -18.169 -0.184 -18.272 -0.111 -18.347 -0.146 -18.383 -0.183 -18.525 -0.377 7.148 0.296 1.905 0.148 42.829 41.093
52.800 -18.080 -0.263 -18.152 -0.190 -18.257 -0.122 -18.333 -0.152 -18.370 -0.186 -18.514 -0.374 7.112 0.294 1.911 0.149 42.823 41.090
53.200 -18.062 -0.266 -18.135 -0.196 -18.242 -0.133 -18.319 -0.158 -18.357 -0.190 -18.504 -0.370 7.074 0.293 1.918 0.150 42.817 41.087
53.600 -18.044 -0.269 -18.118 -0.202 -18.227 -0.142 -18.306 -0.164 -18.344 -0.193 -18.494 -0.366 7.037 0.292 1.926 0.152 42.812 41.084
54.000 -18.026 -0.272 -18.102 -0.208 -18.213 -0.151 -18.293 -0.170 -18.332 -0.197 -18.485 -0.362 6.998 0.292 1.935 0.154 42.806 41.081
54.400 -18.010 -0.275 -18.086 -0.213 -18.199 -0.159 -18.281 -0.175 -18.321 -0.200 -18.476 -0.359 6.960 0.291 1.944 0.156 42.801 41.079
54.800 -17.993 -0.278 -18.071 -0.218 -18.186 -0.167 -18.270 -0.180 -18.310 -0.203 -18.468 -0.355 6.923 0.290 1.954 0.158 42.796 41.076
55.200 -17.977 -0.280 -18.057 -0.223 -18.174 -0.173 -18.259 -0.185 -18.299 -0.205 -18.460 -0.351 6.896 0.291 1.958 0.159 42.791 41.076
55.600 -17.962 -0.283 -18.043 -0.227 -18.162 -0.179 -18.248 -0.188 -18.290 -0.207 -18.453 -0.346 6.863 0.290 1.966 0.161 42.786 41.075
56.000 -17.947 -0.284 -18.029 -0.231 -18.150 -0.184 -18.238 -0.192 -18.280 -0.209 -18.446 -0.342 6.811 0.288 1.986 0.164 42.782 41.071
56.400 -17.932 -0.286 -18.016 -0.234 -18.139 -0.189 -18.228 -0.194 -18.271 -0.210 -18.439 -0.337 6.784 0.288 1.992 0.165 42.777 41.071
56.800 -17.918 -0.287 -18.003 -0.236 -18.129 -0.192 -18.219 -0.196 -18.263 -0.210 -18.434 -0.332 6.737 0.285 2.010 0.168 42.773 41.068
57.200 -17.904 -0.288 -17.991 -0.238 -18.119 -0.195 -18.211 -0.197 -18.255 -0.210 -18.428 -0.327 6.711 0.285 2.017 0.169 42.770 41.068
57.600 -17.891 -0.288 -17.980 -0.239 -18.110 -0.197 -18.203 -0.198 -18.248 -0.210 -18.423 -0.322 6.666 0.282 2.036 0.171 42.766 41.066
58.000 -17.879 -0.288 -17.969 -0.240 -18.101 -0.198 -18.196 -0.198 -18.242 -0.209 -18.419 -0.316 6.640 0.282 2.044 0.173 42.763 41.065
58.400 -17.867 -0.287 -17.958 -0.240 -18.093 -0.198 -18.189 -0.197 -18.236 -0.207 -18.415 -0.310 6.597 0.279 2.064 0.175 42.760 41.064
58.800 -17.855 -0.286 -17.948 -0.240 -18.085 -0.198 -18.183 -0.196 -18.230 -0.205 -18.411 -0.304 6.571 0.278 2.074 0.176 42.757 41.063
59.200 -17.844 -0.284 -17.939 -0.239 -18.078 -0.197 -18.177 -0.194 -18.225 -0.202 -18.408 -0.298 6.539 0.276 2.088 0.177 42.754 41.062
59.600 -17.834 -0.282 -17.930 -0.237 -18.071 -0.195 -18.172 -0.191 -18.221 -0.199 -18.406 -0.291 6.506 0.273 2.103 0.179 42.752 41.061
60.000 -17.824 -0.280 -17.921 -0.235 -18.065 -0.193 -18.168 -0.188 -18.217 -0.195 -18.404 -0.285 6.472 0.271 2.120 0.180 42.750 41.060
60.400 -17.814 -0.277 -17.914 -0.233 -18.060 -0.190 -18.164 -0.184 -18.214 -0.190 -18.403 -0.278 6.439 0.268 2.137 0.181 42.748 41.059
60.800 -17.805 -0.274 -17.906 -0.229 -18.055 -0.187 -18.161 -0.180 -18.211 -0.186 -18.402 -0.270 6.407 0.266 2.154 0.182 42.746 41.057
61.200 -17.797 -0.270 -17.899 -0.226 -18.050 -0.183 -18.158 -0.175 -18.209 -0.180 -18.401 -0.263 6.374 0.263 2.173 0.183 42.745 41.055
61.600 -17.789 -0.266 -17.893 -0.222 -18.047 -0.179 -18.156 -0.170 -18.207 -0.175 -18.401 -0.256 6.343 0.259 2.191 0.184 42.743 41.053
62.000 -17.781 -0.261 -17.887 -0.217 -18.044 -0.174 -18.154 -0.164 -18.207 -0.169 -18.402 -0.248 6.311 0.256 2.211 0.185 42.742 41.051
62.400 -17.774 -0.257 -17.882 -0.213 -18.041 -0.168 -18.153 -0.158 -18.206 -0.162 -18.402 -0.241 6.281 0.253 2.231 0.186 42.742 41.048
62.800 -17.768 -0.252 -17.878 -0.207 -18.039 -0.163 -18.153 -0.152 -18.206 -0.156 -18.404 -0.233 6.250 0.249 2.251 0.186 42.741 41.045
63.200 -17.762 -0.247 -17.874 -0.202 -18.038 -0.157 -18.153 -0.146 -18.207 -0.149 -18.406 -0.226 6.221 0.245 2.272 0.186 42.741 41.042
63.600 -17.756 -0.241 -17.870 -0.196 -18.037 -0.151 -18.154 -0.139 -18.209 -0.143 -18.408 -0.219 6.192 0.241 2.293 0.186 42.741 41.038
64.000 -17.752 -0.236 -17.867 -0.190 -18.037 -0.145 -18.155 -0.133 -18.211 -0.136 -18.411 -0.212 6.164 0.236 2.315 0.186 42.741 41.033
64.400 -17.747 -0.230 -17.865 -0.184 -18.037 -0.139 -18.157 -0.127 -18.213 -0.130 -18.414 -0.205 6.135 0.232 2.338 0.185 42.742 41.029
64.800 -17.743 -0.224 -17.863 -0.178 -18.038 -0.133 -18.160 -0.120 -18.216 -0.124 -18.417 -0.199 6.109 0.227 2.360 0.184 42.743 41.024
65.200 -17.740 -0.218 -17.861 -0.172 -18.040 -0.127 -18.163 -0.115 -18.220 -0.119 -18.421 -0.193 6.085 0.222 2.382 0.183 42.744 41.019
65.600 -17.737 -0.212 -17.861 -0.166 -18.042 -0.121 -18.167 -0.110 -18.224 -0.115 -18.425 -0.188 6.061 0.216 2.404 0.181 42.745 41.015
66.000 -17.734 -0.207 -17.860 -0.160 -18.044 -0.116 -18.171 -0.106 -18.229 -0.111 -18.430 -0.184 6.039 0.210 2.425 0.180 42.746 41.011
66.400 -17.732 -0.201 -17.860 -0.154 -18.048 -0.112 -18.176 -0.103 -18.234 -0.108 -18.434 -0.181 6.018 0.204 2.447 0.177 42.748 41.009
66.800 -17.731 -0.195 -17.861 -0.149 -18.052 -0.108 -18.181 -0.101 -18.240 -0.106 -18.440 -0.178 5.998 0.198 2.469 0.175 42.750 41.008
67.200 -17.730 -0.190 -17.862 -0.143 -18.056 -0.104 -18.187 -0.099 -18.246 -0.106 -18.445 -0.176 5.980 0.191 2.489 0.172 42.752 41.008
67.600 -17.729 -0.185 -17.864 -0.138 -18.061 -0.101 -18.194 -0.099 -18.253 -0.106 -18.451 -0.176 5.964 0.185 2.510 0.169 42.754 41.008
68.000 -17.729 -0.181 -17.866 -0.133 -18.066 -0.099 -18.200 -0.099 -18.260 -0.106 -18.456 -0.176 5.949 0.178 2.530 0.165 42.757 41.008
68.400 -17.730 -0.177 -17.869 -0.129 -18.072 -0.097 -18.207 -0.099 -18.267 -0.107 -18.462 -0.177 5.935 0.172 2.549 0.162 42.759 41.008
68.800 -17.730 -0.173 -17.872 -0.125 -18.078 -0.095 -18.215 -0.100 -18.274 -0.109 -18.468 -0.178 5.922 0.165 2.568 0.158 42.762 41.006
69.200 -17.731 -0.170 -17.876 -0.121 -18.085 -0.093 -18.222 -0.100 -18.282 -0.110 -18.474 -0.181 5.910 0.159 2.586 0.154 42.764 41.003
69.600 -17.733 -0.167 -17.880 -0.118 -18.092 -0.091 -18.230 -0.101 -18.289 -0.111 -18.480 -0.183 5.898 0.152 2.605 0.149 42.767 40.998
70.000 -17.734 -0.165 -17.884 -0.116 -18.099 -0.089 -18.237 -0.101 -18.297 -0.112 -18.486 -0.186 5.887 0.146 2.623 0.145 42.770 40.991
70.400 -17.736 -0.164 -17.889 -0.114 -18.106 -0.087 -18.245 -0.101 -18.305 -0.113 -18.492 -0.189 5.877 0.140 2.641 0.141 42.773 40.981
70.800 -17.738 -0.163 -17.893 -0.112 -18.113 -0.084 -18.253 -0.100 -18.312 -0.114 -18.497 -0.192 5.866 0.133 2.659 0.136 42.775 40.970
71.200 -17.739 -0.162 -17.898 -0.110 -18.120 -0.081 -18.260 -0.099 -18.319 -0.114 -18.502 -0.195 5.855 0.127 2.677 0.131 42.778 40.957
71.600 -17.740 -0.161 -17.902 -0.108 -18.127 -0.077 -18.267 -0.098 -18.326 -0.114 -18.507 -0.198 5.844 0.121 2.695 0.127 42.781 40.941
72.000 -17.741 -0.161 -17.906 -0.107 -18.133 -0.072 -18.274 -0.096 -18.332 -0.113 -18.511 -0.200 5.832 0.116 2.713 0.122 42.783 40.924
72.400 -17.742 -0.161 -17.909 -0.106 -18.139 -0.067 -18.279 -0.093 -18.338 -0.112 -18.515 -0.203 5.819 0.111 2.731 0.118 42.785 40.906
72.800 -17.742 -0.162 -17.911 -0.104 -18.144 -0.062 -18.285 -0.090 -18.343 -0.111 -18.518 -0.205 5.806 0.106 2.749 0.114 42.787 40.887
73.200 -17.741 -0.162 -17.913 -0.104 -18.148 -0.056 -18.289 -0.088 -18.347 -0.110 -18.521 -0.207 5.793 0.101 2.766 0.110 42.788 40.868
73.600 -17.739 -0.163 -17.913 -0.103 -18.151 -0.050 -18.292 -0.085 -18.350 -0.109 -18.523 -0.209 5.778 0.098 2.784 0.107 42.789 40.850
74.000 -17.736 -0.165 -17.913 -0.103 -18.153 -0.043 -18.294 -0.082 -18.352 -0.107 -18.524 -0.211 5.763 0.095 2.801 0.105 42.790 40.833
74.400 -17.733 -0.166 -17.911 -0.104 -18.154 -0.038 -18.295 -0.080 -18.353 -0.106 -18.525 -0.212 5.749 0.092 2.816 0.104 42.790 40.818
74.800 -17.728 -0.168 -17.908 -0.105 -18.153 -0.034 -18.295 -0.078 -18.352 -0.105 -18.525 -0.213 5.732 0.090 2.833 0.102 42.790 40.810
75.200 -17.722 -0.170 -17.904 -0.107 -18.150 -0.033 -18.293 -0.077 -18.351 -0.104 -18.524 -0.214 5.716 0.089 2.847 0.102 42.790 40.806
75.600 -17.716 -0.172 -17.899 -0.110 -18.146 -0.036 -18.290 -0.076 -18.348 -0.104 -18.523 -0.214 5.702 0.087 2.859 0.101 42.789 40.807
76.000 -17.708 -0.175 -17.892 -0.113 -18.140 -0.042 -18.285 -0.077 -18.344 -0.104 -18.521 -0.214 5.688 0.087 2.869 0.101 42.788 40.813
76.400 -17.699 -0.178 -17.884 -0.117 -18.133 -0.049 -18.279 -0.078 -18.339 -0.104 -18.518 -0.214 5.675 0.087 2.877 0.102 42.786 40.820
76.800 -17.689 -0.181 -17.874 -0.122 -18.124 -0.057 -18.272 -0.080 -18.332 -0.104 -18.514 -0.214 5.661 0.088 2.884 0.103 42.784 40.831
77.200 -17.677 -0.184 -17.863 -0.126 -18.114 -0.064 -18.263 -0.083 -18.324 -0.105 -18.510 -0.213 5.646 0.089 2.889 0.105 42.782 40.844
77.600 -17.665 -0.188 -17.851 -0.131 -18.103 -0.072 -18.254 -0.085 -18.316 -0.105 -18.505 -0.212 5.631 0.092 2.895 0.108 42.778 40.858
78.000 -17.652 -0.191 -17.839 -0.136 -18.091 -0.079 -18.243 -0.088 -18.306 -0.106 -18.500 -0.211 5.615 0.094 2.900 0.112 42.775 40.875
78.400 -17.638 -0.194 -17.825 -0.141 -18.077 -0.085 -18.231 -0.091 -18.296 -0.107 -18.493 -0.210 5.599 0.097 2.905 0.117 42.771 40.893
78.800 -17.624 -0.198 -17.810 -0.146 -18.063 -0.092 -18.219 -0.094 -18.284 -0.108 -18.487 -0.208 5.581 0.101 2.910 0.122 42.767 40.911
79.200 -17.608 -0.201 -17.795 -0.150 -18.049 -0.097 -18.206 -0.096 -18.272 -0.109 -18.480 -0.206 5.563 0.105 2.914 0.127 42.763 40.931
79.600 -17.592 -0.204 -17.778 -0.154 -18.033 -0.103 -18.192 -0.099 -18.260 -0.110 -18.472 -0.204 5.544 0.109 2.919 0.133 42.759 40.950
80.000 -17.576 -0.206 -17.762 -0.158 -18.017 -0.107 -18.178 -0.101 -18.247 -0.110 -18.464 -0.202 5.524 0.113 2.925 0.139 42.754 40.969
80.400 -17.559 -0.209 -17.745 -0.162 -18.001 -0.111 -18.163 -0.103 -18.233 -0.111 -18.456 -0.200 5.504 0.117 2.930 0.145 42.749 40.988
80.800 -17.541 -0.211 -17.727 -0.165 -17.985 -0.115 -18.149 -0.105 -18.220 -0.112 -18.447 -0.197 5.483 0.122 2.936 0.152 42.744 41.007
81.200 -17.524 -0.213 -17.710 -0.167 -17.968 -0.118 -18.134 -0.107 -18.206 -0.112 -18.439 -0.195 5.462 0.126 2.943 0.159 42.740 41.025
81.600 -17.506 -0.214 -17.692 -0.170 -17.951 -0.121 -18.119 -0.108 -18.192 -0.113 -18.430 -0.192 5.440 0.130 2.950 0.165 42.735 41.042
82.000 -17.488 -0.215 -17.674 -0.172 -17.935 -0.123 -18.104 -0.109 -18.178 -0.113 -18.421 -0.189 5.418 0.134 2.958 0.172 42.730 41.058
82.400 -17.470 -0.216 -17.657 -0.173 -17.918 -0.125 -18.089 -0.110 -18.164 -0.113 -18.413 -0.186 5.396 0.138 2.966 0.178 42.726 41.074
82.800 -17.453 -0.216 -17.639 -0.174 -17.902 -0.126 -18.074 -0.111 -18.151 -0.113 -18.404 -0.183 5.374 0.141 2.975 0.185 42.721 41.088
83.200 -17.435 -0.217 -17.622 -0.175 -17.886 -0.128 -18.060 -0.111 -18.138 -0.113 -18.396 -0.181 5.352 0.144 2.984 0.191 42.717 41.102
83.600 -17.418 -0.216 -17.605 -0.175 -17.871 -0.129 -18.047 -0.112 -18.125 -0.113 -18.388 -0.178 5.331 0.147 2.994 0.197 42.713 41.115
84.000 -17.401 -0.216 -17.589 -0.175 -17.856 -0.129 -18.034 -0.112 -18.113 -0.113 -18.380 -0.175 5.309 0.150 3.005 0.202 42.709 41.127
84.400 -17.385 -0.215 -17.573 -0.175 -17.842 -0.130 -18.021 -0.113 -18.101 -0.113 -18.373 -0.173 5.288 0.152 3.017 0.207 42.705 41.138
84.800 -17.369 -0.214 -17.558 -0.174 -17.829 -0.130 -18.010 -0.113 -18.091 -0.113 -18.366 -0.171 5.272 0.153 3.022 0.211 42.701 41.148
85.200 -17.354 -0.212 -17.544 -0.173 -17.816 -0.130 -17.999 -0.114 -18.081 -0.114 -18.360 -0.169 5.254 0.155 3.032 0.215 42.698 41.157
85.600 -17.340 -0.211 -17.530 -0.172 -17.805 -0.130 -17.989 -0.114 -18.072 -0.114 -18.354 -0.168 5.236 0.155 3.044 0.219 42.696 41.166
86.000 -17.327 -0.209 -17.518 -0.171 -17.794 -0.130 -17.980 -0.115 -18.064 -0.115 -18.349 -0.167 5.218 0.156 3.056 0.222 42.693 41.174
86.400 -17.314 -0.207 -17.506 -0.169 -17.785 -0.130 -17.973 -0.115 -18.057 -0.115 -18.345 -0.166 5.201 0.156 3.068 0.224 42.691 41.182
86.800 -17.303 -0.204 -17.495 -0.167 -17.777 -0.129 -17.966 -0.116 -18.051 -0.115 -18.342 -0.167 5.186 0.156 3.079 0.227 42.689 41.189
87.200 -17.293 -0.202 -17.486 -0.165 -17.769 -0.128 -17.960 -0.116 -18.046 -0.116 -18.339 -0.168 5.173 0.155 3.089 0.228 42.688 41.195
87.600 -17.283 -0.200 -17.478 -0.163 -17.763 -0.127 -17.955 -0.115 -18.041 -0.116 -18.337 -0.169 5.161 0.155 3.099 0.230 42.686 41.200
88.000 -17.275 -0.197 -17.471 -0.160 -17.758 -0.125 -17.952 -0.115 -18.038 -0.116 -18.336 -0.171 5.152 0.154 3.107 0.230 42.685 41.204
88.400 -17.269 -0.194 -17.466 -0.158 -17.755 -0.124 -17.949 -0.114 -18.036 -0.115 -18.336 -0.174 5.144 0.153 3.113 0.231 42.684 41.206
88.800 -17.263 -0.192 -17.461 -0.155 -17.752 -0.122 -17.947 -0.113 -18.035 -0.115 -18.336 -0.177 5.138 0.152 3.119 0.231 42.684 41.208
89.200 -17.260 -0.190 -17.459 -0.153 -17.751 -0.120 -17.947 -0.112 -18.035 -0.115 -18.337 -0.180 5.133 0.151 3.123 0.230 42.684 41.209
89.600 -17.257 -0.187 -17.457 -0.150 -17.751 -0.118 -17.947 -0.111 -18.036 -0.114 -18.339 -0.183 5.131 0.150 3.125 0.229 42.684 41.209
90.000 -17.256 -0.186 -17.458 -0.148 -17.751 -0.116 -17.949 -0.109 -18.037 -0.113 -18.341 -0.187 5.131 0.149 3.127 0.228 42.684 41.209
90.400 -17.257 -0.184 -17.459 -0.146 -17.753 -0.114 -17.951 -0.108 -18.039 -0.113 -18.343 -0.191 5.132 0.149 3.126 0.227 42.684 41.208
90.800 -17.259 -0.183 -17.462 -0.144 -17.756 -0.112 -17.954 -0.106 -18.042 -0.112 -18.346 -0.194 5.135 0.148 3.125 0.226 42.685 41.207
91.200 -17.263 -0.182 -17.465 -0.143 -17.760 -0.110 -17.958 -0.105 -18.046 -0.112 -18.350 -0.198 5.138 0.147 3.125 0.225 42.686 41.205
91.600 -17.267 -0.182 -17.470 -0.142 -17.764 -0.109 -17.962 -0.104 -18.050 -0.112 -18.354 -0.202 5.145 0.147 3.121 0.224 42.687 41.203
92.000 -17.272 -0.182 -17.476 -0.142 -17.769 -0.108 -17.967 -0.104 -18.055 -0.113 -18.358 -0.207 5.150 0.146 3.119 0.223 42.688 41.202
92.400 -17.278 -0.182 -17.482 -0.141 -17.775 -0.107 -17.972 -0.104 -18.060 -0.114 -18.362 -0.211 5.156 0.146 3.117 0.221 42.690 41.201
92.800 -17.285 -0.182 -17.488 -0.142 -17.781 -0.107 -17.978 -0.105 -18.065 -0.116 -18.367 -0.215 5.163 0.145 3.116 0.220 42.691 41.201
93.200 -17.291 -0.183 -17.495 -0.142 -17.787 -0.108 -17.983 -0.106 -18.071 -0.118 -18.372 -0.219 5.170 0.145 3.114 0.220 42.693 41.201
93.600 -17.299 -0.184 -17.502 -0.143 -17.794 -0.109 -17.989 -0.108 -18.077 -0.120 -18.377 -0.223 5.176 0.145 3.113 0.219 42.695 41.201
94.000 -17.306 -0.185 -17.510 -0.144 -17.801 -0.110 -17.996 -0.111 -18.083 -0.123 -18.382 -0.226 5.184 0.145 3.112 0.218 42.697 41.202
94.400 -17.314 -0.186 -17.518 -0.145 -17.808 -0.111 -18.002 -0.113 -18.089 -0.126 -18.387 -0.230 5.191 0.144 3.110 0.217 42.699 41.203
94.800 -17.322 -0.188 -17.525 -0.146 -17.815 -0.112 -18.009 -0.116 -18.095 -0.128 -18.392 -0.234 5.198 0.144 3.109 0.217 42.702 41.204
95.200 -17.330 -0.189 -17.533 -0.147 -17.823 -0.113 -18.015 -0.118 -18.102 -0.131 -18.398 -0.237 5.206 0.144 3.108 0.216 42.704 41.205
95.600 -17.339 -0.190 -17.542 -0.148 -17.830 -0.114 -18.022 -0.120 -18.108 -0.134 -18.403 -0.240 5.214 0.144 3.106 0.215 42.706 41.205
96.000 -17.347 -0.191 -17.550 -0.148 -17.837 -0.114 -18.029 -0.122 -18.114 -0.136 -18.408 -0.243 5.222 0.143 3.105 0.214 42.708 41.204
96.400 -17.355 -0.191 -17.558 -0.148 -17.845 -0.114 -18.035 -0.123 -18.121 -0.138 -18.413 -0.246 5.230 0.143 3.103 0.212 42.710 41.204
96.800 -17.363 -0.192 -17.566 -0.148 -17.852 -0.114 -18.042 -0.124 -18.127 -0.139 -18.418 -0.248 5.237 0.142 3.101 0.211 42.712 41.202
97.200 -17.371 -0.192 -17.574 -0.147 -17.859 -0.112 -18.048 -0.124 -18.133 -0.140 -18.422 -0.251 5.245 0.142 3.099 0.210 42.714 41.200
97.600 -17.379 -0.192 -17.581 -0.146 -17.866 -0.111 -18.054 -0.124 -18.139 -0.141 -18.427 -0.253 5.253 0.141 3.096 0.208 42.716 41.198
98.000 -17.387 -0.191 -17.589 -0.144 -17.873 -0.108 -18.060 -0.123 -18.144 -0.141 -18.431 -0.254 5.261 0.141 3.093 0.207 42.718 41.195
98.400 -17.394 -0.191 -17.596 -0.142 -17.880 -0.105 -18.066 -0.121 -18.150 -0.140 -18.435 -0.255 5.269 0.140 3.090 0.205 42.720 41.192
98.800 -17.401 -0.190 -17.603 -0.140 -17.886 -0.101 -18.072 -0.119 -18.155 -0.139 -18.438 -0.256 5.276 0.140 3.087 0.204 42.721 41.188
99.200 -17.408 -0.189 -17.610 -0.137 -17.892 -0.096 -18.077 -0.117 -18.160 -0.138 -18.442 -0.257 5.283 0.139 3.083 0.202 42.723 41.184
99.600 -17.414 -0.188 -17.616 -0.134 -17.898 -0.091 -18.082 -0.113 -18.164 -0.136 -18.445 -0.257 5.290 0.139 3.079 0.201 42.724 41.180
100.000 -17.420 -0.187 -17.622 -0.131 -17.903 -0.085 -18.086 -0.110 -18.168 -0.134 -18.448 -0.257 5.297 0.139 3.076 0.201 42.725 41.175
100.400 -17.426 -0.185 -17.627 -0.128 -17.908 -0.078 -18.091 -0.106 -18.172 -0.132 -18.450 -0.257 5.303 0.139 3.072 0.200 42.726 41.171
100.800 -17.431 -0.184 -17.632 -0.125 -17.912 -0.071 -18.094 -0.102 -18.175 -0.129 -18.452 -0.256 5.308 0.140 3.068 0.200 42.726 41.168
101.200 -17.435 -0.183 -17.637 -0.122 -17.916 -0.063 -18.097 -0.098 -18.178 -0.127 -18.453 -0.256 5.312 0.141 3.064 0.201 42.727 41.165
101.600 -17.439 -0.182 -17.640 -0.119 -17.919 -0.055 -18.100 -0.094 -18.180 -0.124 -18.455 -0.254 5.316 0.143 3.061 0.203 42.727 41.164
102.000 -17.443 -0.182 -17.644 -0.117 -17.922 -0.048 -18.102 -0.091 -18.181 -0.122 -18.455 -0.253 5.318 0.145 3.058 0.206 42.727 41.164
102.400 -17.446 -0.181 -17.646 -0.116 -17.924 -0.042 -18.103 -0.088 -18.182 -0.119 -18.456 -0.251 5.320 0.147 3.056 0.208 42.727 41.165
102.800 -17.448 -0.181 -17.648 -0.115 -17.925 -0.038 -18.104 -0.086 -18.183 -0.118 -18.456 -0.249 5.321 0.149 3.053 0.211 42.726 41.166
103.200 -17.450 -0.182 -17.649 -0.116 -17.926 -0.037 -18.104 -0.084 -18.183 -0.116 -18.455 -0.247 5.323 0.149 3.051 0.211 42.726 41.165
103.600 -17.451 -0.182 -17.650 -0.117 -17.925 -0.040 -18.103 -0.084 -18.182 -0.115 -18.455 -0.245 5.327 0.148 3.047 0.209 42.726 41.162
104.000 -17.452 -0.183 -17.650 -0.119 -17.924 -0.046 -18.102 -0.085 -18.181 -0.115 -18.453 -0.242 5.332 0.147 3.041 0.206 42.727 41.157
104.400 -17.452 -0.185 -17.649 -0.122 -17.923 -0.054 -18.100 -0.087 -18.179 -0.115 -18.452 -0.240 5.337 0.146 3.036 0.203 42.726 41.153
104.800 -17.451 -0.186 -17.648 -0.125 -17.921 -0.062 -18.098 -0.089 -18.176 -0.115 -18.450 -0.237 5.341 0.145 3.030 0.201 42.726 41.150
105.200 -17.450 -0.188 -17.646 -0.129 -17.918 -0.070 -18.095 -0.092 -18.174 -0.116 -18.447 -0.234 5.345 0.145 3.024 0.200 42.726 41.149
105.600 -17.448 -0.190 -17.644 -0.133 -17.915 -0.078 -18.091 -0.096 -18.170 -0.117 -18.445 -0.230 5.347 0.146 3.019 0.200 42.725 41.151
106.000 -17.446 -0.192 -17.641 -0.137 -17.911 -0.085 -18.088 -0.099 -18.167 -0.119 -18.442 -0.227 5.349 0.147 3.015 0.201 42.724 41.153
106.400 -17.444 -0.194 -17.638 -0.141 -17.907 -0.093 -18.084 -0.103 -18.163 -0.120 -18.438 -0.224 5.349 0.148 3.011 0.202 42.723 41.157
106.800 -17.441 -0.196 -17.634 -0.145 -17.903 -0.099 -18.079 -0.107 -18.158 -0.122 -18.435 -0.220 5.349 0.149 3.007 0.204 42.722 41.161
107.200 -17.438 -0.198 -17.630 -0.149 -17.898 -0.106 -18.075 -0.111 -18.154 -0.123 -18.431 -0.216 5.347 0.151 3.005 0.206 42.721 41.165
107.600 -17.435 -0.199 -17.626 -0.153 -17.893 -0.111 -18.070 -0.114 -18.149 -0.125 -18.426 -0.213 5.346 0.153 3.002 0.208 42.720 41.170
108.000 -17.431 -0.201 -17.622 -0.156 -17.888 -0.116 -18.065 -0.118 -18.144 -0.127 -18.422 -0.209 5.343 0.154 3.000 0.210 42.718 41.174
108.400 -17.427 -0.202 -17.617 -0.159 -17.883 -0.121 -18.059 -0.121 -18.139 -0.129 -18.417 -0.205 5.341 0.155 2.998 0.211 42.717 41.178
108.800 -17.423 -0.203 -17.612 -0.161 -17.878 -0.125 -18.054 -0.124 -18.134 -0.130 -18.412 -0.202 5.338 0.157 2.996 0.213 42.715 41.181
109.200 -17.418 -0.204 -17.607 -0.164 -17.872 -0.129 -18.049 -0.126 -18.128 -0.132 -18.407 -0.198 5.336 0.158 2.993 0.214 42.714 41.184
109.600 -17.414 -0.205 -17.602 -0.166 -17.867 -0.132 -18.043 -0.129 -18.123 -0.133 -18.401 -0.195 5.334 0.159 2.989 0.215 42.712 41.186
110.000 -17.409 -0.205 -17.597 -0.167 -17.861 -0.135 -18.037 -0.131 -18.117 -0.135 -18.396 -0.192 5.332 0.160 2.985 0.216 42.710 41.188
110.400 -17.405 -0.205 -17.592 -0.168 -17.856 -0.138 -18.032 -0.133 -18.111 -0.136 -18.390 -0.189 5.331 0.160 2.980 0.217 42.708 41.189
110.800 -17.400 -0.205 -17.587 -0.169 -17.850 -0.140 -18.026 -0.135 -18.106 -0.137 -18.384 -0.186 5.331 0.161 2.973 0.217 42.706 41.189
111.200 -17.395 -0.205 -17.582 -0.170 -17.844 -0.142 -18.020 -0.137 -18.100 -0.139 -18.378 -0.184 5.332 0.161 2.965 0.217 42.704 41.189
111.600 -17.391 -0.204 -17.577 -0.170 -17.839 -0.144 -18.014 -0.139 -18.094 -0.141 -18.372 -0.183 5.334 0.161 2.955 0.216 42.702 41.189
112.000 -17.386 -0.204 -17.572 -0.170 -17.833 -0.145 -18.008 -0.141 -18.087 -0.142 -18.365 -0.182 5.338 0.162 2.943 0.216 42.700 41.188
112.400 -17.382 -0.203 -17.567 -0.170 -17.828 -0.147 -18.002 -0.143 -18.081 -0.144 -18.359 -0.181 5.343 0.162 2.930 0.215 42.698 41.187
112.800 -17.378 -0.202 -17.562 -0.170 -17.822 -0.148 -17.996 -0.145 -18.075 -0.147 -18.352 -0.182 5.350 0.162 2.914 0.214 42.695 41.186
113.200 -17.374 -0.201 -17.558 -0.170 -17.817 -0.150 -17.990 -0.147 -18.069 -0.149 -18.345 -0.183 5.358 0.163 2.896 0.213 42.692 41.184
113.600 -17.370 -0.200 -17.553 -0.169 -17.811 -0.151 -17.984 -0.150 -18.062 -0.152 -18.338 -0.184 5.367 0.163 2.877 0.212 42.690 41.183
114.000 -17.367 -0.199 -17.549 -0.169 -17.806 -0.152 -17.978 -0.152 -18.056 -0.154 -18.331 -0.186 5.378 0.164 2.856 0.210 42.687 41.181
114.400 -17.363 -0.199 -17.545 -0.169 -17.801 -0.154 -17.972 -0.155 -18.050 -0.157 -18.324 -0.188 5.389 0.164 2.835 0.209 42.684 41.179
114.800 -17.360 -0.198 -17.541 -0.169 -17.795 -0.155 -17.966 -0.157 -18.043 -0.160 -18.317 -0.190 5.401 0.165 2.813 0.208 42.681 41.177
115.200 -17.356 -0.197 -17.537 -0.168 -17.790 -0.156 -17.959 -0.160 -18.036 -0.162 -18.310 -0.192 5.413 0.165 2.791 0.206 42.678 41.174
115.600 -17.352 -0.197 -17.533 -0.168 -17.784 -0.158 -17.953 -0.162 -18.030 -0.165 -18.302 -0.195 5.425 0.166 2.769 0.205 42.675 41.171
116.000 -17.349 -0.197 -17.528 -0.168 -17.779 -0.159 -17.946 -0.164 -18.023 -0.168 -18.294 -0.197 5.437 0.166 2.747 0.203 42.672 41.168
116.400 -17.345 -0.197 -17.524 -0.169 -17.773 -0.161 -17.940 -0.167 -18.016 -0.170 -18.287 -0.200 5.449 0.167 2.726 0.202 42.669 41.164
116.800 -17.340 -0.197 -17.519 -0.169 -17.767 -0.163 -17.933 -0.169 -18.009 -0.173 -18.279 -0.202 5.460 0.167 2.706 0.200 42.666 41.161
117.200 -17.336 -0.198 -17.514 -0.170 -17.761 -0.164 -17.926 -0.171 -18.002 -0.175 -18.271 -0.204 5.470 0.168 2.686 0.199 42.663 41.157
117.600 -17.331 -0.199 -17.509 -0.171 -17.754 -0.166 -17.919 -0.173 -17.994 -0.177 -18.263 -0.206 5.478 0.168 2.669 0.197 42.660 41.153
118.000 -17.326 -0.200 -17.503 -0.173 -17.748 -0.168 -17.912 -0.176 -17.987 -0.179 -18.255 -0.207 5.486 0.169 2.652 0.196 42.657 41.149
118.400 -17.321 -0.201 -17.497 -0.175 -17.741 -0.170 -17.904 -0.177 -17.979 -0.181 -18.246 -0.209 5.492 0.169 2.637 0.195 42.654 41.145
118.800 -17.315 -0.203 -17.491 -0.177 -17.734 -0.172 -17.897 -0.179 -17.972 -0.183 -18.238 -0.209 5.497 0.170 2.622 0.194 42.651 41.141
119.200 -17.309 -0.205 -17.484 -0.180 -17.727 -0.174 -17.889 -0.181 -17.964 -0.184 -18.229 -0.210 5.501 0.170 2.609 0.193 42.648 41.136
119.600 -17.303 -0.207 -17.477 -0.182 -17.719 -0.176 -17.882 -0.182 -17.956 -0.185 -18.221 -0.210 5.505 0.171 2.597 0.193 42.645 41.132
120.000 -17.296 -0.209 -17.470 -0.185 -17.711 -0.178 -17.874 -0.183 -17.948 -0.186 -18.212 -0.210 5.507 0.171 2.585 0.192 42.641 41.127
120.400 -17.290 -0.211 -17.462 -0.187 -17.704 -0.180 -17.866 -0.184 -17.940 -0.187 -18.203 -0.210 5.508 0.171 2.574 0.191 42.638 41.123
120.800 -17.283 -0.213 -17.455 -0.190 -17.696 -0.182 -17.857 -0.185 -17.932 -0.187 -18.194 -0.209 5.509 0.172 2.564 0.190 42.635 41.118
121.200 -17.275 -0.215 -17.447 -0.192 -17.688 -0.183 -17.849 -0.186 -17.923 -0.187 -18.185 -0.208 5.510 0.172 2.554 0.190 42.632 41.113
121.600 -17.268 -0.217 -17.439 -0.194 -17.679 -0.184 -17.841 -0.186 -17.915 -0.187 -18.177 -0.207 5.510 0.172 2.545 0.189 42.629 41.108
122.000 -17.261 -0.219 -17.431 -0.196 -17.671 -0.185 -17.833 -0.186 -17.907 -0.186 -18.167 -0.205 5.509 0.172 2.536 0.188 42.625 41.103
122.400 -17.253 -0.220 -17.423 -0.197 -17.663 -0.186 -17.824 -0.186 -17.898 -0.186 -18.158 -0.203 5.509 0.172 2.527 0.187 42.622 41.097
122.800 -17.246 -0.222 -17.415 -0.198 -17.655 -0.186 -17.816 -0.185 -17.890 -0.185 -18.149 -0.201 5.508 0.172 2.518 0.186 42.619 41.092
123.200 -17.238 -0.223 -17.407 -0.199 -17.646 -0.186 -17.808 -0.184 -17.881 -0.183 -18.140 -0.199 5.508 0.172 2.509 0.185 42.616 41.086
123.600 -17.230 -0.223 -17.399 -0.200 -17.638 -0.186 -17.800 -0.183 -17.873 -0.182 -18.131 -0.197 5.507 0.172 2.500 0.184 42.612 41.079
124.000 -17.223 -0.224 -17.391 -0.200 -17.630 -0.185 -17.791 -0.181 -17.865 -0.180 -18.122 -0.195 5.507 0.172 2.490 0.183 42.609 41.073
124.400 -17.215 -0.224 -17.383 -0.200 -17.622 -0.184 -17.783 -0.180 -17.857 -0.178 -18.112 -0.193 5.508 0.171 2.481 0.181 42.606 41.066
124.800 -17.207 -0.224 -17.375 -0.200 -17.614 -0.183 -17.775 -0.178 -17.848 -0.176 -18.103 -0.191 5.508 0.171 2.470 0.180 42.602 41.059
125.200 -17.200 -0.224 -17.367 -0.199 -17.606 -0.181 -17.767 -0.176 -17.840 -0.173 -18.094 -0.190 5.510 0.170 2.459 0.178 42.599 41.051
125.600 -17.192 -0.223 -17.359 -0.198 -17.598 -0.180 -17.759 -0.173 -17.832 -0.171 -18.085 -0.188 5.513 0.170 2.447 0.176 42.596 41.043
126.000 -17.185 -0.222 -17.352 -0.197 -17.590 -0.177 -17.751 -0.171 -17.824 -0.168 -18.076 -0.187 5.516 0.169 2.434 0.175 42.592 41.035
126.400 -17.178 -0.222 -17.344 -0.195 -17.583 -0.175 -17.744 -0.168 -17.817 -0.165 -18.066 -0.187 5.521 0.169 2.420 0.173 42.589 41.027
126.800 -17.171 -0.220 -17.337 -0.193 -17.575 -0.172 -17.736 -0.165 -17.809 -0.163 -18.057 -0.188 5.527 0.168 2.405 0.170 42.585 41.018
127.200 -17.164 -0.219 -17.330 -0.192 -17.568 -0.170 -17.729 -0.162 -17.801 -0.160 -18.048 -0.188 5.535 0.167 2.388 0.168 42.581 41.008
127.600 -17.158 -0.218 -17.323 -0.189 -17.561 -0.166 -17.722 -0.158 -17.794 -0.157 -18.039 -0.190 5.544 0.167 2.371 0.166 42.578 40.998
128.000 -17.152 -0.217 -17.317 -0.187 -17.554 -0.163 -17.714 -0.155 -17.786 -0.154 -18.030 -0.192 5.554 0.166 2.352 0.163 42.574 40.988
128.400 -17.146 -0.215 -17.311 -0.185 -17.548 -0.160 -17.707 -0.152 -17.779 -0.151 -18.020 -0.194 5.565 0.165 2.333 0.161 42.570 40.977
128.800 -17.140 -0.214 -17.305 -0.183 -17.541 -0.156 -17.700 -0.148 -17.772 -0.149 -18.011 -0.197 5.577 0.164 2.313 0.158 42.567 40.965
129.200 -17.135 -0.213 -17.299 -0.180 -17.535 -0.153 -17.693 -0.145 -17.764 -0.146 -18.002 -0.200 5.590 0.164 2.292 0.155 42.563 40.953
129.600 -17.130 -0.211 -17.293 -0.178 -17.528 -0.149 -17.687 -0.142 -17.757 -0.144 -17.993 -0.203 5.605 0.163 2.271 0.153 42.559 40.941
130.000 -17.125 -0.210 -17.288 -0.175 -17.522 -0.145 -17.680 -0.138 -17.750 -0.141 -17.983 -0.206 5.620 0.162 2.249 0.150 42.556 40.929
130.400 -17.121 -0.209 -17.283 -0.173 -17.516 -0.141 -17.673 -0.135 -17.742 -0.139 -17.974 -0.209 5.636 0.162 2.227 0.147 42.552 40.916
130.800 -17.117 -0.208 -17.278 -0.170 -17.510 -0.137 -17.666 -0.132 -17.735 -0.137 -17.964 -0.213 5.653 0.162 2.205 0.145 42.549 40.903
131.200 -17.113 -0.206 -17.274 -0.167 -17.504 -0.132 -17.659 -0.129 -17.728 -0.136 -17.955 -0.217 5.670 0.161 2.182 0.142 42.545 40.890
131.600 -17.109 -0.205 -17.269 -0.164 -17.498 -0.128 -17.652 -0.126 -17.720 -0.134 -17.945 -0.220 5.689 0.161 2.159 0.140 42.541 40.877
132.000 -17.106 -0.204 -17.265 -0.161 -17.492 -0.123 -17.645 -0.123 -17.712 -0.133 -17.935 -0.224 5.708 0.161 2.135 0.137 42.538 40.864
132.400 -17.102 -0.202 -17.260 -0.158 -17.487 -0.118 -17.638 -0.120 -17.705 -0.132 -17.925 -0.227 5.727 0.161 2.112 0.135 42.534 40.851
132.800 -17.099 -0.200 -17.256 -0.154 -17.481 -0.113 -17.631 -0.117 -17.697 -0.131 -17.915 -0.231 5.747 0.161 2.088 0.133 42.530 40.838
133.200 -17.095 -0.199 -17.252 -0.151 -17.475 -0.108 -17.623 -0.114 -17.689 -0.129 -17.905 -0.234 5.768 0.161 2.065 0.130 42.527 40.824
133.600 -17.092 -0.197 -17.248 -0.147 -17.469 -0.102 -17.616 -0.111 -17.682 -0.128 -17.895 -0.237 5.788 0.161 2.042 0.128 42.523 40.810
134.000 -17.089 -0.195 -17.244 -0.143 -17.464 -0.095 -17.609 -0.108 -17.674 -0.127 -17.885 -0.240 5.809 0.161 2.019 0.126 42.519 40.796
134.400 -17.086 -0.194 -17.240 -0.139 -17.458 -0.089 -17.602 -0.105 -17.666 -0.126 -17.874 -0.243 5.829 0.162 1.996 0.125 42.516 40.781
134.800 -17.083 -0.192 -17.236 -0.135 -17.452 -0.082 -17.595 -0.102 -17.658 -0.125 -17.864 -0.246 5.849 0.162 1.974 0.123 42.512 40.766
135.200 -17.080 -0.191 -17.232 -0.132 -17.447 -0.074 -17.588 -0.099 -17.650 -0.124 -17.854 -0.249 5.869 0.164 1.952 0.122 42.508 40.751
135.600 -17.077 -0.190 -17.228 -0.129 -17.441 -0.067 -17.581 -0.096 -17.643 -0.123 -17.843 -0.251 5.888 0.165 1.931 0.121 42.505 40.736
136.000 -17.075 -0.189 -17.225 -0.126 -17.436 -0.060 -17.574 -0.094 -17.635 -0.123 -17.833 -0.253 5.908 0.167 1.911 0.120 42.501 40.721
136.400 -17.072 -0.188 -17.221 -0.124 -17.430 -0.054 -17.567 -0.092 -17.627 -0.123 -17.823 -0.255 5.927 0.169 1.890 0.120 42.497 40.706
136.800 -17.069 -0.188 -17.217 -0.122 -17.425 -0.049 -17.560 -0.091 -17.620 -0.123 -17.812 -0.257 5.946 0.171 1.871 0.119 42.494 40.690
137.200 -17.066 -0.187 -17.213 -0.121 -17.419 -0.046 -17.553 -0.091 -17.612 -0.123 -17.802 -0.258 5.967 0.172 1.851 0.118 42.491 40.674
137.600 -17.064 -0.188 -17.210 -0.121 -17.414 -0.047 -17.547 -0.092 -17.605 -0.125 -17.791 -0.260 5.989 0.171 1.831 0.116 42.488 40.660
138.000 -17.061 -0.188 -17.206 -0.122 -17.409 -0.050 -17.540 -0.094 -17.597 -0.126 -17.781 -0.261 6.011 0.169 1.812 0.112 42.485 40.648
138.400 -17.059 -0.189 -17.203 -0.124 -17.403 -0.056 -17.533 -0.097 -17.590 -0.128 -17.771 -0.262 6.034 0.167 1.794 0.108 42.483 40.637
138.800 -17.057 -0.191 -17.199 -0.126 -17.398 -0.063 -17.527 -0.100 -17.583 -0.131 -17.761 -0.263 6.057 0.163 1.776 0.105 42.481 40.629
139.200 -17.055 -0.192 -17.196 -0.129 -17.393 -0.070 -17.521 -0.104 -17.576 -0.133 -17.751 -0.263 6.079 0.160 1.759 0.101 42.479 40.621
139.600 -17.053 -0.194 -17.193 -0.133 -17.389 -0.078 -17.515 -0.109 -17.570 -0.136 -17.741 -0.263 6.100 0.158 1.743 0.098 42.477 40.613
140.000 -17.051 -0.196 -17.190 -0.136 -17.384 -0.085 -17.509 -0.113 -17.563 -0.139 -17.731 -0.263 6.121 0.155 1.728 0.095 42.475 40.605
140.400 -17.049 -0.197 -17.188 -0.140 -17.380 -0.092 -17.503 -0.117 -17.557 -0.142 -17.721 -0.263 6.141 0.153 1.713 0.092 42.473 40.597
140.800 -17.048 -0.199 -17.185 -0.144 -17.376 -0.099 -17.498 -0.122 -17.551 -0.144 -17.712 -0.263 6.162 0.150 1.698 0.089 42.472 40.588
141.200 -17.047 -0.201 -17.183 -0.147 -17.372 -0.105 -17.494 -0.126 -17.546 -0.147 -17.703 -0.262 6.182 0.148 1.684 0.086 42.470 40.579
141.600 -17.046 -0.203 -17.182 -0.151 -17.369 -0.111 -17.489 -0.129 -17.541 -0.149 -17.694 -0.261 6.201 0.145 1.670 0.084 42.468 40.568
142.000 -17.046 -0.204 -17.180 -0.154 -17.367 -0.116 -17.485 -0.133 -17.536 -0.151 -17.685 -0.260 6.221 0.143 1.657 0.081 42.467 40.555
142.400 -17.046 -0.206 -17.180 -0.157 -17.365 -0.121 -17.482 -0.136 -17.532 -0.153 -17.676 -0.259 6.242 0.139 1.644 0.078 42.466 40.542
142.800 -17.046 -0.207 -17.179 -0.159 -17.363 -0.124 -17.479 -0.138 -17.528 -0.154 -17.667 -0.257 6.262 0.136 1.631 0.075 42.465 40.526
143.200 -17.047 -0.208 -17.179 -0.161 -17.362 -0.128 -17.476 -0.140 -17.525 -0.156 -17.659 -0.255 6.283 0.132 1.619 0.072 42.464 40.509
143.600 -17.048 -0.208 -17.180 -0.163 -17.361 -0.130 -17.475 -0.142 -17.522 -0.156 -17.651 -0.253 6.304 0.128 1.607 0.069 42.463 40.490
144.000 -17.050 -0.209 -17.181 -0.164 -17.361 -0.132 -17.473 -0.143 -17.520 -0.157 -17.643 -0.251 6.326 0.123 1.595 0.065 42.463 40.469
144.400 -17.052 -0.209 -17.183 -0.164 -17.362 -0.133 -17.473 -0.143 -17.518 -0.157 -17.636 -0.248 6.349 0.118 1.583 0.061 42.462 40.446
144.800 -17.055 -0.208 -17.185 -0.164 -17.363 -0.134 -17.473 -0.144 -17.517 -0.156 -17.629 -0.246 6.350 0.112 1.583 0.058 42.463 40.425
145.200 -17.058 -0.208 -17.188 -0.164 -17.365 -0.134 -17.473 -0.143 -17.516 -0.156 -17.622 -0.243 6.396 0.107 1.560 0.054 42.463 40.392
145.600 -17.062 -0.207 -17.191 -0.163 -17.368 -0.134 -17.474 -0.143 -17.516 -0.155 -17.615 -0.240 6.422 0.100 1.548 0.050 42.463 40.361
146.000 -17.066 -0.205 -17.195 -0.161 -17.372 -0.133 -17.476 -0.142 -17.517 -0.154 -17.608 -0.237 6.448 0.094 1.537 0.046 42.464 40.328
146.400 -17.071 -0.204 -17.200 -0.160 -17.376 -0.132 -17.479 -0.141 -17.518 -0.152 -17.602 -0.234 6.475 0.088 1.525 0.042 42.465 40.294
146.800 -17.076 -0.202 -17.205 -0.157 -17.380 -0.130 -17.482 -0.139 -17.520 -0.151 -17.595 -0.231 6.503 0.082 1.514 0.039 42.466 40.258
147.200 -17.082 -0.200 -17.211 -0.155 -17.386 -0.127 -17.485 -0.137 -17.522 -0.149 -17.589 -0.228 6.533 0.076 1.503 0.036 42.467 40.225
147.600 -17.089 -0.198 -17.217 -0.152 -17.392 -0.124 -17.489 -0.135 -17.524 -0.147 -17.583 -0.225 6.564 0.072 1.491 0.033 42.469 40.196
148.000 -17.095 -0.196 -17.224 -0.149 -17.398 -0.121 -17.494 -0.132 -17.527 -0.144 -17.577 -0.222 6.596 0.070 1.480 0.032 42.470 40.178
148.400 -17.103 -0.194 -17.231 -0.145 -17.406 -0.117 -17.499 -0.130 -17.531 -0.142 -17.571 -0.220 6.629 0.070 1.469 0.031 42.472 40.174
148.800 -17.111 -0.192 -17.239 -0.141 -17.413 -0.112 -17.504 -0.126 -17.534 -0.139 -17.566 -0.217 6.664 0.073 1.457 0.032 42.475 40.186
149.200 -17.119 -0.190 -17.248 -0.138 -17.421 -0.107 -17.510 -0.123 -17.538 -0.136 -17.560 -0.215 6.700 0.078 1.445 0.034 42.477 40.212
149.600 -17.127 -0.189 -17.256 -0.134 -17.430 -0.102 -17.515 -0.119 -17.541 -0.133 -17.554 -0.214 6.738 0.086 1.433 0.036 42.480 40.247
150.000 -17.135 -0.187 -17.266 -0.130 -17.438 -0.096 -17.521 -0.115 -17.545 -0.130 -17.549 -0.212 6.777 0.096 1.421 0.039 42.482 40.286
150.400 -17.144 -0.186 -17.275 -0.127 -17.446 -0.089 -17.526 -0.110 -17.548 -0.127 -17.543 -0.212 6.819 0.106 1.408 0.043 42.485 40.326
150.800 -17.152 -0.186 -17.284 -0.124 -17.455 -0.082 -17.531 -0.106 -17.550 -0.124 -17.537 -0.212 6.862 0.118 1.395 0.047 42.488 40.364
151.200 -17.160 -0.185 -17.293 -0.122 -17.462 -0.075 -17.535 -0.102 -17.552 -0.121 -17.531 -0.212 6.906 0.130 1.382 0.050 42.491 40.399
151.600 -17.168 -0.186 -17.301 -0.120 -17.469 -0.068 -17.538 -0.097 -17.553 -0.119 -17.524 -0.213 6.952 0.143 1.368 0.054 42.494 40.433
152.000 -17.175 -0.186 -17.309 -0.118 -17.475 -0.061 -17.540 -0.094 -17.553 -0.117 -17.517 -0.214 7.000 0.157 1.354 0.058 42.496 40.464
152.400 -17.180 -0.188 -17.315 -0.118 -17.479 -0.054 -17.541 -0.090 -17.552 -0.115 -17.510 -0.216 7.050 0.171 1.338 0.061 42.498 40.492
152.800 -17.185 -0.190 -17.319 -0.118 -17.482 -0.048 -17.540 -0.088 -17.550 -0.114 -17.502 -0.218 7.102 0.184 1.321 0.064 42.500 40.520
153.200 -17.188 -0.193 -17.322 -0.120 -17.483 -0.045 -17.538 -0.086 -17.546 -0.113 -17.493 -0.220 7.103 0.195 1.321 0.068 42.501 40.533
153.600 -17.190 -0.196 -17.323 -0.123 -17.481 -0.044 -17.534 -0.085 -17.540 -0.113 -17.484 -0.223 7.209 0.204 1.284 0.067 42.502 40.578
154.000 -17.191 -0.200 -17.323 -0.126 -17.477 -0.047 -17.527 -0.086 -17.533 -0.114 -17.473 -0.225 7.260 0.207 1.265 0.066 42.501 40.605
154.400 -17.190 -0.204 -17.320 -0.131 -17.470 -0.053 -17.519 -0.088 -17.524 -0.115 -17.462 -0.228 7.309 0.206 1.245 0.064 42.498 40.627
154.800 -17.187 -0.209 -17.315 -0.136 -17.461 -0.061 -17.508 -0.091 -17.513 -0.117 -17.450 -0.230 7.356 0.202 1.225 0.061 42.496 40.641
155.200 -17.182 -0.214 -17.308 -0.142 -17.450 -0.069 -17.496 -0.094 -17.500 -0.119 -17.437 -0.233 7.402 0.196 1.205 0.057 42.492 40.646
155.600 -17.176 -0.220 -17.299 -0.149 -17.437 -0.078 -17.482 -0.099 -17.486 -0.122 -17.423 -0.236 7.447 0.189 1.184 0.054 42.488 40.644
156.000 -17.168 -0.226 -17.289 -0.156 -17.422 -0.087 -17.465 -0.103 -17.470 -0.126 -17.408 -0.239 7.491 0.180 1.164 0.050 42.483 40.635
156.400 -17.159 -0.232 -17.277 -0.164 -17.405 -0.096 -17.448 -0.108 -17.452 -0.129 -17.392 -0.242 7.533 0.170 1.143 0.045 42.477 40.618
156.800 -17.148 -0.239 -17.263 -0.171 -17.387 -0.105 -17.428 -0.114 -17.433 -0.133 -17.375 -0.244 7.574 0.159 1.123 0.041 42.471 40.594
157.200 -17.136 -0.246 -17.247 -0.179 -17.367 -0.113 -17.408 -0.119 -17.412 -0.136 -17.358 -0.247 7.612 0.146 1.104 0.037 42.464 40.562
157.600 -17.122 -0.253 -17.230 -0.187 -17.346 -0.121 -17.386 -0.124 -17.391 -0.140 -17.339 -0.250 7.648 0.132 1.084 0.032 42.457 40.521
158.000 -17.107 -0.260 -17.212 -0.195 -17.324 -0.129 -17.362 -0.129 -17.368 -0.143 -17.320 -0.252 7.681 0.118 1.066 0.028 42.450 40.470
158.400 -17.090 -0.267 -17.192 -0.202 -17.300 -0.137 -17.338 -0.134 -17.344 -0.147 -17.300 -0.255 7.712 0.102 1.047 0.024 42.442 40.408
158.800 -17.073 -0.274 -17.171 -0.210 -17.276 -0.144 -17.313 -0.138 -17.319 -0.150 -17.279 -0.257 7.740 0.086 1.030 0.020 42.433 40.332
159.200 -17.054 -0.280 -17.150 -0.217 -17.251 -0.150 -17.287 -0.143 -17.294 -0.154 -17.258 -0.260 7.766 0.070 1.012 0.016 42.424 40.240
159.600 -17.035 -0.287 -17.127 -0.224 -17.225 -0.157 -17.261 -0.147 -17.268 -0.157 -17.236 -0.262 7.788 0.055 0.996 0.012 42.415 40.128
160.000 -17.015 -0.294 -17.104 -0.231 -17.198 -0.163 -17.233 -0.151 -17.241 -0.160 -17.213 -0.265 7.809 0.041 0.980 0.009 42.406 39.999
160.400 -16.993 -0.301 -17.080 -0.238 -17.171 -0.169 -17.206 -0.155 -17.213 -0.163 -17.190 -0.268 7.826 0.032 0.965 0.007 42.396 39.883
160.800 -16.972 -0.308 -17.055 -0.244 -17.143 -0.174 -17.178 -0.159 -17.186 -0.166 -17.167 -0.271 7.842 0.032 0.950 0.006 42.386 39.871
161.200 -16.949 -0.314 -17.030 -0.251 -17.115 -0.179 -17.149 -0.162 -17.158 -0.169 -17.143 -0.273 7.855 0.040 0.935 0.008 42.375 39.968
161.600 -16.926 -0.321 -17.004 -0.257 -17.087 -0.184 -17.121 -0.166 -17.129 -0.171 -17.119 -0.277 7.867 0.054 0.921 0.010 42.365 40.084
162.000 -16.903 -0.327 -16.978 -0.263 -17.058 -0.189 -17.092 -0.169 -17.101 -0.174 -17.095 -0.280 7.877 0.069 0.908 0.013 42.354 40.184
162.400 -16.879 -0.333 -16.952 -0.269 -17.030 -0.194 -17.063 -0.172 -17.072 -0.177 -17.071 -0.284 7.886 0.085 0.895 0.016 42.343 40.266
162.800 -16.854 -0.340 -16.925 -0.275 -17.001 -0.199 -17.034 -0.176 -17.044 -0.180 -17.047 -0.287 7.893 0.101 0.882 0.019 42.333 40.332
163.200 -16.830 -0.346 -16.899 -0.281 -16.972 -0.203 -17.005 -0.179 -17.015 -0.183 -17.022 -0.291 7.899 0.117 0.870 0.021 42.322 40.387
163.600 -16.805 -0.352 -16.872 -0.287 -16.943 -0.208 -16.976 -0.182 -16.986 -0.186 -16.998 -0.296 7.904 0.133 0.858 0.024 42.311 40.432
164.000 -16.780 -0.358 -16.845 -0.292 -16.915 -0.213 -16.947 -0.186 -16.958 -0.189 -16.973 -0.300 7.908 0.148 0.846 0.026 42.300 40.469
164.400 -16.756 -0.364 -16.818 -0.298 -16.886 -0.218 -16.918 -0.190 -16.930 -0.193 -16.949 -0.305 7.910 0.163 0.835 0.029 42.289 40.500
164.800 -16.731 -0.371 -16.792 -0.304 -16.858 -0.223 -16.890 -0.194 -16.902 -0.197 -16.925 -0.310 7.912 0.178 0.824 0.031 42.278 40.526
165.200 -16.706 -0.377 -16.765 -0.310 -16.830 -0.228 -16.862 -0.199 -16.874 -0.202 -16.901 -0.315 7.913 0.191 0.814 0.033 42.267 40.547
165.600 -16.681 -0.383 -16.739 -0.316 -16.802 -0.234 -16.834 -0.204 -16.847 -0.207 -16.877 -0.321 7.913 0.204 0.804 0.034 42.256 40.564
166.000 -16.656 -0.389 -16.713 -0.323 -16.775 -0.240 -16.807 -0.210 -16.820 -0.212 -16.854 -0.327 7.911 0.215 0.794 0.036 42.246 40.577
166.400 -16.632 -0.396 -16.687 -0.329 -16.748 -0.246 -16.780 -0.216 -16.794 -0.219 -16.830 -0.333 7.909 0.226 0.785 0.037 42.235 40.587
166.800 -16.607 -0.402 -16.661 -0.336 -16.722 -0.253 -16.754 -0.223 -16.768 -0.225 -16.807 -0.339 7.905 0.235 0.777 0.038 42.225 40.594
167.200 -16.583 -0.409 -16.636 -0.342 -16.696 -0.260 -16.728 -0.231 -16.742 -0.233 -16.785 -0.346 7.900 0.244 0.769 0.040 42.215 40.599
167.600 -16.559 -0.416 -16.611 -0.349 -16.670 -0.268 -16.703 -0.239 -16.717 -0.240 -16.762 -0.352 7.895 0.252 0.761 0.040 42.205 40.601
168.000 -16.535 -0.422 -16.586 -0.356 -16.645 -0.276 -16.679 -0.247 -16.693 -0.249 -16.740 -0.359 7.888 0.259 0.754 0.041 42.195 40.602
168.400 -16.512 -0.429 -16.562 -0.364 -16.621 -0.284 -16.655 -0.256 -16.669 -0.257 -16.719 -0.366 7.881 0.265 0.747 0.042 42.185 40.602
168.800 -16.489 -0.436 -16.538 -0.371 -16.597 -0.292 -16.631 -0.265 -16.646 -0.266 -16.698 -0.374 7.874 0.270 0.740 0.043 42.176 40.600
169.200 -16.466 -0.443 -16.515 -0.378 -16.573 -0.301 -16.608 -0.274 -16.623 -0.275 -16.677 -0.381 7.865 0.275 0.733 0.043 42.166 40.597
169.600 -16.443 -0.450 -16.492 -0.386 -16.550 -0.309 -16.585 -0.283 -16.601 -0.284 -16.657 -0.389 7.857 0.280 0.727 0.044 42.157 40.594
170.000 -16.421 -0.457 -16.469 -0.393 -16.527 -0.318 -16.563 -0.292 -16.579 -0.294 -16.637 -0.396 7.847 0.284 0.722 0.044 42.148 40.590
170.400 -16.399 -0.464 -16.447 -0.401 -16.505 -0.327 -16.541 -0.302 -16.557 -0.303 -16.617 -0.404 7.838 0.288 0.716 0.044 42.139 40.585
170.800 -16.378 -0.471 -16.425 -0.408 -16.484 -0.336 -16.520 -0.311 -16.536 -0.312 -16.598 -0.412 7.828 0.291 0.711 0.045 42.131 40.580
171.200 -16.357 -0.477 -16.404 -0.416 -16.462 -0.345 -16.499 -0.321 -16.516 -0.322 -16.579 -0.419 7.818 0.294 0.705 0.045 42.122 40.575
171.600 -16.336 -0.484 -16.383 -0.424 -16.442 -0.354 -16.479 -0.330 -16.496 -0.331 -16.561 -0.427 7.807 0.297 0.701 0.045 42.114 40.569
172.000 -16.316 -0.491 -16.362 -0.431 -16.421 -0.362 -16.459 -0.339 -16.476 -0.340 -16.543 -0.435 7.797 0.300 0.696 0.046 42.106 40.563
172.400 -16.296 -0.498 -16.342 -0.439 -16.401 -0.371 -16.439 -0.348 -16.457 -0.349 -16.525 -0.442 7.786 0.302 0.691 0.046 42.098 40.557
172.800 -16.276 -0.504 -16.322 -0.446 -16.382 -0.379 -16.420 -0.357 -16.438 -0.358 -16.508 -0.450 7.774 0.304 0.687 0.046 42.090 40.551
173.200 -16.257 -0.511 -16.303 -0.453 -16.363 -0.387 -16.402 -0.366 -16.420 -0.367 -16.492 -0.457 7.763 0.306 0.683 0.046 42.082 40.544
173.600 -16.238 -0.517 -16.284 -0.460 -16.344 -0.395 -16.384 -0.374 -16.402 -0.375 -16.475 -0.465 7.751 0.308 0.679 0.046 42.074 40.538
174.000 -16.219 -0.524 -16.265 -0.467 -16.326 -0.403 -16.366 -0.383 -16.385 -0.383 -16.460 -0.472 7.739 0.310 0.676 0.046 42.067 40.531
174.400 -16.201 -0.530 -16.247 -0.473 -16.308 -0.411 -16.349 -0.391 -16.368 -0.391 -16.444 -0.479 7.727 0.312 0.672 0.047 42.060 40.525
174.800 -16.183 -0.536 -16.229 -0.480 -16.291 -0.418 -16.332 -0.398 -16.351 -0.399 -16.429 -0.485 7.715 0.313 0.669 0.047 42.053 40.518
175.200 -16.165 -0.541 -16.212 -0.486 -16.274 -0.425 -16.315 -0.405 -16.335 -0.406 -16.414 -0.492 7.702 0.314 0.665 0.047 42.046 40.511
175.600 -16.148 -0.547 -16.195 -0.492 -16.257 -0.432 -16.299 -0.412 -16.319 -0.413 -16.400 -0.498 7.690 0.316 0.662 0.047 42.039 40.505
176.000 -16.131 -0.552 -16.178 -0.498 -16.241 -0.438 -16.283 -0.419 -16.304 -0.420 -16.386 -0.504 7.677 0.317 0.659 0.047 42.032 40.498
176.400 -16.115 -0.557 -16.161 -0.503 -16.225 -0.444 -16.268 -0.425 -16.289 -0.426 -16.373 -0.510 7.664 0.318 0.657 0.047 42.025 40.492
176.800 -16.098 -0.562 -16.145 -0.508 -16.209 -0.450 -16.253 -0.431 -16.274 -0.432 -16.359 -0.516 7.651 0.319 0.654 0.047 42.019 40.485
177.200 -16.082 -0.566 -16.130 -0.513 -16.194 -0.455 -16.239 -0.437 -16.260 -0.438 -16.347 -0.521 7.638 0.320 0.652 0.048 42.013 40.479
177.600 -16.067 -0.571 -16.114 -0.517 -16.179 -0.460 -16.224 -0.442 -16.246 -0.443 -16.334 -0.526 7.625 0.321 0.649 0.048 42.007 40.472
178.000 -16.052 -0.574 -16.099 -0.522 -16.165 -0.464 -16.210 -0.447 -16.232 -0.448 -16.322 -0.530 7.612 0.322 0.647 0.048 42.001 40.466
178.400 -16.037 -0.578 -16.085 -0.525 -16.151 -0.469 -16.197 -0.451 -16.219 -0.452 -16.310 -0.535 7.598 0.323 0.645 0.048 41.995 40.459
178.800 -16.022 -0.582 -16.070 -0.529 -16.137 -0.472 -16.184 -0.455 -16.206 -0.456 -16.299 -0.539 7.585 0.324 0.643 0.048 41.989 40.453
179.200 -16.008 -0.585 -16.056 -0.532 -16.124 -0.476 -16.171 -0.458 -16.194 -0.460 -16.288 -0.543 7.571 0.325 0.641 0.048 41.984 40.447
179.600 -15.994 -0.588 -16.043 -0.535 -16.111 -0.479 -16.159 -0.462 -16.182 -0.463 -16.277 -0.546 7.557 0.325 0.640 0.048 41.978 40.441
180.000 -15.980 -0.590 -16.029 -0.538 -16.098 -0.481 -16.146 -0.464 -16.170 -0.466 -16.267 -0.549 7.543 0.326 0.638 0.049 41.973 40.435
180.400 -15.967 -0.592 -16.016 -0.540 -16.086 -0.483 -16.135 -0.466 -16.158 -0.468 -16.257 -0.552 7.530 0.327 0.637 0.049 41.968 40.428
180.800 -15.954 -0.594 -16.004 -0.541 -16.074 -0.485 -16.123 -0.468 -16.147 -0.470 -16.247 -0.554 7.515 0.327 0.635 0.049 41.963 40.422
181.200 -15.941 -0.596 -15.991 -0.543 -16.062 -0.486 -16.112 -0.469 -16.136 -0.471 -16.238 -0.556 7.501 0.328 0.634 0.049 41.958 40.417
181.600 -15.929 -0.597 -15.979 -0.544 -16.050 -0.487 -16.101 -0.470 -16.126 -0.472 -16.229 -0.558 7.487 0.328 0.633 0.049 41.953 40.411
182.000 -15.916 -0.598 -15.967 -0.545 -16.039 -0.488 -16.091 -0.471 -16.116 -0.473 -16.220 -0.559 7.473 0.329 0.632 0.049 41.948 40.405
182.400 -15.904 -0.599 -15.956 -0.545 -16.028 -0.488 -16.080 -0.471 -16.106 -0.473 -16.211 -0.560 7.459 0.329 0.631 0.050 41.943 40.399
182.800 -15.893 -0.599 -15.944 -0.545 -16.018 -0.487 -16.070 -0.470 -16.096 -0.472 -16.203 -0.561 7.444 0.330 0.630 0.050 41.939 40.393
183.200 -15.881 -0.599 -15.933 -0.545 -16.008 -0.486 -16.061 -0.469 -16.087 -0.471 -16.195 -0.562 7.430 0.330 0.629 0.050 41.935 40.388
183.600 -15.870 -0.599 -15.923 -0.544 -15.998 -0.485 -16.051 -0.468 -16.078 -0.470 -16.188 -0.562 7.415 0.331 0.629 0.050 41.930 40.382
184.000 -15.859 -0.598 -15.912 -0.543 -15.988 -0.484 -16.042 -0.466 -16.069 -0.469 -16.181 -0.561 7.401 0.331 0.628 0.050 41.926 40.377
184.400 -15.849 -0.597 -15.902 -0.542 -15.979 -0.482 -16.034 -0.464 -16.061 -0.467 -16.174 -0.561 7.386 0.331 0.628 0.051 41.922 40.371
184.800 -15.838 -0.596 -15.892 -0.540 -15.970 -0.479 -16.025 -0.462 -16.052 -0.464 -16.167 -0.560 7.372 0.332 0.627 0.051 41.918 40.366
185.200 -15.828 -0.595 -15.883 -0.538 -15.961 -0.476 -16.017 -0.459 -16.044 -0.461 -16.160 -0.559 7.357 0.332 0.627 0.051 41.914 40.361
185.600 -15.818 -0.593 -15.873 -0.535 -15.952 -0.473 -16.009 -0.455 -16.037 -0.458 -16.154 -0.557 7.342 0.332 0.627 0.051 41.911 40.356
186.000 -15.809 -0.592 -15.864 -0.533 -15.944 -0.469 -16.001 -0.451 -16.029 -0.454 -16.148 -0.556 7.327 0.333 0.627 0.052 41.907 40.350
186.400 -15.799 -0.589 -15.855 -0.530 -15.936 -0.466 -15.994 -0.447 -16.022 -0.450 -16.143 -0.554 7.313 0.333 0.627 0.052 41.904 40.345
186.800 -15.790 -0.587 -15.846 -0.527 -15.928 -0.461 -15.987 -0.443 -16.015 -0.446 -16.137 -0.552 7.298 0.333 0.627 0.052 41.900 40.340
187.200 -15.781 -0.585 -15.838 -0.523 -15.920 -0.457 -15.980 -0.438 -16.009 -0.441 -16.132 -0.549 7.283 0.334 0.627 0.052 41.897 40.335
187.600 -15.773 -0.582 -15.830 -0.520 -15.913 -0.452 -15.973 -0.432 -16.002 -0.436 -16.127 -0.547 7.268 0.334 0.627 0.052 41.894 40.330
188.000 -15.764 -0.579 -15.822 -0.516 -15.906 -0.446 -15.966 -0.427 -15.996 -0.430 -16.123 -0.544 7.253 0.334 0.628 0.053 41.890 40.325
188.400 -15.756 -0.576 -15.814 -0.512 -15.899 -0.441 -15.960 -0.421 -15.990 -0.424 -16.118 -0.541 7.238 0.334 0.628 0.053 41.887 40.321
188.800 -15.748 -0.573 -15.806 -0.507 -15.892 -0.435 -15.954 -0.415 -15.985 -0.418 -16.114 -0.538 7.223 0.335 0.628 0.053 41.884 40.316
189.200 -15.740 -0.569 -15.799 -0.503 -15.885 -0.429 -15.948 -0.408 -15.979 -0.412 -16.110 -0.534 7.208 0.335 0.629 0.054 41.881 40.311
189.600 -15.732 -0.566 -15.792 -0.498 -15.879 -0.423 -15.943 -0.401 -15.974 -0.406 -16.106 -0.531 7.193 0.335 0.630 0.054 41.879 40.306
190.000 -15.725 -0.563 -15.785 -0.494 -15.873 -0.416 -15.937 -0.394 -15.969 -0.399 -16.103 -0.527 7.178 0.335 0.630 0.054 41.876 40.301
190.400 -15.717 -0.559 -15.778 -0.489 -15.867 -0.410 -15.932 -0.387 -15.964 -0.392 -16.100 -0.524 7.163 0.335 0.631 0.054 41.873 40.296
190.800 -15.710 -0.556 -15.772 -0.484 -15.862 -0.403 -15.927 -0.380 -15.960 -0.385 -16.097 -0.520 7.150 0.336 0.631 0.055 41.871 40.292
191.200 -15.703 -0.552 -15.765 -0.479 -15.856 -0.397 -15.923 -0.373 -15.955 -0.378 -16.094 -0.517 7.136 0.336 0.632 0.055 41.868 40.287
191.600 -15.696 -0.549 -15.759 -0.475 -15.851 -0.390 -15.918 -0.365 -15.951 -0.371 -16.091 -0.513 7.121 0.336 0.633 0.055 41.866 40.283
192.000 -15.690 -0.545 -15.753 -0.470 -15.846 -0.383 -15.914 -0.358 -15.947 -0.363 -16.089 -0.510 7.106 0.336 0.634 0.055 41.863 40.278
192.400 -15.683 -0.542 -15.747 -0.465 -15.841 -0.376 -15.909 -0.351 -15.943 -0.356 -16.086 -0.506 7.091 0.336 0.635 0.056 41.861 40.273
192.800 -15.677 -0.538 -15.741 -0.461 -15.836 -0.370 -15.905 -0.343 -15.940 -0.349 -16.084 -0.503 7.076 0.336 0.636 0.056 41.859 40.268
193.200 -15.671 -0.535 -15.736 -0.457 -15.831 -0.363 -15.902 -0.336 -15.936 -0.342 -16.082 -0.500 7.060 0.336 0.637 0.056 41.857 40.263
193.600 -15.665 -0.532 -15.730 -0.452 -15.827 -0.357 -15.898 -0.329 -15.933 -0.336 -16.081 -0.497 7.045 0.336 0.639 0.057 41.855 40.258
194.000 -15.659 -0.530 -15.725 -0.449 -15.823 -0.351 -15.894 -0.323 -15.930 -0.329 -16.079 -0.494 7.030 0.336 0.640 0.057 41.853 40.253
194.400 -15.653 -0.527 -15.720 -0.445 -15.819 -0.346 -15.891 -0.316 -15.927 -0.324 -16.078 -0.491 7.014 0.336 0.641 0.057 41.851 40.249
194.800 -15.648 -0.525 -15.715 -0.442 -15.815 -0.341 -15.888 -0.311 -15.924 -0.318 -16.077 -0.489 6.999 0.336 0.643 0.058 41.849 40.244
195.200 -15.642 -0.523 -15.710 -0.439 -15.811 -0.336 -15.885 -0.305 -15.921 -0.313 -16.076 -0.487 6.983 0.336 0.644 0.058 41.847 40.239
195.600 -15.637 -0.521 -15.706 -0.436 -15.807 -0.332 -15.882 -0.301 -15.919 -0.309 -16.075 -0.485 6.967 0.336 0.646 0.058 41.846 40.234
196.000 -15.632 -0.519 -15.701 -0.434 -15.804 -0.329 -15.879 -0.297 -15.916 -0.305 -16.074 -0.484 6.952 0.336 0.648 0.059 41.844 40.230
196.400 -15.627 -0.518 -15.697 -0.433 -15.800 -0.326 -15.877 -0.294 -15.914 -0.302 -16.074 -0.483 6.936 0.335 0.650 0.059 41.842 40.225
196.800 -15.622 -0.517 -15.693 -0.431 -15.797 -0.325 -15.874 -0.292 -15.912 -0.300 -16.073 -0.482 6.919 0.335 0.652 0.059 41.841 40.221
197.200 -15.617 -0.517 -15.689 -0.431 -15.794 -0.323 -15.872 -0.290 -15.910 -0.299 -16.073 -0.482 6.903 0.335 0.654 0.060 41.840 40.217
197.600 -15.612 -0.516 -15.684 -0.430 -15.791 -0.323 -15.870 -0.290 -15.909 -0.299 -16.073 -0.482 6.887 0.334 0.656 0.060 41.838 40.214
198.000 -15.608 -0.516 -15.681 -0.430 -15.788 -0.323 -15.868 -0.291 -15.907 -0.299 -16.073 -0.482 6.870 0.334 0.658 0.061 41.837 40.210
198.400 -15.603 -0.517 -15.677 -0.431 -15.786 -0.325 -15.866 -0.292 -15.905 -0.301 -16.073 -0.482 6.853 0.334 0.660 0.061 41.836 40.208
198.800 -15.599 -0.517 -15.673 -0.432 -15.783 -0.326 -15.864 -0.295 -15.904 -0.303 -16.074 -0.483 6.837 0.333 0.663 0.061 41.835 40.205
199.200 -15.595 -0.518 -15.670 -0.433 -15.780 -0.329 -15.862 -0.298 -15.903 -0.306 -16.074 -0.485 6.820 0.333 0.666 0.062 41.834 40.203
199.600 -15.591 -0.519 -15.666 -0.435 -15.778 -0.332 -15.861 -0.301 -15.902 -0.309 -16.075 -0.486 6.802 0.332 0.668 0.062 41.833 40.201
200.000 -15.586 -0.520 -15.663 -0.437 -15.776 -0.335 -15.859 -0.305 -15.900 -0.313 -16.075 -0.488 6.785 0.332 0.671 0.063 41.832 40.200
200.400 -15.582 -0.522 -15.659 -0.439 -15.774 -0.339 -15.858 -0.310 -15.900 -0.318 -16.076 -0.490 6.768 0.331 0.674 0.063 41.832 40.199
200.800 -15.579 -0.524 -15.656 -0.442 -15.771 -0.343 -15.857 -0.315 -15.899 -0.323 -16.077 -0.492 6.751 0.331 0.677 0.064 41.831 40.198
201.200 -15.575 -0.525 -15.653 -0.444 -15.769 -0.348 -15.855 -0.320 -15.898 -0.328 -16.078 -0.494 6.733 0.330 0.680 0.065 41.830 40.198
201.600 -15.571 -0.527 -15.650 -0.447 -15.768 -0.352 -15.854 -0.325 -15.897 -0.333 -16.080 -0.496 6.716 0.330 0.683 0.065 41.830 40.198
202.000 -15.567 -0.529 -15.647 -0.450 -15.766 -0.357 -15.854 -0.331 -15.897 -0.338 -16.081 -0.499 6.699 0.329 0.686 0.066 41.829 40.198
202.400 -15.564 -0.531 -15.644 -0.453 -15.764 -0.362 -15.853 -0.336 -15.896 -0.343 -16.082 -0.501 6.681 0.329 0.689 0.066 41.829 40.199
202.800 -15.560 -0.533 -15.642 -0.456 -15.763 -0.367 -15.852 -0.342 -15.896 -0.348 -16.084 -0.504 6.664 0.328 0.692 0.067 41.828 40.200
203.200 -15.557 -0.535 -15.639 -0.459 -15.761 -0.371 -15.851 -0.347 -15.896 -0.354 -16.086 -0.506 6.646 0.327 0.696 0.067 41.828 40.201
203.600 -15.554 -0.537 -15.636 -0.462 -15.760 -0.376 -15.851 -0.352 -15.896 -0.359 -16.087 -0.509 6.629 0.327 0.699 0.068 41.828 40.202
204.000 -15.550 -0.539 -15.634 -0.465 -15.758 -0.380 -15.850 -0.357 -15.896 -0.364 -16.089 -0.511 6.611 0.326 0.703 0.068 41.827 40.204
204.400 -15.547 -0.541 -15.631 -0.468 -15.757 -0.385 -15.850 -0.362 -15.896 -0.368 -16.091 -0.513 6.594 0.326 0.706 0.069 41.827 40.205
204.800 -15.544 -0.543 -15.629 -0.471 -15.756 -0.389 -15.850 -0.367 -15.896 -0.373 -16.093 -0.516 6.576 0.325 0.710 0.070 41.827 40.207
205.200 -15.541 -0.545 -15.627 -0.473 -15.755 -0.392 -15.849 -0.371 -15.896 -0.377 -16.096 -0.518 6.558 0.324 0.713 0.070 41.827 40.209
205.600 -15.538 -0.546 -15.624 -0.475 -15.754 -0.396 -15.849 -0.375 -15.897 -0.380 -16.098 -0.519 6.541 0.324 0.717 0.071 41.826 40.211
206.000 -15.535 -0.548 -15.622 -0.477 -15.753 -0.399 -15.849 -0.378 -15.897 -0.384 -16.100 -0.521 6.523 0.323 0.721 0.072 41.826 40.213
206.400 -15.532 -0.549 -15.620 -0.479 -15.752 -0.402 -15.849 -0.381 -15.898 -0.387 -16.103 -0.522 6.506 0.322 0.725 0.072 41.826 40.216
206.800 -15.529 -0.550 -15.618 -0.481 -15.751 -0.404 -15.849 -0.384 -15.898 -0.390 -16.105 -0.524 6.488 0.322 0.728 0.073 41.826 40.218
207.200 -15.526 -0.550 -15.616 -0.482 -15.750 -0.406 -15.849 -0.386 -15.899 -0.392 -16.108 -0.524 6.471 0.321 0.732 0.073 41.826 40.221
207.600 -15.523 -0.551 -15.614 -0.483 -15.749 -0.408 -15.850 -0.388 -15.899 -0.394 -16.111 -0.525 6.453 0.321 0.736 0.074 41.826 40.223
208.000 -15.520 -0.551 -15.612 -0.483 -15.749 -0.409 -15.850 -0.390 -15.900 -0.395 -16.113 -0.526 6.436 0.320 0.740 0.075 41.826 40.226
208.400 -15.518 -0.551 -15.610 -0.484 -15.748 -0.410 -15.850 -0.391 -15.901 -0.396 -16.116 -0.526 6.418 0.320 0.744 0.075 41.826 40.229
208.800 -15.515 -0.550 -15.608 -0.484 -15.747 -0.410 -15.851 -0.391 -15.902 -0.396 -16.119 -0.525 6.399 0.319 0.749 0.076 41.826 40.232
209.200 -15.512 -0.550 -15.606 -0.483 -15.747 -0.410 -15.851 -0.391 -15.903 -0.396 -16.122 -0.525 6.382 0.318 0.753 0.077 41.826 40.235
209.600 -15.510 -0.549 -15.605 -0.483 -15.747 -0.410 -15.852 -0.391 -15.904 -0.396 -16.125 -0.524 6.364 0.318 0.757 0.078 41.826 40.238
210.000 -15.507 -0.548 -15.603 -0.481 -15.746 -0.409 -15.852 -0.390 -15.905 -0.395 -16.129 -0.523 6.347 0.317 0.761 0.078 41.826 40.241
210.400 -15.505 -0.546 -15.601 -0.480 -15.746 -0.407 -15.853 -0.388 -15.906 -0.393 -16.132 -0.521 6.329 0.317 0.766 0.079 41.827 40.244
210.800 -15.502 -0.544 -15.600 -0.478 -15.745 -0.405 -15.854 -0.386 -15.907 -0.391 -16.135 -0.519 6.312 0.316 0.770 0.080 41.827 40.248
211.200 -15.500 -0.542 -15.598 -0.476 -15.745 -0.403 -15.854 -0.383 -15.909 -0.389 -16.138 -0.517 6.294 0.316 0.775 0.081 41.827 40.251
211.600 -15.497 -0.540 -15.596 -0.473 -15.745 -0.400 -15.855 -0.380 -15.910 -0.386 -16.142 -0.515 6.277 0.315 0.779 0.081 41.827 40.254
212.000 -15.495 -0.537 -15.595 -0.470 -15.745 -0.396 -15.856 -0.377 -15.911 -0.382 -16.145 -0.512 6.260 0.315 0.784 0.082 41.827 40.257
212.400 -15.492 -0.534 -15.593 -0.467 -15.744 -0.392 -15.857 -0.373 -15.913 -0.378 -16.149 -0.509 6.242 0.314 0.788 0.083 41.828 40.260
212.800 -15.490 -0.531 -15.592 -0.463 -15.744 -0.388 -15.858 -0.368 -15.914 -0.373 -16.152 -0.506 6.225 0.314 0.793 0.084 41.828 40.263
213.200 -15.487 -0.527 -15.590 -0.459 -15.744 -0.383 -15.859 -0.363 -15.916 -0.368 -16.156 -0.502 6.207 0.314 0.798 0.085 41.828 40.266
213.600 -15.485 -0.523 -15.589 -0.455 -15.744 -0.378 -15.860 -0.357 -15.917 -0.363 -16.160 -0.498 6.190 0.313 0.802 0.085 41.828 40.269
214.000 -15.482 -0.519 -15.587 -0.450 -15.744 -0.372 -15.861 -0.351 -15.919 -0.357 -16.163 -0.493 6.173 0.313 0.807 0.086 41.829 40.272
214.400 -15.480 -0.515 -15.585 -0.445 -15.744 -0.366 -15.862 -0.344 -15.920 -0.350 -16.167 -0.489 6.155 0.312 0.812 0.087 41.829 40.275
214.800 -15.477 -0.510 -15.584 -0.440 -15.744 -0.359 -15.863 -0.337 -15.922 -0.343 -16.171 -0.484 6.138 0.312 0.817 0.088 41.829 40.277
215.200 -15.475 -0.506 -15.582 -0.434 -15.744 -0.352 -15.864 -0.329 -15.923 -0.336 -16.175 -0.479 6.121 0.311 0.822 0.089 41.829 40.280
215.600 -15.472 -0.501 -15.581 -0.428 -15.744 -0.344 -15.865 -0.321 -15.925 -0.328 -16.179 -0.474 6.103 0.311 0.827 0.089 41.830 40.282
216.000 -15.470 -0.496 -15.579 -0.422 -15.744 -0.336 -15.866 -0.313 -15.927 -0.319 -16.183 -0.468 6.086 0.311 0.831 0.090 41.830 40.283
216.400 -15.467 -0.490 -15.578 -0.415 -15.744 -0.328 -15.867 -0.304 -15.928 -0.310 -16.187 -0.462 6.070 0.310 0.836 0.091 41.830 40.285
216.800 -15.465 -0.485 -15.576 -0.409 -15.744 -0.319 -15.868 -0.294 -15.930 -0.301 -16.191 -0.457 6.053 0.310 0.841 0.092 41.830 40.286
217.200 -15.462 -0.479 -15.575 -0.402 -15.744 -0.310 -15.869 -0.284 -15.932 -0.291 -16.195 -0.451 6.036 0.310 0.846 0.093 41.831 40.286
217.600 -15.460 -0.474 -15.573 -0.395 -15.744 -0.301 -15.871 -0.274 -15.933 -0.281 -16.199 -0.445 6.019 0.309 0.851 0.094 41.831 40.287
218.000 -15.457 -0.468 -15.572 -0.388 -15.744 -0.292 -15.872 -0.263 -15.935 -0.271 -16.203 -0.439 6.002 0.309 0.856 0.094 41.831 40.286
218.400 -15.454 -0.462 -15.570 -0.382 -15.744 -0.282 -15.873 -0.252 -15.937 -0.260 -16.207 -0.433 5.984 0.308 0.861 0.095 41.831 40.286
218.800 -15.452 -0.457 -15.568 -0.375 -15.744 -0.272 -15.874 -0.241 -15.939 -0.249 -16.211 -0.426 5.967 0.307 0.867 0.096 41.832 40.284
219.200 -15.449 -0.451 -15.567 -0.368 -15.744 -0.262 -15.875 -0.229 -15.940 -0.238 -16.215 -0.420 5.950 0.306 0.872 0.097 41.832 40.282
219.600 -15.446 -0.446 -15.565 -0.361 -15.744 -0.252 -15.876 -0.217 -15.942 -0.227 -16.219 -0.415 5.933 0.306 0.877 0.097 41.832 40.279
220.000 -15.444 -0.440 -15.563 -0.354 -15.743 -0.242 -15.877 -0.206 -15.944 -0.216 -16.223 -0.409 5.915 0.305 0.883 0.098 41.832 40.275
220.400 -15.441 -0.435 -15.562 -0.348 -15.743 -0.232 -15.879 -0.194 -15.945 -0.205 -16.227 -0.403 5.897 0.303 0.888 0.099 41.832 40.271
220.800 -15.438 -0.430 -15.560 -0.342 -15.743 -0.223 -15.880 -0.182 -15.947 -0.194 -16.231 -0.398 5.879 0.302 0.894 0.099 41.833 40.266
221.200 -15.435 -0.426 -15.558 -0.336 -15.743 -0.214 -15.881 -0.171 -15.949 -0.183 -16.235 -0.393 5.861 0.301 0.900 0.100 41.833 40.260
221.600 -15.432 -0.421 -15.556 -0.331 -15.743 -0.205 -15.882 -0.160 -15.950 -0.173 -16.239 -0.388 5.842 0.299 0.906 0.100 41.833 40.255
222.000 -15.429 -0.417 -15.554 -0.326 -15.743 -0.197 -15.883 -0.149 -15.952 -0.163 -16.243 -0.384 5.823 0.297 0.912 0.101 41.833 40.249
222.400 -15.426 -0.413 -15.552 -0.321 -15.742 -0.190 -15.884 -0.140 -15.954 -0.155 -16.248 -0.380 5.804 0.296 0.918 0.101 41.834 40.244
222.800 -15.423 -0.410 -15.550 -0.318 -15.742 -0.185 -15.885 -0.132 -15.955 -0.148 -16.252 -0.376 5.785 0.294 0.925 0.102 41.834 40.241
223.200 -15.420 -0.407 -15.548 -0.315 -15.742 -0.180 -15.886 -0.126 -15.957 -0.142 -16.256 -0.373 5.764 0.292 0.932 0.103 41.835 40.242
223.600 -15.417 -0.404 -15.546 -0.312 -15.741 -0.177 -15.887 -0.122 -15.959 -0.139 -16.260 -0.371 5.745 0.291 0.939 0.104 41.835 40.245
224.000 -15.414 -0.402 -15.544 -0.310 -15.741 -0.176 -15.888 -0.120 -15.960 -0.137 -16.264 -0.369 5.727 0.290 0.946 0.105 41.836 40.252
224.400 -15.410 -0.400 -15.542 -0.309 -15.741 -0.176 -15.888 -0.121 -15.962 -0.138 -16.268 -0.367 5.709 0.290 0.952 0.106 41.837 40.265
224.800 -15.407 -0.399 -15.540 -0.309 -15.740 -0.178 -15.889 -0.125 -15.963 -0.141 -16.272 -0.366 5.692 0.290 0.959 0.107 41.838 40.281
225.200 -15.404 -0.398 -15.538 -0.309 -15.740 -0.181 -15.890 -0.131 -15.964 -0.146 -16.276 -0.365 5.675 0.290 0.966 0.109 41.839 40.300
225.600 -15.400 -0.397 -15.535 -0.310 -15.739 -0.186 -15.891 -0.138 -15.966 -0.152 -16.280 -0.365 5.658 0.290 0.973 0.111 41.840 40.321
226.000 -15.397 -0.397 -15.533 -0.311 -15.738 -0.192 -15.891 -0.147 -15.967 -0.160 -16.284 -0.366 5.642 0.290 0.980 0.113 41.841 40.343
226.400 -15.393 -0.397 -15.530 -0.313 -15.738 -0.198 -15.892 -0.157 -15.968 -0.169 -16.288 -0.366 5.625 0.291 0.987 0.115 41.842 40.364
226.800 -15.389 -0.398 -15.528 -0.316 -15.737 -0.206 -15.893 -0.168 -15.970 -0.178 -16.292 -0.368 5.607 0.291 0.995 0.116 41.843 40.385
227.200 -15.386 -0.399 -15.525 -0.319 -15.736 -0.214 -15.893 -0.179 -15.971 -0.188 -16.296 -0.369 5.589 0.290 1.003 0.118 41.845 40.405
227.600 -15.382 -0.400 -15.523 -0.322 -15.735 -0.222 -15.894 -0.190 -15.972 -0.199 -16.299 -0.371 5.572 0.290 1.011 0.120 41.846 40.425
228.000 -15.378 -0.401 -15.520 -0.326 -15.735 -0.231 -15.894 -0.201 -15.973 -0.209 -16.303 -0.373 5.553 0.290 1.019 0.122 41.848 40.443
228.400 -15.374 -0.402 -15.517 -0.330 -15.734 -0.239 -15.895 -0.212 -15.975 -0.219 -16.307 -0.375 5.535 0.289 1.028 0.124 41.849 40.459
228.800 -15.370 -0.404 -15.515 -0.334 -15.733 -0.248 -15.895 -0.222 -15.976 -0.229 -16.311 -0.378 5.517 0.288 1.036 0.125 41.850 40.475
229.200 -15.366 -0.406 -15.512 -0.338 -15.732 -0.257 -15.896 -0.233 -15.977 -0.239 -16.315 -0.380 5.498 0.287 1.045 0.127 41.852 40.490
229.600 -15.362 -0.407 -15.509 -0.342 -15.731 -0.265 -15.896 -0.243 -15.978 -0.249 -16.318 -0.383 5.480 0.286 1.054 0.129 41.853 40.504
230.000 -15.358 -0.409 -15.506 -0.346 -15.730 -0.273 -15.897 -0.253 -15.979 -0.258 -16.322 -0.385 5.461 0.285 1.062 0.130 41.855 40.516
230.400 -15.354 -0.411 -15.503 -0.350 -15.729 -0.281 -15.897 -0.262 -15.980 -0.267 -16.326 -0.388 5.443 0.283 1.071 0.132 41.856 40.529
230.800 -15.349 -0.412 -15.500 -0.354 -15.728 -0.289 -15.897 -0.271 -15.981 -0.276 -16.329 -0.390 5.424 0.282 1.080 0.134 41.857 40.540
231.200 -15.345 -0.414 -15.497 -0.358 -15.726 -0.296 -15.898 -0.280 -15.982 -0.284 -16.333 -0.392 5.406 0.281 1.089 0.135 41.859 40.551
231.600 -15.341 -0.415 -15.494 -0.362 -15.725 -0.303 -15.898 -0.287 -15.983 -0.292 -16.336 -0.394 5.388 0.279 1.098 0.137 41.860 40.561
232.000 -15.336 -0.416 -15.490 -0.365 -15.724 -0.309 -15.898 -0.295 -15.984 -0.299 -16.340 -0.396 5.370 0.278 1.107 0.138 41.861 40.571
232.400 -15.332 -0.417 -15.487 -0.368 -15.723 -0.315 -15.898 -0.302 -15.985 -0.305 -16.343 -0.398 5.352 0.276 1.116 0.139 41.862 40.580
232.800 -15.327 -0.417 -15.484 -0.370 -15.721 -0.321 -15.898 -0.308 -15.986 -0.311 -16.347 -0.399 5.334 0.275 1.125 0.141 41.864 40.589
233.200 -15.323 -0.418 -15.481 -0.373 -15.720 -0.325 -15.899 -0.314 -15.986 -0.317 -16.350 -0.400 5.316 0.273 1.135 0.142 41.865 40.597
233.600 -15.318 -0.418 -15.477 -0.374 -15.719 -0.330 -15.899 -0.319 -15.987 -0.322 -16.353 -0.401 5.300 0.272 1.143 0.144 41.866 40.605
234.000 -15.313 -0.417 -15.474 -0.376 -15.717 -0.333 -15.899 -0.323 -15.988 -0.326 -16.357 -0.401 5.283 0.271 1.152 0.145 41.867 40.612
234.400 -15.308 -0.417 -15.470 -0.377 -15.716 -0.337 -15.899 -0.327 -15.989 -0.329 -16.360 -0.401 5.265 0.269 1.161 0.146 41.868 40.620
234.800 -15.303 -0.415 -15.467 -0.377 -15.714 -0.339 -15.899 -0.330 -15.990 -0.332 -16.363 -0.400 5.248 0.268 1.170 0.148 41.869 40.627
235.200 -15.299 -0.414 -15.463 -0.377 -15.713 -0.341 -15.899 -0.332 -15.990 -0.335 -16.366 -0.399 5.231 0.266 1.180 0.149 41.871 40.634
235.600 -15.294 -0.412 -15.459 -0.377 -15.711 -0.342 -15.899 -0.334 -15.991 -0.337 -16.369 -0.398 5.214 0.265 1.189 0.150 41.872 40.640
236.000 -15.289 -0.409 -15.456 -0.375 -15.710 -0.343 -15.899 -0.336 -15.991 -0.338 -16.372 -0.396 5.197 0.263 1.198 0.152 41.873 40.646
236.400 -15.283 -0.407 -15.452 -0.374 -15.708 -0.343 -15.898 -0.336 -15.992 -0.338 -16.375 -0.393 5.181 0.261 1.207 0.153 41.874 40.652
236.800 -15.278 -0.403 -15.448 -0.372 -15.706 -0.343 -15.898 -0.336 -15.993 -0.338 -16.377 -0.390 5.164 0.260 1.216 0.154 41.875 40.658
237.200 -15.273 -0.399 -15.444 -0.369 -15.705 -0.341 -15.898 -0.335 -15.993 -0.337 -16.380 -0.387 5.148 0.258 1.226 0.156 41.876 40.664
237.600 -15.268 -0.395 -15.440 -0.366 -15.703 -0.339 -15.898 -0.334 -15.994 -0.335 -16.383 -0.383 5.132 0.257 1.235 0.157 41.877 40.669
238.000 -15.263 -0.390 -15.436 -0.362 -15.701 -0.337 -15.898 -0.331 -15.994 -0.333 -16.385 -0.378 5.116 0.255 1.244 0.158 41.878 40.674
238.400 -15.257 -0.385 -15.432 -0.357 -15.699 -0.334 -15.897 -0.329 -15.994 -0.330 -16.388 -0.373 5.100 0.253 1.253 0.159 41.879 40.679
238.800 -15.252 -0.379 -15.428 -0.352 -15.697 -0.330 -15.897 -0.325 -15.995 -0.326 -16.390 -0.368 5.084 0.252 1.262 0.160 41.880 40.684
239.200 -15.247 -0.372 -15.424 -0.347 -15.696 -0.325 -15.897 -0.321 -15.995 -0.322 -16.392 -0.362 5.069 0.250 1.271 0.161 41.881 40.688
239.600 -15.241 -0.366 -15.420 -0.341 -15.694 -0.320 -15.896 -0.316 -15.995 -0.317 -16.394 -0.355 5.053 0.248 1.280 0.162 41.882 40.692
240.000 -15.236 -0.358 -15.416 -0.334 -15.692 -0.314 -15.896 -0.310 -15.995 -0.311 -16.396 -0.348 5.038 0.247 1.289 0.163 41.883 40.696
240.400 -15.230 -0.350 -15.412 -0.326 -15.690 -0.308 -15.895 -0.304 -15.995 -0.305 -16.398 -0.340 5.023 0.245 1.298 0.164 41.884 40.700
240.800 -15.224 -0.342 -15.408 -0.318 -15.688 -0.300 -15.895 -0.297 -15.995 -0.298 -16.399 -0.332 5.009 0.243 1.307 0.165 41.884 40.703
241.200 -15.219 -0.333 -15.403 -0.310 -15.686 -0.292 -15.894 -0.289 -15.995 -0.290 -16.401 -0.323 4.995 0.241 1.316 0.166 41.885 40.706
241.600 -15.213 -0.323 -15.399 -0.301 -15.683 -0.284 -15.893 -0.281 -15.995 -0.282 -16.402 -0.314 4.981 0.239 1.324 0.166 41.886 40.709
242.000 -15.207 -0.314 -15.395 -0.291 -15.681 -0.275 -15.893 -0.272 -15.995 -0.273 -16.403 -0.304 4.967 0.237 1.332 0.167 41.886 40.711
242.400 -15.202 -0.303 -15.390 -0.281 -15.679 -0.265 -15.892 -0.263 -15.995 -0.264 -16.404 -0.294 4.954 0.236 1.340 0.168 41.887 40.713
242.800 -15.196 -0.293 -15.386 -0.270 -15.677 -0.255 -15.891 -0.253 -15.994 -0.254 -16.404 -0.283 4.941 0.234 1.348 0.168 41.887 40.715
243.200 -15.190 -0.282 -15.381 -0.259 -15.674 -0.244 -15.890 -0.242 -15.994 -0.243 -16.404 -0.272 4.928 0.232 1.356 0.168 41.888 40.716
243.600 -15.185 -0.271 -15.377 -0.247 -15.672 -0.233 -15.888 -0.231 -15.993 -0.232 -16.405 -0.260 4.916 0.230 1.363 0.169 41.888 40.717
244.000 -15.179 -0.259 -15.372 -0.236 -15.670 -0.221 -15.887 -0.219 -15.992 -0.220 -16.404 -0.249 4.904 0.228 1.370 0.169 41.888 40.717
244.400 -15.173 -0.248 -15.368 -0.223 -15.667 -0.209 -15.886 -0.207 -15.991 -0.208 -16.404 -0.237 4.893 0.226 1.376 0.169 41.888 40.717
244.800 -15.167 -0.236 -15.363 -0.211 -15.664 -0.196 -15.884 -0.195 -15.990 -0.196 -16.403 -0.225 4.882 0.225 1.382 0.169 41.888 40.717
245.200 -15.162 -0.225 -15.359 -0.199 -15.662 -0.183 -15.882 -0.182 -15.988 -0.183 -16.402 -0.213 4.872 0.223 1.387 0.169 41.888 40.715
245.600 -15.156 -0.214 -15.354 -0.186 -15.659 -0.170 -15.880 -0.169 -15.987 -0.170 -16.401 -0.201 4.863 0.221 1.392 0.169 41.888 40.714
246.000 -15.151 -0.204 -15.350 -0.174 -15.656 -0.158 -15.878 -0.157 -15.985 -0.158 -16.399 -0.190 4.854 0.220 1.396 0.169 41.887 40.711
246.400 -15.145 -0.194 -15.345 -0.163 -15.653 -0.146 -15.876 -0.144 -15.982 -0.146 -16.397 -0.180 4.845 0.219 1.400 0.169 41.886 40.708
246.800 -15.140 -0.185 -15.341 -0.153 -15.650 -0.134 -15.873 -0.133 -15.980 -0.134 -16.395 -0.170 4.838 0.218 1.402 0.168 41.885 40.704
247.200 -15.135 -0.179 -15.336 -0.144 -15.646 -0.124 -15.870 -0.122 -15.977 -0.124 -16.392 -0.163 4.832 0.217 1.404 0.168 41.884 40.700
247.600 -15.130 -0.173 -15.332 -0.138 -15.643 -0.116 -15.867 -0.114 -15.974 -0.116 -16.389 -0.157 4.826 0.216 1.405 0.168 41.882 40.696
248.000 -15.125 -0.171 -15.327 -0.133 -15.639 -0.110 -15.863 -0.108 -15.970 -0.111 -16.385 -0.153 4.822 0.216 1.404 0.167 41.881 40.691
248.400 -15.120 -0.171 -15.323 -0.132 -15.635 -0.109 -15.859 -0.106 -15.966 -0.109 -16.381 -0.153 4.821 0.215 1.402 0.167 41.879 40.688
248.800 -15.116 -0.173 -15.319 -0.135 -15.630 -0.111 -15.855 -0.108 -15.962 -0.110 -16.377 -0.155 4.822 0.216 1.398 0.167 41.877 40.686
249.200 -15.113 -0.179 -15.315 -0.141 -15.626 -0.116 -15.850 -0.114 -15.957 -0.116 -16.372 -0.161 4.825 0.217 1.394 0.167 41.875 40.687
249.600 -15.109 -0.187 -15.310 -0.150 -15.621 -0.126 -15.845 -0.123 -15.952 -0.125 -16.367 -0.169 4.829 0.218 1.388 0.167 41.873 40.688
