"Time (MJD)" cyan-5182.42 cyan-5182.42_err g-4746.48 g-4746.48_err g-4793.46 g-4793.46_err i-7589.41 i-7589.41_err i-7829.03 i-7829.03_err orange-6629.82 orange-6629.82_err r-6120.65 r-6120.65_err r-6366.38 r-6366.38_err u-3513.68 u-3513.68_err z-8970.57 z-8970.57_err "Temp./1e3 (K)" "Temp. Err." "Radius/1e15 (cm)" "Radius Err." "Log10(Bol. Lum)" "Log10(Bol. Err)"
-93.000 -18.358 -0.174 -18.946 -0.081 -18.965 -0.080 -19.102 -0.078 -19.314 -0.075 -19.331 -0.073 -19.324 -0.076 -19.188 -0.087 -19.147 -0.089 -18.952 -0.142 9.070 0.367 1.962 0.141 43.269 41.805
-92.600 -18.378 -0.173 -18.969 -0.079 -18.988 -0.078 -19.126 -0.077 -19.338 -0.073 -19.355 -0.071 -19.347 -0.074 -19.210 -0.085 -19.168 -0.087 -18.971 -0.140 9.071 0.371 1.983 0.144 43.278 41.819
-92.200 -18.397 -0.171 -18.992 -0.078 -19.011 -0.076 -19.149 -0.076 -19.361 -0.072 -19.378 -0.069 -19.370 -0.072 -19.232 -0.083 -19.190 -0.086 -18.990 -0.139 9.073 0.375 2.003 0.147 43.287 41.832
-91.800 -18.416 -0.170 -19.015 -0.076 -19.034 -0.075 -19.172 -0.075 -19.385 -0.070 -19.401 -0.068 -19.393 -0.071 -19.254 -0.082 -19.212 -0.084 -19.009 -0.138 9.076 0.379 2.023 0.150 43.296 41.846
-91.400 -18.436 -0.169 -19.038 -0.075 -19.057 -0.074 -19.196 -0.074 -19.408 -0.070 -19.424 -0.067 -19.416 -0.070 -19.276 -0.080 -19.233 -0.083 -19.028 -0.137 9.079 0.383 2.043 0.152 43.305 41.859
-91.000 -18.455 -0.168 -19.061 -0.075 -19.080 -0.074 -19.219 -0.073 -19.431 -0.069 -19.447 -0.066 -19.438 -0.069 -19.298 -0.079 -19.255 -0.082 -19.047 -0.136 9.084 0.386 2.062 0.155 43.315 41.873
-90.600 -18.475 -0.167 -19.084 -0.074 -19.103 -0.073 -19.242 -0.073 -19.454 -0.068 -19.470 -0.066 -19.461 -0.069 -19.320 -0.078 -19.277 -0.080 -19.066 -0.136 9.089 0.389 2.081 0.157 43.324 41.886
-90.200 -18.494 -0.167 -19.107 -0.074 -19.126 -0.073 -19.265 -0.073 -19.476 -0.068 -19.492 -0.065 -19.483 -0.068 -19.342 -0.078 -19.298 -0.080 -19.085 -0.135 9.096 0.391 2.100 0.159 43.333 41.899
-89.800 -18.514 -0.166 -19.129 -0.074 -19.148 -0.073 -19.288 -0.073 -19.499 -0.068 -19.515 -0.065 -19.505 -0.068 -19.364 -0.077 -19.320 -0.079 -19.104 -0.135 9.102 0.394 2.119 0.161 43.342 41.912
-89.400 -18.533 -0.166 -19.152 -0.074 -19.171 -0.073 -19.311 -0.073 -19.521 -0.068 -19.537 -0.065 -19.527 -0.068 -19.385 -0.076 -19.341 -0.078 -19.123 -0.135 9.110 0.396 2.138 0.163 43.351 41.925
-89.000 -18.553 -0.165 -19.175 -0.074 -19.194 -0.073 -19.334 -0.073 -19.543 -0.068 -19.558 -0.065 -19.549 -0.068 -19.407 -0.076 -19.363 -0.078 -19.142 -0.135 9.117 0.398 2.156 0.165 43.360 41.937
-88.600 -18.572 -0.165 -19.197 -0.075 -19.216 -0.073 -19.357 -0.073 -19.565 -0.068 -19.580 -0.065 -19.571 -0.068 -19.428 -0.076 -19.384 -0.077 -19.161 -0.135 9.125 0.399 2.174 0.167 43.368 41.949
-88.200 -18.592 -0.165 -19.219 -0.075 -19.239 -0.074 -19.380 -0.074 -19.587 -0.068 -19.601 -0.065 -19.592 -0.068 -19.450 -0.075 -19.405 -0.077 -19.179 -0.135 9.134 0.401 2.192 0.168 43.377 41.961
-87.800 -18.611 -0.165 -19.242 -0.075 -19.261 -0.074 -19.402 -0.074 -19.608 -0.068 -19.622 -0.066 -19.613 -0.068 -19.471 -0.075 -19.427 -0.077 -19.198 -0.136 9.142 0.402 2.210 0.170 43.386 41.973
-87.400 -18.631 -0.165 -19.264 -0.076 -19.283 -0.075 -19.424 -0.075 -19.629 -0.069 -19.643 -0.066 -19.634 -0.069 -19.492 -0.075 -19.448 -0.077 -19.217 -0.136 9.151 0.402 2.228 0.171 43.395 41.984
-87.000 -18.650 -0.166 -19.286 -0.077 -19.305 -0.076 -19.447 -0.075 -19.650 -0.069 -19.664 -0.067 -19.654 -0.069 -19.513 -0.075 -19.468 -0.077 -19.235 -0.137 9.160 0.403 2.246 0.172 43.403 41.994
-86.600 -18.670 -0.166 -19.307 -0.077 -19.327 -0.076 -19.469 -0.076 -19.671 -0.070 -19.684 -0.067 -19.674 -0.069 -19.534 -0.075 -19.489 -0.076 -19.254 -0.137 9.168 0.403 2.264 0.173 43.412 42.004
-86.200 -18.689 -0.166 -19.329 -0.078 -19.349 -0.077 -19.490 -0.076 -19.691 -0.070 -19.704 -0.067 -19.694 -0.070 -19.555 -0.075 -19.510 -0.076 -19.272 -0.138 9.177 0.403 2.281 0.174 43.420 42.014
-85.800 -18.708 -0.167 -19.351 -0.079 -19.370 -0.078 -19.512 -0.077 -19.711 -0.070 -19.723 -0.068 -19.714 -0.070 -19.575 -0.075 -19.530 -0.076 -19.291 -0.139 9.186 0.403 2.299 0.175 43.428 42.024
-85.400 -18.728 -0.167 -19.372 -0.079 -19.392 -0.078 -19.534 -0.078 -19.731 -0.071 -19.743 -0.068 -19.733 -0.071 -19.595 -0.075 -19.550 -0.076 -19.309 -0.139 9.195 0.402 2.317 0.176 43.437 42.033
-85.000 -18.747 -0.167 -19.393 -0.080 -19.413 -0.079 -19.555 -0.078 -19.750 -0.071 -19.762 -0.069 -19.752 -0.071 -19.615 -0.076 -19.570 -0.077 -19.327 -0.140 9.203 0.401 2.334 0.176 43.445 42.041
-84.600 -18.766 -0.168 -19.414 -0.081 -19.434 -0.080 -19.576 -0.079 -19.769 -0.072 -19.781 -0.069 -19.771 -0.071 -19.635 -0.076 -19.590 -0.077 -19.345 -0.141 9.212 0.401 2.352 0.177 43.453 42.050
-84.200 -18.785 -0.168 -19.435 -0.081 -19.455 -0.080 -19.597 -0.079 -19.788 -0.072 -19.799 -0.070 -19.789 -0.072 -19.654 -0.076 -19.609 -0.077 -19.363 -0.142 9.221 0.400 2.369 0.177 43.461 42.058
-83.800 -18.804 -0.169 -19.456 -0.082 -19.476 -0.081 -19.618 -0.080 -19.807 -0.073 -19.817 -0.070 -19.808 -0.072 -19.673 -0.076 -19.628 -0.077 -19.381 -0.143 9.229 0.399 2.386 0.178 43.469 42.065
-83.400 -18.823 -0.170 -19.477 -0.083 -19.496 -0.082 -19.638 -0.080 -19.825 -0.073 -19.835 -0.071 -19.825 -0.073 -19.692 -0.076 -19.647 -0.077 -19.399 -0.144 9.238 0.397 2.404 0.178 43.477 42.073
-83.000 -18.842 -0.170 -19.497 -0.083 -19.517 -0.082 -19.659 -0.080 -19.843 -0.074 -19.853 -0.071 -19.843 -0.073 -19.711 -0.076 -19.666 -0.077 -19.417 -0.144 9.247 0.396 2.421 0.178 43.485 42.080
-82.600 -18.861 -0.171 -19.517 -0.084 -19.537 -0.083 -19.679 -0.081 -19.861 -0.074 -19.870 -0.071 -19.860 -0.073 -19.730 -0.076 -19.685 -0.077 -19.435 -0.145 9.256 0.394 2.438 0.178 43.492 42.087
-82.200 -18.880 -0.171 -19.537 -0.084 -19.557 -0.083 -19.698 -0.081 -19.879 -0.074 -19.887 -0.072 -19.878 -0.073 -19.748 -0.076 -19.703 -0.077 -19.452 -0.146 9.265 0.393 2.454 0.179 43.500 42.093
-81.800 -18.898 -0.172 -19.557 -0.084 -19.577 -0.083 -19.718 -0.081 -19.896 -0.074 -19.904 -0.072 -19.894 -0.074 -19.766 -0.077 -19.721 -0.078 -19.470 -0.147 9.274 0.391 2.471 0.179 43.508 42.099
-81.400 -18.917 -0.172 -19.577 -0.085 -19.596 -0.084 -19.738 -0.082 -19.913 -0.075 -19.921 -0.072 -19.911 -0.074 -19.783 -0.077 -19.739 -0.078 -19.487 -0.148 9.284 0.389 2.487 0.179 43.515 42.105
-81.000 -18.935 -0.173 -19.596 -0.085 -19.616 -0.084 -19.757 -0.082 -19.930 -0.075 -19.937 -0.072 -19.927 -0.074 -19.801 -0.077 -19.756 -0.078 -19.505 -0.149 9.293 0.388 2.504 0.179 43.523 42.111
-80.600 -18.954 -0.173 -19.615 -0.085 -19.635 -0.084 -19.776 -0.082 -19.947 -0.075 -19.953 -0.072 -19.943 -0.074 -19.818 -0.077 -19.773 -0.078 -19.522 -0.150 9.303 0.386 2.520 0.178 43.530 42.117
-80.200 -18.972 -0.174 -19.634 -0.086 -19.654 -0.084 -19.795 -0.082 -19.963 -0.075 -19.969 -0.073 -19.959 -0.074 -19.835 -0.077 -19.790 -0.078 -19.539 -0.150 9.313 0.384 2.536 0.178 43.537 42.122
-79.800 -18.990 -0.174 -19.653 -0.086 -19.673 -0.085 -19.813 -0.082 -19.979 -0.075 -19.985 -0.073 -19.975 -0.074 -19.851 -0.077 -19.807 -0.078 -19.556 -0.151 9.323 0.382 2.551 0.178 43.545 42.127
-79.400 -19.009 -0.175 -19.672 -0.086 -19.691 -0.085 -19.832 -0.082 -19.995 -0.075 -20.000 -0.073 -19.990 -0.074 -19.868 -0.077 -19.824 -0.078 -19.572 -0.152 9.333 0.380 2.567 0.178 43.552 42.132
-79.000 -19.027 -0.175 -19.690 -0.086 -19.710 -0.085 -19.850 -0.082 -20.010 -0.075 -20.015 -0.073 -20.005 -0.074 -19.884 -0.077 -19.840 -0.078 -19.589 -0.153 9.343 0.378 2.582 0.178 43.559 42.137
-78.600 -19.045 -0.176 -19.708 -0.086 -19.728 -0.085 -19.868 -0.082 -20.026 -0.075 -20.030 -0.073 -20.020 -0.074 -19.900 -0.077 -19.856 -0.078 -19.606 -0.153 9.353 0.376 2.597 0.177 43.566 42.142
-78.200 -19.063 -0.176 -19.726 -0.086 -19.746 -0.085 -19.886 -0.082 -20.041 -0.075 -20.045 -0.072 -20.035 -0.074 -19.916 -0.077 -19.872 -0.078 -19.622 -0.154 9.364 0.373 2.612 0.177 43.573 42.146
-77.800 -19.080 -0.176 -19.744 -0.086 -19.764 -0.085 -19.903 -0.082 -20.056 -0.075 -20.059 -0.072 -20.050 -0.074 -19.931 -0.077 -19.888 -0.078 -19.639 -0.154 9.375 0.371 2.627 0.176 43.580 42.151
-77.400 -19.098 -0.177 -19.762 -0.086 -19.782 -0.085 -19.921 -0.082 -20.071 -0.075 -20.074 -0.072 -20.064 -0.074 -19.947 -0.077 -19.903 -0.078 -19.655 -0.155 9.386 0.369 2.641 0.176 43.586 42.155
-77.000 -19.116 -0.177 -19.779 -0.086 -19.799 -0.085 -19.938 -0.082 -20.086 -0.075 -20.088 -0.072 -20.078 -0.074 -19.962 -0.077 -19.918 -0.078 -19.671 -0.155 9.397 0.367 2.656 0.175 43.593 42.159
-76.600 -19.133 -0.177 -19.797 -0.086 -19.817 -0.085 -19.955 -0.081 -20.100 -0.075 -20.102 -0.072 -20.092 -0.073 -19.976 -0.077 -19.933 -0.078 -19.687 -0.156 9.408 0.365 2.670 0.175 43.600 42.163
-76.200 -19.151 -0.178 -19.814 -0.086 -19.834 -0.085 -19.972 -0.081 -20.114 -0.074 -20.116 -0.072 -20.106 -0.073 -19.991 -0.077 -19.948 -0.078 -19.703 -0.156 9.420 0.363 2.683 0.174 43.606 42.167
-75.800 -19.168 -0.178 -19.831 -0.086 -19.851 -0.085 -19.988 -0.081 -20.129 -0.074 -20.130 -0.071 -20.120 -0.073 -20.006 -0.077 -19.963 -0.078 -19.719 -0.157 9.432 0.361 2.697 0.174 43.613 42.171
-75.400 -19.185 -0.178 -19.848 -0.086 -19.868 -0.085 -20.005 -0.081 -20.143 -0.074 -20.143 -0.071 -20.133 -0.073 -20.020 -0.077 -19.978 -0.078 -19.734 -0.157 9.443 0.358 2.711 0.173 43.619 42.175
-75.000 -19.202 -0.178 -19.865 -0.086 -19.884 -0.084 -20.021 -0.081 -20.156 -0.074 -20.157 -0.071 -20.147 -0.072 -20.034 -0.076 -19.992 -0.078 -19.750 -0.158 9.455 0.356 2.724 0.173 43.626 42.179
-74.600 -19.219 -0.178 -19.881 -0.086 -19.901 -0.084 -20.037 -0.080 -20.170 -0.073 -20.170 -0.070 -20.160 -0.072 -20.048 -0.076 -20.006 -0.078 -19.765 -0.158 9.467 0.354 2.737 0.172 43.632 42.183
-74.200 -19.236 -0.178 -19.898 -0.085 -19.917 -0.084 -20.053 -0.080 -20.184 -0.073 -20.183 -0.070 -20.173 -0.072 -20.062 -0.076 -20.020 -0.078 -19.781 -0.158 9.479 0.352 2.750 0.171 43.639 42.187
-73.800 -19.253 -0.178 -19.914 -0.085 -19.933 -0.084 -20.069 -0.080 -20.197 -0.073 -20.196 -0.070 -20.186 -0.071 -20.075 -0.076 -20.034 -0.078 -19.796 -0.158 9.492 0.350 2.763 0.171 43.645 42.191
-73.400 -19.270 -0.178 -19.930 -0.085 -19.950 -0.083 -20.084 -0.080 -20.211 -0.073 -20.209 -0.069 -20.199 -0.071 -20.089 -0.076 -20.048 -0.078 -19.811 -0.158 9.504 0.348 2.775 0.170 43.651 42.194
-73.000 -19.286 -0.178 -19.946 -0.085 -19.965 -0.083 -20.100 -0.079 -20.224 -0.072 -20.222 -0.069 -20.212 -0.071 -20.102 -0.076 -20.061 -0.077 -19.826 -0.158 9.517 0.346 2.788 0.169 43.657 42.198
-72.600 -19.303 -0.178 -19.962 -0.084 -19.981 -0.083 -20.115 -0.079 -20.237 -0.072 -20.235 -0.069 -20.224 -0.070 -20.115 -0.076 -20.075 -0.077 -19.841 -0.158 9.529 0.344 2.800 0.169 43.663 42.202
-72.200 -19.319 -0.177 -19.978 -0.084 -19.997 -0.083 -20.130 -0.079 -20.250 -0.072 -20.248 -0.068 -20.237 -0.070 -20.129 -0.075 -20.088 -0.077 -19.856 -0.159 9.542 0.342 2.812 0.168 43.669 42.206
-71.800 -19.336 -0.177 -19.994 -0.084 -20.013 -0.082 -20.145 -0.079 -20.263 -0.071 -20.261 -0.068 -20.250 -0.070 -20.141 -0.075 -20.101 -0.077 -19.871 -0.158 9.554 0.340 2.824 0.168 43.675 42.209
-71.400 -19.352 -0.177 -20.009 -0.084 -20.028 -0.082 -20.160 -0.078 -20.276 -0.071 -20.273 -0.068 -20.262 -0.069 -20.154 -0.075 -20.114 -0.077 -19.885 -0.158 9.567 0.338 2.837 0.167 43.681 42.213
-71.000 -19.368 -0.177 -20.024 -0.083 -20.043 -0.082 -20.175 -0.078 -20.289 -0.071 -20.286 -0.067 -20.274 -0.069 -20.167 -0.075 -20.127 -0.077 -19.900 -0.158 9.579 0.337 2.848 0.166 43.687 42.217
-70.600 -19.384 -0.176 -20.040 -0.083 -20.059 -0.081 -20.189 -0.078 -20.301 -0.071 -20.298 -0.067 -20.287 -0.068 -20.180 -0.075 -20.140 -0.077 -19.914 -0.158 9.592 0.335 2.860 0.166 43.693 42.220
-70.200 -19.400 -0.176 -20.055 -0.083 -20.074 -0.081 -20.204 -0.077 -20.314 -0.070 -20.310 -0.067 -20.299 -0.068 -20.192 -0.075 -20.153 -0.077 -19.929 -0.158 9.604 0.333 2.872 0.165 43.699 42.224
-69.800 -19.416 -0.175 -20.070 -0.082 -20.089 -0.081 -20.218 -0.077 -20.326 -0.070 -20.323 -0.066 -20.311 -0.068 -20.205 -0.074 -20.165 -0.076 -19.943 -0.158 9.617 0.331 2.884 0.165 43.705 42.227
-69.400 -19.432 -0.175 -20.085 -0.082 -20.103 -0.080 -20.232 -0.077 -20.339 -0.070 -20.335 -0.066 -20.323 -0.067 -20.217 -0.074 -20.178 -0.076 -19.957 -0.157 9.629 0.329 2.896 0.164 43.711 42.231
-69.000 -19.447 -0.174 -20.100 -0.081 -20.118 -0.080 -20.246 -0.077 -20.351 -0.069 -20.347 -0.066 -20.335 -0.067 -20.229 -0.074 -20.191 -0.076 -19.971 -0.157 9.641 0.328 2.907 0.163 43.716 42.234
-68.600 -19.463 -0.174 -20.114 -0.081 -20.133 -0.080 -20.260 -0.076 -20.364 -0.069 -20.359 -0.065 -20.347 -0.067 -20.241 -0.074 -20.203 -0.076 -19.985 -0.157 9.653 0.326 2.919 0.163 43.722 42.238
-68.200 -19.478 -0.173 -20.129 -0.081 -20.147 -0.079 -20.274 -0.076 -20.376 -0.069 -20.371 -0.065 -20.359 -0.067 -20.254 -0.073 -20.215 -0.075 -19.999 -0.156 9.665 0.324 2.931 0.162 43.728 42.241
-67.800 -19.494 -0.172 -20.143 -0.080 -20.162 -0.079 -20.287 -0.076 -20.388 -0.069 -20.383 -0.065 -20.371 -0.066 -20.266 -0.073 -20.228 -0.075 -20.013 -0.156 9.677 0.322 2.942 0.162 43.733 42.245
-67.400 -19.509 -0.172 -20.158 -0.080 -20.176 -0.078 -20.301 -0.075 -20.400 -0.068 -20.395 -0.065 -20.383 -0.066 -20.278 -0.073 -20.240 -0.075 -20.027 -0.155 9.688 0.320 2.954 0.161 43.739 42.248
-67.000 -19.525 -0.171 -20.172 -0.079 -20.190 -0.078 -20.314 -0.075 -20.412 -0.068 -20.407 -0.064 -20.395 -0.066 -20.290 -0.073 -20.252 -0.075 -20.040 -0.155 9.700 0.319 2.966 0.160 43.744 42.251
-66.600 -19.540 -0.170 -20.186 -0.079 -20.204 -0.077 -20.327 -0.075 -20.424 -0.068 -20.419 -0.064 -20.406 -0.065 -20.301 -0.072 -20.264 -0.074 -20.054 -0.154 9.711 0.317 2.978 0.160 43.750 42.254
-66.200 -19.555 -0.169 -20.200 -0.078 -20.218 -0.077 -20.341 -0.074 -20.436 -0.067 -20.431 -0.064 -20.418 -0.065 -20.313 -0.072 -20.276 -0.074 -20.067 -0.153 9.722 0.315 2.990 0.159 43.755 42.257
-65.800 -19.570 -0.169 -20.214 -0.078 -20.232 -0.076 -20.353 -0.074 -20.448 -0.067 -20.442 -0.063 -20.430 -0.065 -20.325 -0.072 -20.288 -0.073 -20.081 -0.153 9.732 0.313 3.002 0.159 43.760 42.260
-65.400 -19.585 -0.168 -20.228 -0.077 -20.246 -0.076 -20.366 -0.074 -20.460 -0.067 -20.454 -0.063 -20.441 -0.064 -20.337 -0.071 -20.300 -0.073 -20.094 -0.152 9.743 0.311 3.014 0.158 43.766 42.263
-65.000 -19.600 -0.167 -20.242 -0.076 -20.259 -0.075 -20.379 -0.073 -20.471 -0.066 -20.466 -0.062 -20.453 -0.064 -20.349 -0.071 -20.312 -0.073 -20.107 -0.151 9.754 0.309 3.026 0.157 43.771 42.266
-64.600 -19.614 -0.166 -20.255 -0.076 -20.273 -0.074 -20.392 -0.073 -20.483 -0.066 -20.477 -0.062 -20.464 -0.064 -20.360 -0.070 -20.324 -0.072 -20.121 -0.150 9.764 0.307 3.038 0.157 43.776 42.268
-64.200 -19.629 -0.165 -20.269 -0.075 -20.287 -0.074 -20.404 -0.073 -20.495 -0.065 -20.489 -0.062 -20.475 -0.063 -20.372 -0.070 -20.336 -0.072 -20.134 -0.150 9.774 0.306 3.050 0.156 43.782 42.271
-63.800 -19.644 -0.164 -20.283 -0.074 -20.300 -0.073 -20.417 -0.072 -20.506 -0.065 -20.500 -0.061 -20.487 -0.063 -20.384 -0.070 -20.348 -0.071 -20.147 -0.149 9.784 0.304 3.062 0.155 43.787 42.274
-63.400 -19.658 -0.163 -20.296 -0.073 -20.313 -0.072 -20.429 -0.072 -20.518 -0.065 -20.512 -0.061 -20.498 -0.062 -20.395 -0.069 -20.360 -0.071 -20.160 -0.148 9.794 0.302 3.074 0.155 43.792 42.276
-63.000 -19.673 -0.162 -20.310 -0.073 -20.327 -0.072 -20.442 -0.071 -20.530 -0.064 -20.523 -0.060 -20.509 -0.062 -20.407 -0.069 -20.372 -0.070 -20.173 -0.147 9.804 0.300 3.086 0.154 43.797 42.278
-62.600 -19.687 -0.160 -20.323 -0.072 -20.340 -0.071 -20.454 -0.071 -20.541 -0.064 -20.535 -0.060 -20.521 -0.061 -20.418 -0.068 -20.383 -0.069 -20.186 -0.146 9.814 0.298 3.098 0.154 43.803 42.281
-62.200 -19.702 -0.159 -20.337 -0.071 -20.353 -0.070 -20.466 -0.070 -20.553 -0.063 -20.546 -0.059 -20.532 -0.061 -20.430 -0.068 -20.395 -0.069 -20.199 -0.145 9.824 0.296 3.111 0.153 43.808 42.283
-61.800 -19.716 -0.158 -20.350 -0.070 -20.367 -0.069 -20.479 -0.070 -20.564 -0.062 -20.557 -0.058 -20.543 -0.060 -20.441 -0.067 -20.407 -0.068 -20.211 -0.144 9.834 0.294 3.123 0.152 43.813 42.285
-61.400 -19.730 -0.157 -20.363 -0.069 -20.380 -0.068 -20.491 -0.069 -20.575 -0.062 -20.569 -0.058 -20.554 -0.060 -20.453 -0.066 -20.419 -0.068 -20.224 -0.143 9.844 0.292 3.135 0.152 43.818 42.287
-61.000 -19.744 -0.156 -20.377 -0.068 -20.393 -0.067 -20.503 -0.069 -20.587 -0.061 -20.580 -0.057 -20.565 -0.059 -20.464 -0.066 -20.430 -0.067 -20.237 -0.142 9.855 0.290 3.147 0.151 43.823 42.289
-60.600 -19.758 -0.154 -20.390 -0.067 -20.406 -0.066 -20.516 -0.068 -20.598 -0.061 -20.591 -0.056 -20.577 -0.059 -20.475 -0.065 -20.442 -0.066 -20.249 -0.141 9.865 0.288 3.160 0.150 43.828 42.291
-60.200 -19.772 -0.153 -20.403 -0.066 -20.420 -0.065 -20.528 -0.067 -20.609 -0.060 -20.602 -0.056 -20.588 -0.058 -20.487 -0.065 -20.453 -0.066 -20.262 -0.140 9.875 0.286 3.172 0.150 43.834 42.293
-59.800 -19.786 -0.152 -20.417 -0.065 -20.433 -0.064 -20.540 -0.067 -20.621 -0.059 -20.613 -0.055 -20.599 -0.058 -20.498 -0.064 -20.465 -0.065 -20.274 -0.138 9.886 0.284 3.184 0.149 43.839 42.295
-59.400 -19.800 -0.151 -20.430 -0.063 -20.446 -0.063 -20.552 -0.066 -20.632 -0.059 -20.625 -0.054 -20.610 -0.057 -20.509 -0.063 -20.476 -0.065 -20.287 -0.137 9.896 0.283 3.196 0.149 43.844 42.297
-59.000 -19.814 -0.149 -20.444 -0.062 -20.459 -0.062 -20.565 -0.065 -20.643 -0.058 -20.636 -0.054 -20.621 -0.057 -20.521 -0.063 -20.488 -0.064 -20.299 -0.136 9.907 0.281 3.208 0.148 43.849 42.299
-58.600 -19.827 -0.148 -20.457 -0.061 -20.473 -0.060 -20.577 -0.065 -20.654 -0.057 -20.647 -0.053 -20.632 -0.056 -20.532 -0.062 -20.499 -0.063 -20.311 -0.135 9.918 0.279 3.220 0.147 43.854 42.301
-58.200 -19.841 -0.147 -20.470 -0.060 -20.486 -0.059 -20.589 -0.064 -20.665 -0.056 -20.658 -0.052 -20.643 -0.056 -20.543 -0.062 -20.511 -0.063 -20.323 -0.134 9.930 0.277 3.232 0.147 43.859 42.302
-57.800 -19.854 -0.145 -20.484 -0.059 -20.499 -0.058 -20.602 -0.063 -20.677 -0.056 -20.669 -0.052 -20.654 -0.055 -20.554 -0.061 -20.522 -0.062 -20.335 -0.132 9.942 0.276 3.243 0.146 43.865 42.304
-57.400 -19.868 -0.144 -20.497 -0.058 -20.513 -0.057 -20.614 -0.062 -20.688 -0.055 -20.680 -0.051 -20.665 -0.055 -20.565 -0.060 -20.534 -0.062 -20.348 -0.131 9.954 0.274 3.255 0.146 43.870 42.306
-57.000 -19.881 -0.143 -20.511 -0.057 -20.526 -0.056 -20.626 -0.062 -20.699 -0.054 -20.691 -0.050 -20.675 -0.054 -20.576 -0.060 -20.545 -0.061 -20.359 -0.130 9.967 0.273 3.266 0.145 43.875 42.308
-56.600 -19.895 -0.142 -20.524 -0.055 -20.540 -0.055 -20.639 -0.061 -20.710 -0.053 -20.702 -0.050 -20.686 -0.054 -20.588 -0.059 -20.556 -0.060 -20.371 -0.129 9.980 0.271 3.277 0.145 43.880 42.310
-56.200 -19.908 -0.140 -20.538 -0.054 -20.553 -0.054 -20.651 -0.060 -20.721 -0.053 -20.713 -0.049 -20.697 -0.053 -20.599 -0.058 -20.567 -0.060 -20.383 -0.128 9.994 0.270 3.288 0.144 43.886 42.313
-55.800 -19.921 -0.139 -20.552 -0.053 -20.567 -0.053 -20.664 -0.059 -20.732 -0.052 -20.724 -0.048 -20.708 -0.053 -20.610 -0.058 -20.579 -0.059 -20.395 -0.126 10.008 0.269 3.299 0.144 43.891 42.315
-55.400 -19.934 -0.138 -20.565 -0.052 -20.580 -0.052 -20.676 -0.058 -20.743 -0.051 -20.734 -0.048 -20.719 -0.052 -20.621 -0.057 -20.590 -0.059 -20.407 -0.125 10.023 0.267 3.309 0.143 43.896 42.318
-55.000 -19.947 -0.137 -20.579 -0.051 -20.594 -0.050 -20.689 -0.058 -20.754 -0.050 -20.745 -0.047 -20.729 -0.052 -20.632 -0.056 -20.601 -0.058 -20.418 -0.124 10.039 0.266 3.319 0.143 43.902 42.321
-54.600 -19.960 -0.136 -20.593 -0.050 -20.608 -0.049 -20.701 -0.057 -20.765 -0.049 -20.756 -0.046 -20.740 -0.051 -20.643 -0.056 -20.612 -0.058 -20.430 -0.123 10.055 0.265 3.329 0.143 43.907 42.324
-54.200 -19.973 -0.135 -20.607 -0.049 -20.621 -0.048 -20.714 -0.056 -20.775 -0.049 -20.767 -0.046 -20.750 -0.051 -20.653 -0.055 -20.623 -0.057 -20.441 -0.122 10.071 0.265 3.339 0.142 43.912 42.328
-53.800 -19.986 -0.134 -20.620 -0.048 -20.635 -0.047 -20.727 -0.055 -20.786 -0.048 -20.777 -0.045 -20.761 -0.050 -20.664 -0.054 -20.634 -0.056 -20.453 -0.121 10.088 0.264 3.348 0.142 43.918 42.332
-53.400 -19.998 -0.133 -20.634 -0.047 -20.649 -0.047 -20.739 -0.055 -20.797 -0.047 -20.788 -0.044 -20.771 -0.050 -20.675 -0.054 -20.645 -0.056 -20.464 -0.120 10.106 0.263 3.357 0.142 43.923 42.336
-53.000 -20.011 -0.132 -20.648 -0.046 -20.662 -0.046 -20.752 -0.054 -20.808 -0.046 -20.799 -0.044 -20.782 -0.049 -20.686 -0.053 -20.656 -0.055 -20.475 -0.119 10.124 0.263 3.366 0.141 43.928 42.340
-52.600 -20.024 -0.131 -20.661 -0.045 -20.676 -0.045 -20.764 -0.053 -20.819 -0.046 -20.809 -0.043 -20.792 -0.049 -20.697 -0.052 -20.667 -0.055 -20.486 -0.118 10.142 0.263 3.374 0.141 43.934 42.344
-52.200 -20.036 -0.130 -20.675 -0.045 -20.689 -0.044 -20.777 -0.053 -20.829 -0.045 -20.819 -0.043 -20.803 -0.049 -20.707 -0.052 -20.678 -0.054 -20.497 -0.118 10.161 0.262 3.383 0.141 43.939 42.349
-51.800 -20.048 -0.129 -20.689 -0.044 -20.703 -0.043 -20.790 -0.052 -20.840 -0.044 -20.830 -0.042 -20.813 -0.048 -20.718 -0.051 -20.689 -0.054 -20.508 -0.117 10.180 0.263 3.391 0.141 43.944 42.355
-51.400 -20.061 -0.129 -20.702 -0.043 -20.716 -0.043 -20.802 -0.052 -20.851 -0.044 -20.840 -0.042 -20.823 -0.048 -20.728 -0.051 -20.699 -0.053 -20.519 -0.116 10.199 0.263 3.399 0.141 43.950 42.360
-51.000 -20.073 -0.128 -20.716 -0.043 -20.730 -0.042 -20.815 -0.052 -20.861 -0.043 -20.851 -0.041 -20.833 -0.048 -20.739 -0.050 -20.710 -0.053 -20.530 -0.116 10.218 0.263 3.407 0.141 43.955 42.367
-50.600 -20.085 -0.128 -20.729 -0.042 -20.743 -0.042 -20.828 -0.051 -20.872 -0.043 -20.861 -0.041 -20.844 -0.048 -20.750 -0.050 -20.721 -0.053 -20.541 -0.115 10.237 0.264 3.415 0.142 43.960 42.374
-50.200 -20.097 -0.127 -20.742 -0.042 -20.756 -0.042 -20.840 -0.051 -20.882 -0.043 -20.871 -0.041 -20.854 -0.048 -20.760 -0.049 -20.731 -0.053 -20.551 -0.115 10.255 0.265 3.424 0.142 43.966 42.381
-49.800 -20.109 -0.127 -20.755 -0.042 -20.769 -0.042 -20.853 -0.051 -20.893 -0.043 -20.881 -0.041 -20.864 -0.048 -20.770 -0.049 -20.742 -0.052 -20.562 -0.115 10.273 0.266 3.432 0.143 43.971 42.389
-49.400 -20.121 -0.127 -20.768 -0.042 -20.783 -0.042 -20.865 -0.051 -20.903 -0.043 -20.891 -0.041 -20.874 -0.048 -20.781 -0.049 -20.752 -0.052 -20.572 -0.115 10.290 0.268 3.441 0.143 43.976 42.398
-49.000 -20.132 -0.127 -20.781 -0.043 -20.795 -0.042 -20.877 -0.051 -20.913 -0.043 -20.902 -0.041 -20.884 -0.048 -20.791 -0.049 -20.763 -0.053 -20.583 -0.115 10.306 0.270 3.450 0.144 43.981 42.407
-48.600 -20.144 -0.127 -20.794 -0.043 -20.808 -0.042 -20.890 -0.051 -20.924 -0.043 -20.912 -0.041 -20.893 -0.048 -20.801 -0.049 -20.773 -0.053 -20.593 -0.115 10.321 0.272 3.460 0.145 43.986 42.417
-48.200 -20.156 -0.128 -20.807 -0.044 -20.821 -0.043 -20.902 -0.052 -20.934 -0.043 -20.921 -0.042 -20.903 -0.048 -20.811 -0.050 -20.783 -0.053 -20.603 -0.115 10.335 0.275 3.470 0.147 43.991 42.428
-47.800 -20.167 -0.128 -20.819 -0.044 -20.833 -0.044 -20.914 -0.052 -20.944 -0.044 -20.931 -0.042 -20.913 -0.048 -20.821 -0.050 -20.794 -0.053 -20.613 -0.115 10.348 0.277 3.480 0.148 43.995 42.438
-47.400 -20.178 -0.128 -20.832 -0.045 -20.846 -0.044 -20.926 -0.052 -20.954 -0.044 -20.941 -0.042 -20.922 -0.049 -20.831 -0.051 -20.804 -0.054 -20.623 -0.116 10.360 0.280 3.491 0.150 44.000 42.449
-47.000 -20.190 -0.129 -20.844 -0.046 -20.858 -0.045 -20.937 -0.053 -20.964 -0.045 -20.951 -0.043 -20.932 -0.049 -20.841 -0.051 -20.814 -0.054 -20.632 -0.116 10.370 0.283 3.502 0.151 44.005 42.459
-46.600 -20.201 -0.129 -20.856 -0.047 -20.870 -0.046 -20.949 -0.053 -20.974 -0.046 -20.960 -0.044 -20.941 -0.049 -20.851 -0.052 -20.824 -0.055 -20.642 -0.117 10.380 0.286 3.514 0.153 44.009 42.470
-46.200 -20.212 -0.130 -20.868 -0.048 -20.882 -0.048 -20.961 -0.054 -20.984 -0.047 -20.970 -0.044 -20.950 -0.050 -20.861 -0.053 -20.834 -0.056 -20.652 -0.118 10.389 0.289 3.526 0.155 44.014 42.480
-45.800 -20.222 -0.131 -20.879 -0.049 -20.893 -0.049 -20.972 -0.055 -20.994 -0.048 -20.979 -0.045 -20.960 -0.050 -20.871 -0.054 -20.844 -0.056 -20.661 -0.118 10.397 0.292 3.538 0.156 44.018 42.491
-45.400 -20.233 -0.132 -20.891 -0.051 -20.905 -0.050 -20.983 -0.055 -21.003 -0.049 -20.989 -0.046 -20.969 -0.051 -20.880 -0.055 -20.854 -0.057 -20.670 -0.119 10.405 0.295 3.550 0.158 44.022 42.501
-45.000 -20.244 -0.133 -20.902 -0.052 -20.916 -0.051 -20.994 -0.056 -21.013 -0.050 -20.998 -0.047 -20.978 -0.051 -20.890 -0.056 -20.863 -0.058 -20.679 -0.120 10.412 0.298 3.562 0.160 44.026 42.510
-44.600 -20.254 -0.134 -20.914 -0.053 -20.927 -0.052 -21.005 -0.057 -21.022 -0.051 -21.007 -0.048 -20.986 -0.052 -20.899 -0.057 -20.873 -0.059 -20.688 -0.121 10.418 0.301 3.574 0.162 44.030 42.520
-44.200 -20.264 -0.135 -20.925 -0.054 -20.938 -0.054 -21.016 -0.058 -21.032 -0.052 -21.016 -0.049 -20.995 -0.053 -20.909 -0.058 -20.882 -0.060 -20.697 -0.122 10.424 0.303 3.587 0.164 44.034 42.529
-43.800 -20.274 -0.136 -20.935 -0.056 -20.949 -0.055 -21.026 -0.059 -21.041 -0.053 -21.025 -0.050 -21.004 -0.053 -20.918 -0.059 -20.892 -0.061 -20.706 -0.123 10.430 0.306 3.599 0.165 44.038 42.538
-43.400 -20.284 -0.137 -20.946 -0.057 -20.960 -0.056 -21.037 -0.060 -21.050 -0.054 -21.033 -0.051 -21.012 -0.054 -20.927 -0.059 -20.901 -0.062 -20.715 -0.124 10.435 0.309 3.612 0.167 44.042 42.546
-43.000 -20.294 -0.138 -20.956 -0.058 -20.970 -0.057 -21.047 -0.060 -21.059 -0.055 -21.042 -0.052 -21.020 -0.055 -20.936 -0.060 -20.910 -0.062 -20.723 -0.125 10.440 0.311 3.624 0.169 44.046 42.554
-42.600 -20.303 -0.139 -20.967 -0.059 -20.980 -0.059 -21.057 -0.061 -21.067 -0.056 -21.050 -0.053 -21.028 -0.055 -20.945 -0.061 -20.919 -0.063 -20.732 -0.126 10.445 0.313 3.636 0.170 44.050 42.562
-42.200 -20.312 -0.140 -20.977 -0.061 -20.990 -0.060 -21.067 -0.062 -21.076 -0.057 -21.058 -0.054 -21.036 -0.056 -20.953 -0.062 -20.928 -0.064 -20.740 -0.127 10.450 0.316 3.648 0.172 44.053 42.570
-41.800 -20.322 -0.141 -20.987 -0.062 -21.000 -0.061 -21.076 -0.063 -21.084 -0.058 -21.066 -0.055 -21.044 -0.057 -20.962 -0.063 -20.936 -0.065 -20.748 -0.128 10.455 0.318 3.660 0.173 44.057 42.577
-41.400 -20.331 -0.142 -20.996 -0.063 -21.010 -0.062 -21.086 -0.064 -21.092 -0.059 -21.074 -0.056 -21.052 -0.058 -20.970 -0.064 -20.945 -0.066 -20.756 -0.129 10.460 0.320 3.671 0.175 44.061 42.584
-41.000 -20.339 -0.144 -21.006 -0.064 -21.019 -0.063 -21.095 -0.064 -21.100 -0.060 -21.082 -0.057 -21.060 -0.058 -20.978 -0.065 -20.953 -0.066 -20.764 -0.130 10.465 0.322 3.683 0.176 44.064 42.591
-40.600 -20.348 -0.145 -21.015 -0.065 -21.028 -0.064 -21.104 -0.065 -21.108 -0.061 -21.089 -0.057 -21.067 -0.059 -20.987 -0.065 -20.961 -0.067 -20.771 -0.132 10.470 0.323 3.693 0.178 44.067 42.598
-40.200 -20.356 -0.146 -21.024 -0.066 -21.037 -0.065 -21.113 -0.066 -21.116 -0.061 -21.097 -0.058 -21.074 -0.060 -20.995 -0.066 -20.970 -0.068 -20.779 -0.133 10.475 0.325 3.704 0.179 44.071 42.604
-39.800 -20.364 -0.147 -21.033 -0.067 -21.046 -0.066 -21.121 -0.066 -21.123 -0.062 -21.104 -0.059 -21.081 -0.060 -21.002 -0.066 -20.978 -0.068 -20.786 -0.134 10.481 0.327 3.714 0.180 44.074 42.610
-39.400 -20.372 -0.148 -21.042 -0.067 -21.055 -0.066 -21.130 -0.067 -21.131 -0.063 -21.111 -0.060 -21.088 -0.061 -21.010 -0.067 -20.985 -0.069 -20.794 -0.135 10.487 0.328 3.724 0.181 44.077 42.616
-39.000 -20.380 -0.149 -21.050 -0.068 -21.063 -0.067 -21.138 -0.067 -21.138 -0.063 -21.118 -0.061 -21.095 -0.061 -21.018 -0.067 -20.993 -0.069 -20.801 -0.136 10.493 0.330 3.734 0.182 44.081 42.621
-38.600 -20.387 -0.150 -21.058 -0.069 -21.072 -0.068 -21.146 -0.067 -21.145 -0.064 -21.125 -0.061 -21.102 -0.062 -21.025 -0.068 -21.000 -0.069 -20.808 -0.137 10.499 0.331 3.743 0.183 44.084 42.627
-38.200 -20.395 -0.151 -21.066 -0.069 -21.080 -0.068 -21.154 -0.068 -21.152 -0.065 -21.131 -0.062 -21.108 -0.062 -21.032 -0.068 -21.008 -0.069 -20.814 -0.138 10.506 0.332 3.752 0.184 44.087 42.632
-37.800 -20.402 -0.152 -21.074 -0.069 -21.088 -0.068 -21.161 -0.068 -21.158 -0.065 -21.138 -0.062 -21.115 -0.063 -21.039 -0.068 -21.015 -0.069 -20.821 -0.138 10.513 0.333 3.760 0.185 44.090 42.637
-37.400 -20.408 -0.153 -21.082 -0.070 -21.095 -0.069 -21.169 -0.068 -21.165 -0.065 -21.144 -0.062 -21.121 -0.063 -21.046 -0.068 -21.022 -0.069 -20.827 -0.139 10.520 0.334 3.768 0.185 44.093 42.642
-37.000 -20.415 -0.154 -21.089 -0.070 -21.103 -0.069 -21.176 -0.068 -21.171 -0.066 -21.150 -0.063 -21.127 -0.063 -21.053 -0.068 -21.029 -0.069 -20.834 -0.140 10.528 0.335 3.775 0.186 44.096 42.646
-36.600 -20.421 -0.155 -21.097 -0.070 -21.110 -0.069 -21.183 -0.068 -21.177 -0.066 -21.156 -0.063 -21.132 -0.063 -21.059 -0.068 -21.035 -0.069 -20.840 -0.141 10.536 0.336 3.782 0.186 44.099 42.651
-36.200 -20.428 -0.156 -21.104 -0.070 -21.117 -0.069 -21.190 -0.068 -21.183 -0.066 -21.162 -0.063 -21.138 -0.063 -21.065 -0.067 -21.042 -0.069 -20.846 -0.142 10.545 0.337 3.789 0.187 44.102 42.655
-35.800 -20.433 -0.157 -21.110 -0.070 -21.124 -0.069 -21.196 -0.067 -21.189 -0.066 -21.167 -0.063 -21.144 -0.063 -21.071 -0.067 -21.048 -0.068 -20.851 -0.143 10.554 0.337 3.795 0.187 44.105 42.659
-35.400 -20.439 -0.158 -21.117 -0.070 -21.130 -0.069 -21.202 -0.067 -21.195 -0.066 -21.173 -0.063 -21.149 -0.063 -21.077 -0.067 -21.054 -0.067 -20.857 -0.143 10.563 0.338 3.800 0.187 44.108 42.663
-35.000 -20.444 -0.159 -21.123 -0.069 -21.137 -0.068 -21.209 -0.067 -21.200 -0.066 -21.178 -0.063 -21.154 -0.063 -21.083 -0.066 -21.060 -0.067 -20.862 -0.144 10.573 0.338 3.805 0.187 44.110 42.666
-34.600 -20.450 -0.160 -21.129 -0.069 -21.143 -0.068 -21.214 -0.066 -21.205 -0.066 -21.183 -0.063 -21.159 -0.063 -21.089 -0.065 -21.066 -0.066 -20.868 -0.145 10.584 0.338 3.809 0.187 44.113 42.670
-34.200 -20.454 -0.161 -21.135 -0.069 -21.149 -0.067 -21.220 -0.066 -21.210 -0.065 -21.188 -0.062 -21.163 -0.063 -21.094 -0.065 -21.071 -0.065 -20.873 -0.145 10.594 0.338 3.813 0.187 44.116 42.673
-33.800 -20.459 -0.161 -21.141 -0.068 -21.154 -0.067 -21.225 -0.065 -21.215 -0.065 -21.192 -0.062 -21.168 -0.062 -21.099 -0.064 -21.076 -0.064 -20.878 -0.146 10.606 0.338 3.816 0.186 44.118 42.676
-33.400 -20.463 -0.162 -21.147 -0.067 -21.160 -0.066 -21.231 -0.064 -21.219 -0.065 -21.197 -0.061 -21.172 -0.062 -21.104 -0.063 -21.082 -0.063 -20.882 -0.146 10.617 0.338 3.818 0.186 44.121 42.679
-33.000 -20.468 -0.163 -21.152 -0.067 -21.165 -0.065 -21.236 -0.064 -21.224 -0.064 -21.201 -0.061 -21.176 -0.061 -21.109 -0.062 -21.086 -0.062 -20.887 -0.147 10.629 0.338 3.820 0.185 44.123 42.681
-32.600 -20.471 -0.163 -21.157 -0.066 -21.170 -0.065 -21.240 -0.063 -21.228 -0.064 -21.205 -0.060 -21.180 -0.061 -21.113 -0.061 -21.091 -0.061 -20.891 -0.147 10.642 0.337 3.822 0.184 44.125 42.684
-32.200 -20.475 -0.164 -21.161 -0.065 -21.175 -0.064 -21.245 -0.062 -21.232 -0.063 -21.209 -0.059 -21.184 -0.060 -21.118 -0.060 -21.095 -0.059 -20.895 -0.148 10.655 0.336 3.823 0.183 44.128 42.686
-31.800 -20.478 -0.164 -21.166 -0.064 -21.179 -0.063 -21.249 -0.061 -21.236 -0.062 -21.213 -0.059 -21.187 -0.059 -21.122 -0.059 -21.100 -0.058 -20.899 -0.148 10.668 0.335 3.823 0.182 44.130 42.687
-31.400 -20.482 -0.165 -21.170 -0.063 -21.183 -0.062 -21.253 -0.061 -21.240 -0.062 -21.216 -0.058 -21.191 -0.058 -21.125 -0.057 -21.104 -0.056 -20.903 -0.148 10.681 0.334 3.823 0.181 44.132 42.689
-31.000 -20.484 -0.165 -21.174 -0.062 -21.187 -0.061 -21.257 -0.060 -21.243 -0.061 -21.219 -0.057 -21.194 -0.057 -21.129 -0.056 -21.107 -0.055 -20.907 -0.149 10.695 0.333 3.822 0.180 44.134 42.690
-30.600 -20.487 -0.166 -21.178 -0.061 -21.191 -0.060 -21.260 -0.059 -21.246 -0.060 -21.222 -0.056 -21.197 -0.057 -21.132 -0.055 -21.111 -0.053 -20.910 -0.149 10.706 0.331 3.822 0.178 44.136 42.691
-30.200 -20.489 -0.166 -21.181 -0.060 -21.194 -0.059 -21.263 -0.058 -21.249 -0.059 -21.225 -0.055 -21.200 -0.056 -21.135 -0.054 -21.114 -0.051 -20.914 -0.149 10.722 0.329 3.820 0.176 44.138 42.692
-29.800 -20.491 -0.167 -21.185 -0.059 -21.198 -0.058 -21.266 -0.058 -21.252 -0.058 -21.228 -0.054 -21.202 -0.055 -21.138 -0.052 -21.117 -0.050 -20.917 -0.150 10.735 0.327 3.818 0.174 44.140 42.692
-29.400 -20.493 -0.167 -21.187 -0.058 -21.201 -0.057 -21.269 -0.057 -21.255 -0.058 -21.231 -0.053 -21.204 -0.054 -21.141 -0.051 -21.120 -0.048 -20.920 -0.150 10.749 0.324 3.816 0.172 44.141 42.692
-29.000 -20.495 -0.167 -21.190 -0.057 -21.203 -0.056 -21.272 -0.056 -21.257 -0.057 -21.233 -0.052 -21.207 -0.053 -21.143 -0.050 -21.122 -0.046 -20.922 -0.150 10.761 0.322 3.814 0.170 44.143 42.692
-28.600 -20.496 -0.167 -21.192 -0.056 -21.206 -0.055 -21.274 -0.056 -21.259 -0.056 -21.235 -0.051 -21.209 -0.052 -21.145 -0.048 -21.124 -0.045 -20.925 -0.150 10.773 0.319 3.811 0.168 44.144 42.691
-28.200 -20.497 -0.168 -21.194 -0.055 -21.208 -0.054 -21.276 -0.055 -21.261 -0.055 -21.237 -0.050 -21.211 -0.051 -21.147 -0.047 -21.126 -0.043 -20.927 -0.150 10.785 0.316 3.809 0.166 44.146 42.690
-27.800 -20.498 -0.168 -21.196 -0.054 -21.209 -0.053 -21.278 -0.055 -21.263 -0.055 -21.239 -0.049 -21.212 -0.050 -21.149 -0.046 -21.128 -0.041 -20.929 -0.150 10.795 0.313 3.807 0.163 44.147 42.689
-27.400 -20.498 -0.168 -21.198 -0.053 -21.211 -0.052 -21.279 -0.055 -21.265 -0.054 -21.241 -0.048 -21.214 -0.049 -21.150 -0.045 -21.129 -0.040 -20.931 -0.150 10.804 0.311 3.804 0.161 44.148 42.688
-27.000 -20.499 -0.168 -21.199 -0.053 -21.212 -0.051 -21.280 -0.055 -21.267 -0.053 -21.242 -0.047 -21.215 -0.049 -21.151 -0.044 -21.130 -0.039 -20.933 -0.151 10.812 0.308 3.803 0.159 44.149 42.687
-26.600 -20.499 -0.168 -21.199 -0.052 -21.213 -0.050 -21.281 -0.055 -21.268 -0.053 -21.244 -0.046 -21.216 -0.048 -21.152 -0.043 -21.131 -0.038 -20.935 -0.151 10.818 0.305 3.801 0.158 44.149 42.685
-26.200 -20.498 -0.168 -21.200 -0.051 -21.213 -0.050 -21.282 -0.055 -21.269 -0.052 -21.245 -0.045 -21.217 -0.048 -21.152 -0.043 -21.132 -0.037 -20.937 -0.151 10.822 0.303 3.800 0.156 44.150 42.684
-25.800 -20.498 -0.168 -21.200 -0.051 -21.213 -0.049 -21.282 -0.055 -21.270 -0.052 -21.246 -0.045 -21.218 -0.047 -21.152 -0.042 -21.132 -0.036 -20.938 -0.151 10.824 0.302 3.800 0.155 44.150 42.682
-25.400 -20.497 -0.168 -21.199 -0.050 -21.213 -0.049 -21.282 -0.055 -21.270 -0.051 -21.246 -0.044 -21.219 -0.047 -21.152 -0.042 -21.132 -0.036 -20.939 -0.151 10.823 0.301 3.800 0.154 44.150 42.681
-25.000 -20.496 -0.168 -21.199 -0.050 -21.212 -0.049 -21.282 -0.055 -21.271 -0.051 -21.247 -0.044 -21.220 -0.046 -21.152 -0.042 -21.131 -0.036 -20.940 -0.151 10.820 0.300 3.801 0.154 44.150 42.680
-24.600 -20.495 -0.168 -21.198 -0.050 -21.211 -0.049 -21.281 -0.055 -21.271 -0.051 -21.247 -0.044 -21.220 -0.046 -21.151 -0.042 -21.130 -0.036 -20.941 -0.150 10.814 0.300 3.804 0.154 44.149 42.679
-24.200 -20.493 -0.168 -21.196 -0.050 -21.210 -0.049 -21.280 -0.056 -21.271 -0.051 -21.248 -0.044 -21.220 -0.046 -21.150 -0.042 -21.130 -0.036 -20.942 -0.150 10.806 0.300 3.807 0.155 44.149 42.679
-23.800 -20.492 -0.168 -21.194 -0.050 -21.208 -0.049 -21.279 -0.056 -21.271 -0.051 -21.248 -0.044 -21.220 -0.046 -21.149 -0.042 -21.128 -0.037 -20.943 -0.150 10.796 0.301 3.811 0.156 44.148 42.678
-23.400 -20.490 -0.168 -21.192 -0.051 -21.206 -0.050 -21.277 -0.056 -21.271 -0.051 -21.248 -0.044 -21.220 -0.046 -21.148 -0.043 -21.127 -0.037 -20.943 -0.150 10.783 0.302 3.815 0.157 44.147 42.677
-23.000 -20.488 -0.168 -21.190 -0.051 -21.203 -0.050 -21.276 -0.057 -21.270 -0.051 -21.247 -0.044 -21.220 -0.047 -21.147 -0.043 -21.125 -0.038 -20.944 -0.150 10.769 0.303 3.821 0.158 44.146 42.676
-22.600 -20.486 -0.168 -21.187 -0.051 -21.200 -0.050 -21.274 -0.057 -21.270 -0.051 -21.247 -0.044 -21.220 -0.047 -21.145 -0.044 -21.123 -0.039 -20.944 -0.150 10.752 0.304 3.827 0.160 44.144 42.675
-22.200 -20.483 -0.167 -21.184 -0.052 -21.197 -0.051 -21.271 -0.058 -21.269 -0.051 -21.246 -0.044 -21.219 -0.047 -21.143 -0.045 -21.121 -0.040 -20.944 -0.149 10.734 0.305 3.833 0.162 44.143 42.674
-21.800 -20.480 -0.167 -21.180 -0.052 -21.194 -0.051 -21.269 -0.058 -21.268 -0.051 -21.246 -0.045 -21.219 -0.047 -21.141 -0.045 -21.119 -0.041 -20.944 -0.149 10.715 0.306 3.840 0.163 44.141 42.673
-21.400 -20.477 -0.167 -21.177 -0.053 -21.191 -0.052 -21.266 -0.059 -21.267 -0.052 -21.245 -0.045 -21.218 -0.048 -21.139 -0.046 -21.117 -0.042 -20.944 -0.149 10.695 0.307 3.847 0.165 44.140 42.671
-21.000 -20.474 -0.167 -21.173 -0.053 -21.187 -0.053 -21.263 -0.059 -21.265 -0.052 -21.244 -0.046 -21.217 -0.048 -21.136 -0.047 -21.114 -0.043 -20.944 -0.149 10.673 0.308 3.854 0.166 44.138 42.668
-20.600 -20.471 -0.166 -21.169 -0.054 -21.183 -0.053 -21.259 -0.059 -21.264 -0.052 -21.242 -0.046 -21.216 -0.049 -21.134 -0.048 -21.111 -0.044 -20.944 -0.148 10.651 0.309 3.862 0.168 44.136 42.666
-20.200 -20.468 -0.166 -21.164 -0.054 -21.178 -0.054 -21.256 -0.060 -21.262 -0.053 -21.241 -0.047 -21.214 -0.049 -21.131 -0.049 -21.109 -0.045 -20.943 -0.148 10.628 0.309 3.870 0.169 44.134 42.663
-19.800 -20.464 -0.165 -21.160 -0.055 -21.174 -0.054 -21.252 -0.060 -21.260 -0.053 -21.239 -0.047 -21.213 -0.049 -21.128 -0.050 -21.106 -0.047 -20.943 -0.148 10.605 0.310 3.878 0.171 44.132 42.659
-19.400 -20.460 -0.165 -21.155 -0.055 -21.169 -0.055 -21.248 -0.061 -21.258 -0.054 -21.238 -0.048 -21.211 -0.050 -21.125 -0.050 -21.103 -0.048 -20.942 -0.147 10.581 0.309 3.886 0.172 44.130 42.655
-19.000 -20.457 -0.164 -21.150 -0.056 -21.164 -0.055 -21.244 -0.061 -21.256 -0.054 -21.236 -0.048 -21.210 -0.050 -21.123 -0.051 -21.100 -0.049 -20.942 -0.147 10.557 0.309 3.894 0.173 44.128 42.651
-18.600 -20.453 -0.164 -21.145 -0.056 -21.159 -0.056 -21.240 -0.061 -21.254 -0.054 -21.234 -0.049 -21.208 -0.051 -21.120 -0.052 -21.097 -0.050 -20.941 -0.146 10.533 0.309 3.902 0.174 44.125 42.646
-18.200 -20.448 -0.163 -21.140 -0.057 -21.154 -0.056 -21.235 -0.062 -21.251 -0.055 -21.232 -0.049 -21.206 -0.051 -21.116 -0.053 -21.094 -0.051 -20.941 -0.146 10.509 0.308 3.909 0.175 44.123 42.641
-17.800 -20.444 -0.163 -21.134 -0.057 -21.148 -0.056 -21.231 -0.062 -21.249 -0.055 -21.230 -0.050 -21.204 -0.051 -21.113 -0.053 -21.091 -0.052 -20.940 -0.145 10.485 0.307 3.917 0.175 44.121 42.636
-17.400 -20.440 -0.162 -21.129 -0.057 -21.143 -0.056 -21.226 -0.062 -21.246 -0.055 -21.227 -0.050 -21.201 -0.052 -21.110 -0.054 -21.088 -0.052 -20.939 -0.145 10.461 0.305 3.924 0.176 44.119 42.630
-17.000 -20.435 -0.162 -21.123 -0.057 -21.137 -0.057 -21.221 -0.062 -21.244 -0.056 -21.225 -0.050 -21.199 -0.052 -21.107 -0.055 -21.085 -0.053 -20.939 -0.144 10.437 0.304 3.931 0.176 44.116 42.624
-16.600 -20.431 -0.161 -21.117 -0.057 -21.132 -0.057 -21.216 -0.062 -21.241 -0.056 -21.222 -0.051 -21.197 -0.052 -21.104 -0.055 -21.081 -0.054 -20.938 -0.143 10.414 0.302 3.938 0.177 44.114 42.618
-16.200 -20.426 -0.160 -21.112 -0.057 -21.126 -0.057 -21.211 -0.062 -21.238 -0.056 -21.220 -0.051 -21.194 -0.052 -21.100 -0.056 -21.078 -0.054 -20.937 -0.143 10.391 0.300 3.945 0.177 44.111 42.611
-15.800 -20.422 -0.160 -21.106 -0.057 -21.120 -0.057 -21.206 -0.062 -21.235 -0.056 -21.217 -0.051 -21.192 -0.052 -21.097 -0.056 -21.075 -0.055 -20.936 -0.142 10.369 0.298 3.951 0.177 44.109 42.604
-15.400 -20.417 -0.159 -21.100 -0.057 -21.114 -0.057 -21.201 -0.062 -21.232 -0.056 -21.214 -0.051 -21.189 -0.052 -21.094 -0.056 -21.072 -0.055 -20.935 -0.141 10.347 0.296 3.957 0.176 44.107 42.597
-15.000 -20.412 -0.158 -21.094 -0.057 -21.108 -0.056 -21.195 -0.061 -21.229 -0.056 -21.211 -0.051 -21.186 -0.052 -21.091 -0.057 -21.069 -0.056 -20.935 -0.140 10.325 0.294 3.963 0.176 44.104 42.590
-14.600 -20.407 -0.157 -21.088 -0.057 -21.103 -0.056 -21.190 -0.061 -21.226 -0.056 -21.208 -0.051 -21.183 -0.052 -21.087 -0.057 -21.065 -0.056 -20.934 -0.139 10.304 0.291 3.969 0.176 44.102 42.583
-14.200 -20.402 -0.156 -21.082 -0.057 -21.097 -0.056 -21.185 -0.061 -21.222 -0.056 -21.206 -0.051 -21.181 -0.052 -21.084 -0.057 -21.062 -0.056 -20.933 -0.139 10.283 0.289 3.974 0.175 44.100 42.575
-13.800 -20.398 -0.155 -21.076 -0.056 -21.091 -0.056 -21.179 -0.061 -21.219 -0.056 -21.203 -0.051 -21.178 -0.052 -21.081 -0.057 -21.059 -0.056 -20.932 -0.138 10.262 0.286 3.979 0.175 44.097 42.567
-13.400 -20.393 -0.155 -21.070 -0.056 -21.085 -0.055 -21.174 -0.060 -21.216 -0.056 -21.200 -0.050 -21.175 -0.052 -21.078 -0.057 -21.056 -0.056 -20.932 -0.137 10.242 0.284 3.985 0.174 44.095 42.560
-13.000 -20.388 -0.154 -21.065 -0.056 -21.079 -0.055 -21.169 -0.060 -21.213 -0.056 -21.197 -0.050 -21.172 -0.052 -21.075 -0.057 -21.053 -0.056 -20.931 -0.136 10.222 0.281 3.990 0.173 44.093 42.552
-12.600 -20.383 -0.153 -21.059 -0.055 -21.074 -0.054 -21.163 -0.059 -21.209 -0.055 -21.194 -0.050 -21.169 -0.051 -21.072 -0.057 -21.050 -0.056 -20.930 -0.135 10.203 0.278 3.995 0.173 44.091 42.544
-12.200 -20.378 -0.152 -21.053 -0.055 -21.068 -0.054 -21.158 -0.059 -21.206 -0.055 -21.191 -0.050 -21.166 -0.051 -21.069 -0.057 -21.048 -0.056 -20.930 -0.134 10.184 0.276 3.999 0.172 44.088 42.537
-11.800 -20.373 -0.151 -21.048 -0.054 -21.062 -0.053 -21.153 -0.058 -21.203 -0.055 -21.188 -0.049 -21.163 -0.051 -21.066 -0.056 -21.045 -0.056 -20.929 -0.133 10.165 0.273 4.004 0.171 44.086 42.529
-11.400 -20.368 -0.150 -21.042 -0.054 -21.057 -0.053 -21.148 -0.058 -21.200 -0.054 -21.185 -0.049 -21.160 -0.050 -21.063 -0.056 -21.042 -0.055 -20.929 -0.131 10.147 0.270 4.009 0.170 44.084 42.522
-11.000 -20.364 -0.148 -21.037 -0.053 -21.052 -0.052 -21.143 -0.057 -21.197 -0.054 -21.182 -0.048 -21.158 -0.050 -21.060 -0.056 -21.040 -0.055 -20.928 -0.130 10.129 0.268 4.013 0.169 44.082 42.515
-10.600 -20.359 -0.147 -21.032 -0.053 -21.046 -0.052 -21.138 -0.057 -21.193 -0.054 -21.179 -0.048 -21.155 -0.049 -21.058 -0.055 -21.038 -0.055 -20.928 -0.129 10.112 0.265 4.018 0.168 44.080 42.507
-10.200 -20.354 -0.146 -21.026 -0.052 -21.041 -0.052 -21.133 -0.056 -21.190 -0.053 -21.176 -0.047 -21.152 -0.049 -21.055 -0.055 -21.035 -0.054 -20.928 -0.128 10.095 0.262 4.022 0.167 44.078 42.501
-9.800 -20.350 -0.145 -21.022 -0.052 -21.036 -0.051 -21.129 -0.056 -21.187 -0.053 -21.173 -0.047 -21.149 -0.048 -21.053 -0.054 -21.033 -0.054 -20.928 -0.127 10.078 0.260 4.026 0.167 44.076 42.494
-9.400 -20.346 -0.144 -21.017 -0.052 -21.032 -0.051 -21.124 -0.055 -21.185 -0.053 -21.171 -0.047 -21.147 -0.048 -21.050 -0.054 -21.031 -0.053 -20.928 -0.125 10.062 0.257 4.031 0.166 44.074 42.487
-9.000 -20.341 -0.143 -21.012 -0.051 -21.027 -0.050 -21.120 -0.055 -21.182 -0.052 -21.168 -0.046 -21.144 -0.047 -21.048 -0.053 -21.029 -0.053 -20.928 -0.124 10.046 0.255 4.035 0.165 44.072 42.481
-8.600 -20.337 -0.141 -21.008 -0.051 -21.023 -0.050 -21.116 -0.054 -21.179 -0.052 -21.166 -0.046 -21.142 -0.047 -21.046 -0.053 -21.028 -0.052 -20.928 -0.123 10.030 0.253 4.040 0.164 44.071 42.475
-8.200 -20.333 -0.140 -21.004 -0.050 -21.019 -0.050 -21.112 -0.053 -21.177 -0.051 -21.163 -0.045 -21.140 -0.047 -21.045 -0.052 -21.026 -0.052 -20.928 -0.121 10.015 0.250 4.044 0.163 44.069 42.469
-7.800 -20.329 -0.139 -21.000 -0.050 -21.015 -0.049 -21.108 -0.053 -21.174 -0.051 -21.161 -0.045 -21.138 -0.046 -21.043 -0.051 -21.025 -0.051 -20.929 -0.120 10.001 0.248 4.048 0.162 44.068 42.464
-7.400 -20.325 -0.138 -20.996 -0.050 -21.011 -0.049 -21.105 -0.052 -21.172 -0.050 -21.159 -0.044 -21.136 -0.046 -21.042 -0.051 -21.024 -0.050 -20.929 -0.118 9.986 0.246 4.053 0.161 44.066 42.458
-7.000 -20.322 -0.136 -20.993 -0.049 -21.007 -0.048 -21.101 -0.052 -21.170 -0.050 -21.157 -0.044 -21.134 -0.045 -21.040 -0.050 -21.023 -0.050 -20.930 -0.117 9.972 0.243 4.058 0.160 44.065 42.452
-6.600 -20.318 -0.135 -20.989 -0.049 -21.004 -0.048 -21.098 -0.052 -21.168 -0.050 -21.155 -0.043 -21.133 -0.045 -21.039 -0.049 -21.022 -0.049 -20.931 -0.116 9.959 0.241 4.063 0.159 44.063 42.447
-6.200 -20.315 -0.134 -20.986 -0.048 -21.001 -0.047 -21.095 -0.051 -21.166 -0.049 -21.154 -0.043 -21.131 -0.045 -21.039 -0.049 -21.022 -0.048 -20.931 -0.114 9.946 0.239 4.068 0.158 44.062 42.442
-5.800 -20.312 -0.132 -20.984 -0.048 -20.998 -0.047 -21.093 -0.051 -21.164 -0.049 -21.152 -0.043 -21.130 -0.044 -21.038 -0.048 -21.022 -0.047 -20.932 -0.113 9.932 0.236 4.073 0.157 44.061 42.436
-5.400 -20.309 -0.131 -20.981 -0.048 -20.996 -0.047 -21.090 -0.051 -21.163 -0.048 -21.151 -0.042 -21.129 -0.044 -21.038 -0.047 -21.022 -0.047 -20.934 -0.111 9.920 0.234 4.078 0.156 44.060 42.431
-5.000 -20.306 -0.130 -20.979 -0.047 -20.994 -0.046 -21.088 -0.050 -21.162 -0.048 -21.150 -0.042 -21.128 -0.044 -21.037 -0.047 -21.022 -0.046 -20.935 -0.110 9.907 0.231 4.084 0.154 44.059 42.426
-4.600 -20.304 -0.128 -20.977 -0.047 -20.992 -0.046 -21.086 -0.050 -21.161 -0.048 -21.149 -0.041 -21.127 -0.043 -21.038 -0.046 -21.023 -0.045 -20.936 -0.109 9.895 0.229 4.090 0.153 44.058 42.420
-4.200 -20.301 -0.127 -20.975 -0.046 -20.990 -0.045 -21.084 -0.050 -21.160 -0.047 -21.148 -0.041 -21.126 -0.043 -21.038 -0.045 -21.023 -0.045 -20.938 -0.107 9.882 0.226 4.097 0.152 44.057 42.415
-3.800 -20.299 -0.126 -20.974 -0.046 -20.989 -0.045 -21.083 -0.050 -21.159 -0.047 -21.148 -0.041 -21.126 -0.043 -21.039 -0.045 -21.024 -0.044 -20.939 -0.106 9.870 0.224 4.104 0.151 44.056 42.409
-3.400 -20.298 -0.124 -20.973 -0.046 -20.988 -0.045 -21.082 -0.049 -21.159 -0.047 -21.147 -0.040 -21.126 -0.043 -21.039 -0.044 -21.026 -0.044 -20.941 -0.104 9.858 0.221 4.111 0.150 44.056 42.404
-3.000 -20.296 -0.123 -20.972 -0.045 -20.987 -0.044 -21.081 -0.049 -21.158 -0.047 -21.147 -0.040 -21.126 -0.043 -21.040 -0.043 -21.027 -0.043 -20.943 -0.103 9.846 0.218 4.119 0.148 44.055 42.399
-2.600 -20.295 -0.122 -20.972 -0.045 -20.987 -0.044 -21.080 -0.049 -21.158 -0.046 -21.147 -0.040 -21.126 -0.043 -21.042 -0.043 -21.029 -0.043 -20.945 -0.102 9.834 0.216 4.127 0.147 44.055 42.393
-2.200 -20.294 -0.120 -20.972 -0.045 -20.986 -0.044 -21.080 -0.049 -21.158 -0.046 -21.148 -0.040 -21.126 -0.043 -21.043 -0.042 -21.031 -0.042 -20.947 -0.101 9.823 0.213 4.136 0.146 44.055 42.388
-1.800 -20.293 -0.119 -20.972 -0.044 -20.987 -0.043 -21.080 -0.049 -21.159 -0.046 -21.148 -0.040 -21.127 -0.043 -21.045 -0.042 -21.033 -0.042 -20.950 -0.099 9.811 0.210 4.145 0.145 44.055 42.383
-1.400 -20.292 -0.118 -20.972 -0.044 -20.987 -0.043 -21.081 -0.049 -21.159 -0.046 -21.149 -0.040 -21.128 -0.042 -21.048 -0.041 -21.036 -0.042 -20.952 -0.098 9.800 0.208 4.154 0.144 44.055 42.378
-1.000 -20.292 -0.116 -20.973 -0.044 -20.988 -0.043 -21.081 -0.049 -21.160 -0.046 -21.150 -0.040 -21.129 -0.042 -21.050 -0.041 -21.039 -0.041 -20.955 -0.097 9.788 0.205 4.164 0.142 44.055 42.373
-0.600 -20.292 -0.115 -20.975 -0.044 -20.989 -0.043 -21.082 -0.049 -21.161 -0.045 -21.151 -0.040 -21.131 -0.042 -21.053 -0.041 -21.042 -0.041 -20.958 -0.096 9.777 0.203 4.175 0.141 44.055 42.368
-0.200 -20.293 -0.114 -20.976 -0.044 -20.991 -0.043 -21.084 -0.049 -21.162 -0.045 -21.152 -0.039 -21.132 -0.042 -21.056 -0.041 -21.045 -0.041 -20.961 -0.095 9.766 0.200 4.186 0.140 44.055 42.364
0.200 -20.293 -0.113 -20.978 -0.044 -20.993 -0.043 -21.086 -0.050 -21.164 -0.045 -21.154 -0.039 -21.134 -0.042 -21.059 -0.041 -21.049 -0.041 -20.964 -0.094 9.755 0.198 4.198 0.139 44.056 42.359
0.600 -20.294 -0.112 -20.980 -0.044 -20.995 -0.043 -21.088 -0.050 -21.165 -0.045 -21.156 -0.039 -21.136 -0.042 -21.063 -0.040 -21.053 -0.040 -20.967 -0.094 9.744 0.196 4.210 0.138 44.056 42.355
1.000 -20.296 -0.111 -20.983 -0.044 -20.998 -0.043 -21.090 -0.050 -21.167 -0.045 -21.157 -0.039 -21.138 -0.042 -21.067 -0.041 -21.057 -0.040 -20.971 -0.093 9.733 0.194 4.222 0.137 44.057 42.352
1.400 -20.297 -0.109 -20.986 -0.044 -21.001 -0.043 -21.093 -0.050 -21.169 -0.045 -21.159 -0.039 -21.140 -0.042 -21.071 -0.041 -21.061 -0.040 -20.974 -0.092 9.723 0.192 4.235 0.137 44.058 42.348
1.800 -20.299 -0.108 -20.989 -0.044 -21.004 -0.043 -21.096 -0.050 -21.171 -0.045 -21.162 -0.039 -21.143 -0.042 -21.075 -0.041 -21.066 -0.040 -20.978 -0.091 9.713 0.190 4.248 0.136 44.059 42.345
2.200 -20.301 -0.107 -20.993 -0.044 -21.007 -0.044 -21.099 -0.051 -21.173 -0.044 -21.164 -0.039 -21.145 -0.042 -21.079 -0.041 -21.070 -0.040 -20.981 -0.091 9.703 0.188 4.262 0.136 44.060 42.342
2.600 -20.303 -0.106 -20.996 -0.044 -21.011 -0.044 -21.103 -0.051 -21.176 -0.044 -21.167 -0.038 -21.148 -0.042 -21.084 -0.041 -21.075 -0.040 -20.985 -0.090 9.695 0.187 4.275 0.135 44.061 42.340
3.000 -20.306 -0.105 -21.001 -0.044 -21.015 -0.044 -21.107 -0.051 -21.178 -0.044 -21.169 -0.038 -21.151 -0.042 -21.088 -0.041 -21.080 -0.041 -20.989 -0.090 9.687 0.186 4.288 0.135 44.062 42.339
3.400 -20.309 -0.104 -21.005 -0.044 -21.020 -0.044 -21.111 -0.051 -21.181 -0.044 -21.172 -0.038 -21.154 -0.042 -21.093 -0.042 -21.085 -0.041 -20.993 -0.089 9.681 0.185 4.300 0.135 44.063 42.338
3.800 -20.312 -0.103 -21.010 -0.044 -21.025 -0.044 -21.115 -0.051 -21.184 -0.043 -21.175 -0.037 -21.157 -0.041 -21.098 -0.042 -21.090 -0.041 -20.997 -0.088 9.675 0.184 4.312 0.135 44.065 42.337
4.200 -20.315 -0.102 -21.015 -0.044 -21.030 -0.044 -21.120 -0.051 -21.187 -0.043 -21.178 -0.037 -21.160 -0.041 -21.103 -0.042 -21.095 -0.041 -21.001 -0.088 9.671 0.184 4.324 0.135 44.066 42.338
4.600 -20.319 -0.101 -21.020 -0.044 -21.035 -0.044 -21.124 -0.051 -21.190 -0.043 -21.181 -0.036 -21.163 -0.041 -21.107 -0.042 -21.100 -0.041 -21.005 -0.087 9.668 0.184 4.334 0.136 44.068 42.339
5.000 -20.323 -0.100 -21.026 -0.044 -21.041 -0.044 -21.130 -0.051 -21.194 -0.042 -21.185 -0.036 -21.167 -0.040 -21.112 -0.043 -21.105 -0.041 -21.010 -0.087 9.667 0.185 4.344 0.137 44.070 42.341
5.400 -20.327 -0.099 -21.032 -0.044 -21.046 -0.043 -21.135 -0.051 -21.197 -0.042 -21.188 -0.035 -21.170 -0.040 -21.117 -0.043 -21.110 -0.041 -21.014 -0.086 9.667 0.185 4.353 0.138 44.072 42.344
5.800 -20.331 -0.098 -21.038 -0.044 -21.053 -0.043 -21.140 -0.051 -21.201 -0.041 -21.191 -0.035 -21.174 -0.040 -21.122 -0.043 -21.115 -0.042 -21.018 -0.086 9.669 0.187 4.362 0.139 44.074 42.348
6.200 -20.335 -0.096 -21.044 -0.043 -21.059 -0.043 -21.146 -0.051 -21.205 -0.041 -21.195 -0.034 -21.177 -0.039 -21.126 -0.043 -21.119 -0.042 -21.022 -0.085 9.672 0.188 4.369 0.140 44.076 42.353
6.600 -20.340 -0.095 -21.051 -0.043 -21.065 -0.042 -21.152 -0.051 -21.208 -0.040 -21.199 -0.033 -21.181 -0.039 -21.131 -0.043 -21.124 -0.042 -21.027 -0.084 9.678 0.190 4.375 0.142 44.078 42.358
7.000 -20.345 -0.094 -21.058 -0.042 -21.072 -0.042 -21.158 -0.050 -21.212 -0.040 -21.203 -0.032 -21.185 -0.038 -21.136 -0.044 -21.129 -0.042 -21.031 -0.084 9.684 0.192 4.380 0.144 44.080 42.364
7.400 -20.350 -0.093 -21.065 -0.042 -21.079 -0.041 -21.164 -0.050 -21.216 -0.039 -21.206 -0.032 -21.188 -0.038 -21.140 -0.044 -21.133 -0.042 -21.035 -0.083 9.693 0.195 4.384 0.146 44.082 42.372
7.800 -20.355 -0.092 -21.072 -0.041 -21.086 -0.041 -21.170 -0.050 -21.221 -0.038 -21.210 -0.031 -21.192 -0.038 -21.144 -0.044 -21.138 -0.042 -21.040 -0.082 9.703 0.198 4.387 0.148 44.085 42.379
8.200 -20.360 -0.091 -21.079 -0.040 -21.093 -0.040 -21.177 -0.049 -21.225 -0.038 -21.214 -0.030 -21.196 -0.037 -21.149 -0.044 -21.142 -0.042 -21.044 -0.082 9.714 0.201 4.389 0.150 44.087 42.388
8.600 -20.365 -0.089 -21.087 -0.039 -21.101 -0.039 -21.183 -0.049 -21.229 -0.037 -21.218 -0.030 -21.200 -0.037 -21.153 -0.044 -21.146 -0.042 -21.048 -0.081 9.728 0.205 4.390 0.153 44.090 42.397
9.000 -20.371 -0.088 -21.094 -0.039 -21.109 -0.038 -21.190 -0.049 -21.234 -0.037 -21.222 -0.029 -21.204 -0.037 -21.157 -0.044 -21.150 -0.042 -21.052 -0.080 9.743 0.209 4.390 0.155 44.092 42.407
9.400 -20.376 -0.087 -21.102 -0.038 -21.116 -0.038 -21.197 -0.048 -21.238 -0.036 -21.227 -0.029 -21.208 -0.036 -21.161 -0.043 -21.154 -0.042 -21.056 -0.079 9.760 0.214 4.388 0.158 44.095 42.418
9.800 -20.382 -0.085 -21.110 -0.037 -21.124 -0.037 -21.204 -0.048 -21.243 -0.036 -21.231 -0.028 -21.212 -0.036 -21.165 -0.043 -21.158 -0.041 -21.061 -0.079 9.778 0.218 4.385 0.162 44.098 42.430
10.200 -20.388 -0.084 -21.118 -0.036 -21.133 -0.036 -21.211 -0.047 -21.247 -0.036 -21.235 -0.028 -21.216 -0.036 -21.169 -0.043 -21.162 -0.041 -21.065 -0.078 9.799 0.224 4.382 0.165 44.101 42.442
10.600 -20.394 -0.083 -21.127 -0.035 -21.141 -0.035 -21.218 -0.047 -21.252 -0.035 -21.239 -0.028 -21.220 -0.036 -21.172 -0.043 -21.166 -0.041 -21.069 -0.077 9.821 0.229 4.377 0.169 44.104 42.454
11.000 -20.400 -0.082 -21.135 -0.034 -21.149 -0.034 -21.225 -0.046 -21.257 -0.035 -21.244 -0.028 -21.224 -0.036 -21.176 -0.042 -21.169 -0.041 -21.073 -0.076 9.837 0.235 4.377 0.173 44.107 42.466
11.400 -20.406 -0.080 -21.144 -0.033 -21.158 -0.033 -21.232 -0.046 -21.261 -0.035 -21.248 -0.028 -21.228 -0.036 -21.179 -0.042 -21.173 -0.040 -21.076 -0.075 9.869 0.242 4.365 0.177 44.110 42.481
11.800 -20.412 -0.079 -21.152 -0.032 -21.166 -0.032 -21.240 -0.045 -21.266 -0.035 -21.252 -0.028 -21.232 -0.036 -21.182 -0.042 -21.176 -0.040 -21.080 -0.074 9.895 0.248 4.358 0.181 44.113 42.494
12.200 -20.419 -0.078 -21.161 -0.031 -21.174 -0.031 -21.247 -0.045 -21.271 -0.034 -21.257 -0.028 -21.236 -0.036 -21.185 -0.041 -21.179 -0.039 -21.084 -0.073 9.923 0.255 4.350 0.186 44.116 42.508
12.600 -20.425 -0.077 -21.169 -0.030 -21.183 -0.030 -21.254 -0.044 -21.276 -0.034 -21.261 -0.028 -21.240 -0.036 -21.188 -0.041 -21.182 -0.039 -21.088 -0.072 9.951 0.262 4.342 0.190 44.120 42.522
13.000 -20.432 -0.076 -21.178 -0.029 -21.191 -0.029 -21.262 -0.044 -21.281 -0.034 -21.266 -0.029 -21.244 -0.037 -21.190 -0.040 -21.184 -0.039 -21.091 -0.072 9.980 0.270 4.333 0.195 44.123 42.536
13.400 -20.438 -0.075 -21.186 -0.028 -21.200 -0.028 -21.269 -0.044 -21.286 -0.034 -21.271 -0.029 -21.248 -0.037 -21.193 -0.040 -21.187 -0.038 -21.095 -0.071 10.010 0.277 4.324 0.199 44.126 42.550
13.800 -20.445 -0.074 -21.194 -0.028 -21.208 -0.028 -21.276 -0.043 -21.291 -0.034 -21.275 -0.029 -21.252 -0.037 -21.195 -0.040 -21.189 -0.038 -21.098 -0.070 10.027 0.284 4.324 0.204 44.129 42.563
14.200 -20.451 -0.073 -21.203 -0.027 -21.216 -0.027 -21.284 -0.043 -21.297 -0.034 -21.280 -0.030 -21.256 -0.037 -21.197 -0.039 -21.191 -0.038 -21.102 -0.069 10.068 0.293 4.306 0.208 44.133 42.578
14.600 -20.458 -0.073 -21.211 -0.027 -21.224 -0.027 -21.291 -0.043 -21.302 -0.034 -21.285 -0.030 -21.260 -0.038 -21.199 -0.039 -21.192 -0.037 -21.105 -0.069 10.096 0.300 4.297 0.213 44.136 42.593
15.000 -20.464 -0.072 -21.218 -0.027 -21.232 -0.027 -21.299 -0.043 -21.307 -0.034 -21.289 -0.030 -21.263 -0.038 -21.200 -0.039 -21.194 -0.037 -21.108 -0.068 10.124 0.308 4.289 0.217 44.139 42.607
15.400 -20.471 -0.072 -21.226 -0.026 -21.239 -0.027 -21.306 -0.043 -21.312 -0.034 -21.294 -0.031 -21.267 -0.038 -21.202 -0.039 -21.195 -0.037 -21.111 -0.067 10.151 0.316 4.280 0.221 44.142 42.622
15.800 -20.478 -0.071 -21.234 -0.026 -21.247 -0.027 -21.313 -0.043 -21.318 -0.034 -21.299 -0.031 -21.271 -0.039 -21.203 -0.038 -21.196 -0.037 -21.114 -0.067 10.178 0.324 4.272 0.225 44.145 42.637
16.200 -20.484 -0.071 -21.241 -0.027 -21.254 -0.027 -21.320 -0.043 -21.323 -0.034 -21.303 -0.031 -21.275 -0.039 -21.204 -0.038 -21.197 -0.037 -21.117 -0.067 10.205 0.332 4.263 0.229 44.147 42.652
16.600 -20.491 -0.072 -21.248 -0.027 -21.262 -0.027 -21.327 -0.043 -21.328 -0.035 -21.308 -0.032 -21.279 -0.039 -21.205 -0.038 -21.198 -0.037 -21.120 -0.067 10.233 0.340 4.253 0.233 44.150 42.667
17.000 -20.498 -0.072 -21.256 -0.027 -21.269 -0.027 -21.335 -0.043 -21.333 -0.035 -21.313 -0.032 -21.283 -0.039 -21.206 -0.039 -21.198 -0.037 -21.123 -0.066 10.262 0.348 4.243 0.236 44.153 42.682
17.400 -20.505 -0.073 -21.263 -0.027 -21.276 -0.027 -21.341 -0.043 -21.339 -0.035 -21.318 -0.032 -21.287 -0.039 -21.207 -0.039 -21.199 -0.038 -21.126 -0.067 10.276 0.355 4.243 0.240 44.155 42.695
17.800 -20.512 -0.073 -21.270 -0.028 -21.283 -0.028 -21.348 -0.044 -21.344 -0.036 -21.322 -0.033 -21.290 -0.040 -21.208 -0.039 -21.199 -0.038 -21.128 -0.067 10.323 0.364 4.220 0.243 44.159 42.712
18.200 -20.518 -0.074 -21.277 -0.028 -21.290 -0.028 -21.355 -0.044 -21.349 -0.036 -21.327 -0.033 -21.294 -0.040 -21.208 -0.039 -21.199 -0.038 -21.131 -0.067 10.337 0.371 4.220 0.246 44.161 42.725
18.600 -20.525 -0.075 -21.284 -0.029 -21.297 -0.029 -21.361 -0.044 -21.355 -0.036 -21.332 -0.033 -21.298 -0.040 -21.209 -0.040 -21.199 -0.038 -21.133 -0.067 10.389 0.381 4.195 0.249 44.164 42.742
19.000 -20.532 -0.076 -21.291 -0.029 -21.304 -0.029 -21.368 -0.045 -21.360 -0.037 -21.336 -0.033 -21.302 -0.040 -21.209 -0.040 -21.199 -0.039 -21.136 -0.068 10.423 0.389 4.181 0.251 44.167 42.756
19.400 -20.538 -0.078 -21.298 -0.030 -21.311 -0.030 -21.374 -0.045 -21.365 -0.037 -21.341 -0.034 -21.305 -0.040 -21.209 -0.040 -21.199 -0.039 -21.138 -0.068 10.459 0.397 4.166 0.254 44.170 42.771
19.800 -20.545 -0.079 -21.304 -0.030 -21.317 -0.030 -21.380 -0.045 -21.370 -0.038 -21.345 -0.034 -21.309 -0.040 -21.209 -0.041 -21.199 -0.039 -21.140 -0.069 10.495 0.406 4.151 0.256 44.173 42.785
20.200 -20.551 -0.080 -21.311 -0.031 -21.324 -0.031 -21.386 -0.046 -21.374 -0.038 -21.349 -0.034 -21.312 -0.041 -21.209 -0.041 -21.199 -0.039 -21.142 -0.069 10.531 0.414 4.136 0.258 44.176 42.799
20.600 -20.557 -0.082 -21.317 -0.031 -21.330 -0.031 -21.391 -0.046 -21.379 -0.038 -21.354 -0.034 -21.315 -0.041 -21.209 -0.041 -21.198 -0.040 -21.144 -0.070 10.568 0.422 4.121 0.260 44.179 42.812
21.000 -20.564 -0.084 -21.323 -0.032 -21.336 -0.032 -21.396 -0.046 -21.383 -0.039 -21.358 -0.035 -21.318 -0.041 -21.209 -0.042 -21.198 -0.040 -21.146 -0.070 10.605 0.430 4.105 0.262 44.181 42.825
21.400 -20.570 -0.085 -21.329 -0.032 -21.341 -0.033 -21.401 -0.047 -21.388 -0.039 -21.361 -0.035 -21.322 -0.041 -21.209 -0.042 -21.198 -0.040 -21.148 -0.071 10.641 0.438 4.090 0.264 44.184 42.838
21.800 -20.576 -0.087 -21.334 -0.033 -21.347 -0.033 -21.406 -0.047 -21.392 -0.040 -21.365 -0.035 -21.324 -0.041 -21.209 -0.043 -21.197 -0.041 -21.150 -0.071 10.677 0.445 4.074 0.265 44.187 42.851
22.200 -20.582 -0.089 -21.339 -0.034 -21.351 -0.034 -21.410 -0.048 -21.396 -0.040 -21.368 -0.035 -21.327 -0.041 -21.209 -0.043 -21.197 -0.041 -21.152 -0.072 10.712 0.452 4.059 0.266 44.189 42.862
22.600 -20.587 -0.090 -21.343 -0.034 -21.356 -0.034 -21.414 -0.048 -21.399 -0.040 -21.372 -0.035 -21.330 -0.041 -21.208 -0.043 -21.196 -0.041 -21.153 -0.072 10.747 0.459 4.045 0.267 44.192 42.874
23.000 -20.593 -0.092 -21.348 -0.035 -21.360 -0.035 -21.418 -0.048 -21.403 -0.040 -21.375 -0.036 -21.332 -0.041 -21.208 -0.043 -21.196 -0.042 -21.155 -0.073 10.780 0.466 4.030 0.268 44.194 42.884
23.400 -20.598 -0.094 -21.352 -0.036 -21.364 -0.036 -21.422 -0.048 -21.406 -0.041 -21.378 -0.036 -21.335 -0.041 -21.208 -0.044 -21.195 -0.042 -21.157 -0.073 10.813 0.472 4.016 0.269 44.196 42.894
23.800 -20.604 -0.096 -21.355 -0.036 -21.367 -0.036 -21.425 -0.049 -21.409 -0.041 -21.381 -0.036 -21.337 -0.041 -21.207 -0.044 -21.194 -0.042 -21.158 -0.073 10.844 0.478 4.002 0.269 44.198 42.904
24.200 -20.609 -0.097 -21.358 -0.037 -21.371 -0.037 -21.428 -0.049 -21.412 -0.041 -21.383 -0.036 -21.339 -0.041 -21.207 -0.044 -21.193 -0.042 -21.160 -0.074 10.851 0.481 4.002 0.270 44.199 42.910
24.600 -20.614 -0.099 -21.361 -0.038 -21.373 -0.038 -21.430 -0.049 -21.414 -0.041 -21.385 -0.036 -21.341 -0.041 -21.206 -0.044 -21.193 -0.042 -21.161 -0.074 10.857 0.484 4.002 0.271 44.200 42.916
25.000 -20.618 -0.101 -21.363 -0.038 -21.376 -0.038 -21.433 -0.049 -21.417 -0.041 -21.387 -0.036 -21.342 -0.041 -21.205 -0.044 -21.192 -0.043 -21.162 -0.074 10.933 0.493 3.963 0.269 44.204 42.929
25.400 -20.623 -0.103 -21.365 -0.039 -21.378 -0.039 -21.435 -0.050 -21.419 -0.041 -21.389 -0.036 -21.344 -0.041 -21.205 -0.044 -21.191 -0.043 -21.164 -0.074 10.962 0.497 3.950 0.269 44.205 42.936
25.800 -20.627 -0.104 -21.367 -0.040 -21.379 -0.039 -21.436 -0.050 -21.421 -0.041 -21.391 -0.036 -21.345 -0.041 -21.204 -0.044 -21.190 -0.043 -21.165 -0.074 10.990 0.501 3.937 0.268 44.207 42.943
26.200 -20.631 -0.106 -21.369 -0.040 -21.381 -0.040 -21.438 -0.050 -21.422 -0.041 -21.392 -0.036 -21.346 -0.041 -21.203 -0.044 -21.189 -0.043 -21.166 -0.074 11.018 0.505 3.924 0.268 44.209 42.949
26.600 -20.635 -0.107 -21.370 -0.041 -21.382 -0.040 -21.439 -0.050 -21.424 -0.041 -21.393 -0.036 -21.347 -0.041 -21.202 -0.044 -21.188 -0.043 -21.167 -0.074 11.021 0.506 3.924 0.268 44.209 42.953
27.000 -20.639 -0.109 -21.371 -0.041 -21.383 -0.041 -21.440 -0.050 -21.425 -0.041 -21.394 -0.036 -21.348 -0.041 -21.201 -0.044 -21.187 -0.043 -21.168 -0.074 11.072 0.511 3.898 0.266 44.212 42.961
27.400 -20.643 -0.110 -21.372 -0.041 -21.384 -0.041 -21.441 -0.050 -21.426 -0.041 -21.395 -0.036 -21.349 -0.041 -21.200 -0.044 -21.186 -0.043 -21.169 -0.074 11.075 0.512 3.898 0.266 44.212 42.963
27.800 -20.646 -0.112 -21.372 -0.041 -21.384 -0.041 -21.441 -0.050 -21.427 -0.041 -21.396 -0.036 -21.350 -0.041 -21.199 -0.044 -21.185 -0.043 -21.171 -0.073 11.127 0.516 3.872 0.264 44.214 42.970
28.200 -20.649 -0.113 -21.373 -0.041 -21.384 -0.041 -21.441 -0.049 -21.428 -0.041 -21.396 -0.036 -21.350 -0.041 -21.198 -0.044 -21.184 -0.043 -21.171 -0.073 11.154 0.518 3.859 0.263 44.216 42.974
28.600 -20.652 -0.114 -21.373 -0.041 -21.384 -0.041 -21.441 -0.049 -21.428 -0.040 -21.397 -0.036 -21.350 -0.041 -21.197 -0.043 -21.183 -0.042 -21.172 -0.073 11.182 0.520 3.846 0.261 44.217 42.978
29.000 -20.654 -0.116 -21.373 -0.041 -21.384 -0.041 -21.441 -0.049 -21.428 -0.040 -21.397 -0.036 -21.350 -0.041 -21.196 -0.043 -21.182 -0.042 -21.173 -0.072 11.210 0.522 3.832 0.260 44.218 42.981
29.400 -20.657 -0.117 -21.373 -0.041 -21.384 -0.041 -21.441 -0.049 -21.429 -0.040 -21.397 -0.036 -21.350 -0.041 -21.195 -0.042 -21.181 -0.042 -21.174 -0.072 11.241 0.523 3.817 0.258 44.219 42.984
29.800 -20.659 -0.118 -21.373 -0.041 -21.384 -0.040 -21.441 -0.048 -21.429 -0.040 -21.397 -0.036 -21.350 -0.041 -21.194 -0.042 -21.180 -0.041 -21.175 -0.071 11.269 0.524 3.803 0.256 44.221 42.986
30.200 -20.661 -0.119 -21.373 -0.040 -21.384 -0.040 -21.440 -0.048 -21.429 -0.039 -21.396 -0.036 -21.350 -0.041 -21.193 -0.041 -21.179 -0.041 -21.176 -0.071 11.297 0.524 3.789 0.254 44.222 42.988
30.600 -20.662 -0.120 -21.372 -0.040 -21.383 -0.039 -21.440 -0.047 -21.428 -0.039 -21.396 -0.035 -21.350 -0.041 -21.192 -0.041 -21.178 -0.040 -21.176 -0.070 11.326 0.524 3.775 0.252 44.223 42.990
31.000 -20.664 -0.121 -21.372 -0.039 -21.383 -0.039 -21.439 -0.047 -21.428 -0.039 -21.396 -0.035 -21.349 -0.040 -21.191 -0.040 -21.177 -0.040 -21.177 -0.070 11.355 0.524 3.761 0.250 44.224 42.991
31.400 -20.665 -0.122 -21.371 -0.039 -21.382 -0.038 -21.438 -0.046 -21.427 -0.038 -21.395 -0.035 -21.349 -0.040 -21.190 -0.040 -21.177 -0.039 -21.177 -0.069 11.383 0.523 3.746 0.248 44.225 42.992
31.800 -20.666 -0.123 -21.371 -0.038 -21.382 -0.038 -21.437 -0.046 -21.427 -0.038 -21.394 -0.035 -21.348 -0.040 -21.189 -0.039 -21.176 -0.039 -21.178 -0.068 11.411 0.522 3.733 0.245 44.226 42.992
32.200 -20.666 -0.124 -21.371 -0.037 -21.381 -0.037 -21.437 -0.045 -21.426 -0.038 -21.394 -0.035 -21.347 -0.040 -21.189 -0.038 -21.175 -0.038 -21.178 -0.068 11.438 0.521 3.719 0.243 44.227 42.992
32.600 -20.666 -0.124 -21.370 -0.037 -21.381 -0.036 -21.436 -0.045 -21.426 -0.037 -21.393 -0.035 -21.346 -0.040 -21.188 -0.038 -21.175 -0.037 -21.179 -0.067 11.465 0.519 3.706 0.240 44.228 42.992
33.000 -20.666 -0.125 -21.370 -0.036 -21.380 -0.035 -21.435 -0.044 -21.425 -0.037 -21.392 -0.035 -21.345 -0.040 -21.187 -0.037 -21.174 -0.037 -21.179 -0.066 11.490 0.517 3.693 0.238 44.229 42.991
33.400 -20.666 -0.126 -21.369 -0.035 -21.380 -0.035 -21.434 -0.044 -21.424 -0.037 -21.391 -0.035 -21.344 -0.040 -21.186 -0.036 -21.174 -0.036 -21.179 -0.066 11.514 0.515 3.681 0.235 44.230 42.989
33.800 -20.666 -0.126 -21.369 -0.035 -21.379 -0.034 -21.433 -0.043 -21.423 -0.037 -21.390 -0.034 -21.343 -0.040 -21.186 -0.036 -21.173 -0.035 -21.179 -0.065 11.536 0.513 3.671 0.233 44.230 42.988
34.200 -20.665 -0.127 -21.369 -0.034 -21.379 -0.033 -21.432 -0.043 -21.422 -0.036 -21.389 -0.034 -21.342 -0.040 -21.185 -0.035 -21.173 -0.035 -21.179 -0.065 11.556 0.510 3.661 0.230 44.231 42.986
34.600 -20.664 -0.127 -21.368 -0.033 -21.379 -0.033 -21.431 -0.042 -21.421 -0.036 -21.388 -0.034 -21.341 -0.040 -21.185 -0.035 -21.173 -0.034 -21.179 -0.064 11.574 0.507 3.652 0.228 44.232 42.984
35.000 -20.662 -0.128 -21.368 -0.033 -21.379 -0.032 -21.431 -0.042 -21.420 -0.036 -21.386 -0.034 -21.339 -0.040 -21.184 -0.035 -21.172 -0.034 -21.179 -0.064 11.589 0.505 3.644 0.226 44.232 42.981
35.400 -20.661 -0.128 -21.368 -0.032 -21.378 -0.031 -21.430 -0.042 -21.419 -0.036 -21.385 -0.034 -21.338 -0.040 -21.184 -0.035 -21.172 -0.033 -21.179 -0.063 11.603 0.502 3.636 0.224 44.232 42.978
35.800 -20.659 -0.128 -21.368 -0.031 -21.378 -0.031 -21.429 -0.041 -21.418 -0.036 -21.384 -0.034 -21.336 -0.039 -21.183 -0.034 -21.172 -0.033 -21.178 -0.063 11.615 0.499 3.630 0.223 44.233 42.975
36.200 -20.656 -0.129 -21.367 -0.031 -21.378 -0.030 -21.428 -0.041 -21.416 -0.036 -21.382 -0.034 -21.335 -0.039 -21.182 -0.034 -21.172 -0.033 -21.178 -0.063 11.625 0.497 3.625 0.221 44.233 42.972
36.600 -20.654 -0.129 -21.367 -0.030 -21.377 -0.030 -21.427 -0.041 -21.415 -0.036 -21.381 -0.034 -21.333 -0.039 -21.182 -0.034 -21.171 -0.033 -21.177 -0.062 11.633 0.494 3.620 0.220 44.233 42.968
37.000 -20.651 -0.129 -21.366 -0.030 -21.377 -0.029 -21.426 -0.040 -21.413 -0.036 -21.379 -0.034 -21.331 -0.039 -21.181 -0.034 -21.170 -0.032 -21.176 -0.062 11.640 0.491 3.616 0.219 44.233 42.964
37.400 -20.647 -0.129 -21.365 -0.029 -21.376 -0.028 -21.425 -0.040 -21.412 -0.036 -21.377 -0.034 -21.329 -0.039 -21.180 -0.034 -21.170 -0.032 -21.175 -0.062 11.645 0.488 3.612 0.217 44.233 42.960
37.800 -20.644 -0.129 -21.364 -0.028 -21.375 -0.028 -21.424 -0.040 -21.410 -0.036 -21.376 -0.033 -21.327 -0.039 -21.179 -0.034 -21.169 -0.032 -21.174 -0.061 11.649 0.486 3.609 0.216 44.233 42.955
38.200 -20.640 -0.129 -21.363 -0.028 -21.374 -0.027 -21.422 -0.040 -21.408 -0.036 -21.373 -0.033 -21.324 -0.039 -21.177 -0.034 -21.168 -0.032 -21.172 -0.061 11.652 0.483 3.605 0.215 44.232 42.949
38.600 -20.635 -0.129 -21.361 -0.027 -21.372 -0.026 -21.420 -0.040 -21.406 -0.036 -21.371 -0.033 -21.322 -0.039 -21.175 -0.034 -21.166 -0.032 -21.171 -0.061 11.655 0.480 3.602 0.215 44.232 42.944
39.000 -20.631 -0.128 -21.359 -0.026 -21.370 -0.026 -21.418 -0.039 -21.403 -0.036 -21.369 -0.033 -21.319 -0.039 -21.173 -0.034 -21.165 -0.032 -21.169 -0.060 11.655 0.477 3.599 0.214 44.231 42.938
39.400 -20.626 -0.128 -21.357 -0.026 -21.368 -0.025 -21.415 -0.039 -21.401 -0.036 -21.366 -0.033 -21.316 -0.038 -21.171 -0.034 -21.163 -0.032 -21.167 -0.060 11.655 0.475 3.595 0.213 44.230 42.932
39.800 -20.620 -0.128 -21.354 -0.025 -21.365 -0.025 -21.412 -0.039 -21.398 -0.036 -21.363 -0.033 -21.313 -0.038 -21.169 -0.034 -21.160 -0.032 -21.165 -0.060 11.653 0.473 3.592 0.212 44.229 42.926
40.200 -20.615 -0.127 -21.351 -0.024 -21.362 -0.024 -21.409 -0.039 -21.395 -0.036 -21.360 -0.033 -21.310 -0.038 -21.166 -0.034 -21.158 -0.032 -21.163 -0.059 11.648 0.471 3.590 0.212 44.228 42.920
40.600 -20.609 -0.127 -21.347 -0.024 -21.358 -0.024 -21.405 -0.039 -21.391 -0.036 -21.357 -0.033 -21.306 -0.038 -21.162 -0.034 -21.155 -0.032 -21.160 -0.059 11.640 0.469 3.588 0.212 44.226 42.915
41.000 -20.602 -0.126 -21.342 -0.024 -21.353 -0.023 -21.401 -0.039 -21.388 -0.036 -21.353 -0.032 -21.302 -0.038 -21.159 -0.034 -21.151 -0.032 -21.157 -0.058 11.629 0.468 3.586 0.212 44.224 42.911
41.400 -20.595 -0.126 -21.337 -0.024 -21.348 -0.023 -21.396 -0.039 -21.383 -0.036 -21.349 -0.032 -21.298 -0.038 -21.155 -0.034 -21.147 -0.032 -21.154 -0.058 11.613 0.467 3.586 0.212 44.222 42.907
41.800 -20.588 -0.125 -21.331 -0.024 -21.343 -0.023 -21.391 -0.039 -21.379 -0.036 -21.345 -0.032 -21.293 -0.038 -21.150 -0.034 -21.143 -0.032 -21.151 -0.058 11.594 0.467 3.586 0.213 44.219 42.905
42.200 -20.581 -0.125 -21.325 -0.024 -21.336 -0.023 -21.385 -0.039 -21.374 -0.035 -21.340 -0.032 -21.288 -0.038 -21.145 -0.034 -21.138 -0.032 -21.147 -0.057 11.572 0.468 3.587 0.213 44.216 42.902
42.600 -20.573 -0.124 -21.318 -0.024 -21.329 -0.024 -21.379 -0.039 -21.369 -0.035 -21.335 -0.032 -21.283 -0.038 -21.140 -0.034 -21.133 -0.032 -21.143 -0.057 11.546 0.468 3.588 0.214 44.212 42.901
43.000 -20.565 -0.123 -21.310 -0.024 -21.322 -0.024 -21.373 -0.040 -21.363 -0.035 -21.329 -0.032 -21.277 -0.038 -21.134 -0.034 -21.127 -0.032 -21.139 -0.057 11.518 0.469 3.590 0.215 44.208 42.899
43.400 -20.557 -0.122 -21.302 -0.025 -21.314 -0.024 -21.366 -0.040 -21.357 -0.035 -21.323 -0.032 -21.271 -0.038 -21.128 -0.034 -21.121 -0.032 -21.134 -0.056 11.487 0.470 3.592 0.217 44.204 42.897
43.800 -20.548 -0.121 -21.293 -0.025 -21.305 -0.025 -21.358 -0.040 -21.350 -0.035 -21.317 -0.032 -21.264 -0.038 -21.121 -0.034 -21.115 -0.032 -21.129 -0.056 11.453 0.471 3.594 0.218 44.200 42.896
44.200 -20.539 -0.120 -21.284 -0.026 -21.296 -0.025 -21.350 -0.041 -21.343 -0.035 -21.310 -0.032 -21.257 -0.039 -21.114 -0.034 -21.108 -0.032 -21.124 -0.056 11.417 0.472 3.597 0.219 44.195 42.893
44.600 -20.529 -0.119 -21.274 -0.026 -21.286 -0.026 -21.341 -0.041 -21.336 -0.035 -21.302 -0.032 -21.250 -0.039 -21.107 -0.034 -21.100 -0.032 -21.119 -0.056 11.379 0.473 3.600 0.221 44.190 42.890
45.000 -20.519 -0.118 -21.263 -0.027 -21.275 -0.026 -21.332 -0.041 -21.328 -0.035 -21.294 -0.033 -21.242 -0.039 -21.099 -0.034 -21.092 -0.033 -21.113 -0.056 11.338 0.474 3.603 0.222 44.184 42.887
45.400 -20.509 -0.117 -21.252 -0.027 -21.264 -0.027 -21.322 -0.042 -21.319 -0.035 -21.286 -0.033 -21.234 -0.039 -21.090 -0.034 -21.084 -0.033 -21.107 -0.056 11.295 0.474 3.607 0.224 44.179 42.883
45.800 -20.499 -0.116 -21.240 -0.028 -21.252 -0.028 -21.312 -0.042 -21.310 -0.036 -21.277 -0.033 -21.225 -0.040 -21.081 -0.035 -21.075 -0.033 -21.100 -0.056 11.251 0.474 3.610 0.225 44.173 42.878
46.200 -20.488 -0.115 -21.227 -0.029 -21.240 -0.029 -21.301 -0.043 -21.301 -0.036 -21.268 -0.034 -21.216 -0.040 -21.072 -0.035 -21.066 -0.034 -21.094 -0.056 11.203 0.474 3.615 0.227 44.166 42.873
46.600 -20.477 -0.113 -21.214 -0.030 -21.227 -0.029 -21.289 -0.044 -21.291 -0.037 -21.258 -0.034 -21.207 -0.040 -21.062 -0.035 -21.056 -0.034 -21.087 -0.056 11.151 0.474 3.620 0.228 44.160 42.866
47.000 -20.466 -0.112 -21.201 -0.031 -21.214 -0.030 -21.277 -0.044 -21.280 -0.037 -21.248 -0.035 -21.197 -0.041 -21.052 -0.036 -21.046 -0.035 -21.079 -0.057 11.098 0.472 3.626 0.230 44.153 42.859
47.400 -20.455 -0.111 -21.187 -0.032 -21.200 -0.031 -21.264 -0.045 -21.269 -0.037 -21.237 -0.035 -21.186 -0.041 -21.042 -0.036 -21.035 -0.035 -21.072 -0.057 11.043 0.470 3.632 0.231 44.145 42.851
47.800 -20.443 -0.109 -21.172 -0.032 -21.185 -0.032 -21.251 -0.045 -21.257 -0.038 -21.226 -0.035 -21.175 -0.041 -21.031 -0.037 -21.025 -0.036 -21.064 -0.058 10.986 0.468 3.638 0.232 44.138 42.841
48.200 -20.431 -0.108 -21.157 -0.033 -21.170 -0.033 -21.238 -0.046 -21.245 -0.039 -21.214 -0.036 -21.164 -0.042 -21.020 -0.038 -21.013 -0.037 -21.056 -0.058 10.929 0.464 3.645 0.233 44.130 42.830
48.600 -20.418 -0.106 -21.141 -0.034 -21.154 -0.034 -21.223 -0.046 -21.233 -0.039 -21.202 -0.036 -21.153 -0.042 -21.009 -0.038 -21.002 -0.037 -21.048 -0.059 10.872 0.460 3.651 0.233 44.123 42.819
49.000 -20.406 -0.104 -21.125 -0.035 -21.138 -0.035 -21.209 -0.047 -21.220 -0.040 -21.190 -0.037 -21.141 -0.042 -20.997 -0.039 -20.990 -0.038 -21.039 -0.059 10.815 0.455 3.656 0.233 44.115 42.806
49.400 -20.393 -0.103 -21.108 -0.036 -21.121 -0.036 -21.194 -0.047 -21.207 -0.040 -21.177 -0.037 -21.128 -0.043 -20.985 -0.039 -20.979 -0.038 -21.031 -0.060 10.758 0.449 3.661 0.232 44.107 42.792
49.800 -20.380 -0.101 -21.091 -0.037 -21.104 -0.037 -21.178 -0.048 -21.193 -0.041 -21.163 -0.038 -21.116 -0.043 -20.973 -0.040 -20.966 -0.039 -21.022 -0.060 10.702 0.442 3.666 0.231 44.099 42.777
50.200 -20.367 -0.099 -21.073 -0.037 -21.087 -0.037 -21.162 -0.048 -21.179 -0.041 -21.150 -0.038 -21.103 -0.043 -20.961 -0.040 -20.954 -0.039 -21.013 -0.061 10.643 0.435 3.672 0.230 44.091 42.761
50.600 -20.354 -0.097 -21.055 -0.038 -21.069 -0.038 -21.146 -0.048 -21.165 -0.042 -21.136 -0.039 -21.089 -0.044 -20.949 -0.041 -20.942 -0.040 -21.004 -0.061 10.590 0.427 3.674 0.228 44.083 42.745
51.000 -20.341 -0.095 -21.037 -0.039 -21.051 -0.038 -21.129 -0.049 -21.150 -0.042 -21.121 -0.039 -21.076 -0.044 -20.936 -0.041 -20.930 -0.040 -20.995 -0.062 10.538 0.419 3.676 0.226 44.075 42.727
51.400 -20.327 -0.093 -21.019 -0.039 -21.033 -0.039 -21.112 -0.049 -21.135 -0.042 -21.107 -0.039 -21.062 -0.044 -20.924 -0.042 -20.917 -0.041 -20.985 -0.062 10.487 0.410 3.677 0.223 44.067 42.709
51.800 -20.313 -0.091 -21.000 -0.039 -21.014 -0.039 -21.095 -0.049 -21.120 -0.043 -21.092 -0.040 -21.048 -0.045 -20.911 -0.042 -20.905 -0.041 -20.976 -0.063 10.438 0.401 3.678 0.221 44.058 42.690
52.200 -20.300 -0.089 -20.981 -0.040 -20.995 -0.040 -21.077 -0.049 -21.105 -0.043 -21.077 -0.040 -21.034 -0.045 -20.898 -0.042 -20.892 -0.041 -20.966 -0.063 10.390 0.391 3.677 0.217 44.050 42.670
52.600 -20.286 -0.087 -20.962 -0.040 -20.976 -0.040 -21.060 -0.050 -21.089 -0.043 -21.062 -0.040 -21.020 -0.045 -20.886 -0.042 -20.880 -0.041 -20.957 -0.063 10.344 0.381 3.677 0.214 44.042 42.650
53.000 -20.272 -0.085 -20.943 -0.040 -20.957 -0.040 -21.042 -0.050 -21.073 -0.043 -21.047 -0.040 -21.005 -0.045 -20.873 -0.042 -20.867 -0.041 -20.947 -0.063 10.298 0.371 3.675 0.210 44.034 42.629
53.400 -20.258 -0.083 -20.924 -0.040 -20.938 -0.040 -21.024 -0.050 -21.057 -0.043 -21.031 -0.040 -20.991 -0.045 -20.860 -0.042 -20.855 -0.042 -20.938 -0.064 10.254 0.361 3.673 0.206 44.026 42.607
53.800 -20.244 -0.081 -20.904 -0.040 -20.919 -0.040 -21.005 -0.050 -21.041 -0.043 -21.016 -0.040 -20.976 -0.045 -20.847 -0.042 -20.843 -0.042 -20.928 -0.064 10.212 0.351 3.670 0.202 44.019 42.585
54.200 -20.230 -0.078 -20.885 -0.040 -20.899 -0.039 -20.987 -0.049 -21.025 -0.043 -21.000 -0.040 -20.962 -0.045 -20.835 -0.042 -20.830 -0.042 -20.918 -0.064 10.171 0.340 3.667 0.197 44.011 42.563
54.600 -20.216 -0.076 -20.865 -0.039 -20.880 -0.039 -20.969 -0.049 -21.009 -0.043 -20.985 -0.040 -20.947 -0.045 -20.822 -0.042 -20.818 -0.041 -20.909 -0.064 10.131 0.330 3.663 0.193 44.003 42.540
55.000 -20.202 -0.074 -20.846 -0.039 -20.860 -0.039 -20.950 -0.049 -20.993 -0.043 -20.969 -0.040 -20.932 -0.045 -20.809 -0.042 -20.806 -0.041 -20.899 -0.064 10.093 0.319 3.658 0.188 43.995 42.516
55.400 -20.188 -0.072 -20.827 -0.038 -20.841 -0.038 -20.932 -0.049 -20.977 -0.042 -20.954 -0.040 -20.918 -0.045 -20.797 -0.042 -20.794 -0.041 -20.890 -0.064 10.056 0.309 3.653 0.184 43.988 42.492
55.800 -20.174 -0.070 -20.807 -0.038 -20.822 -0.038 -20.914 -0.049 -20.961 -0.042 -20.938 -0.039 -20.903 -0.045 -20.784 -0.041 -20.782 -0.041 -20.881 -0.064 10.021 0.299 3.648 0.179 43.981 42.468
56.200 -20.160 -0.068 -20.788 -0.037 -20.803 -0.037 -20.895 -0.048 -20.945 -0.042 -20.923 -0.039 -20.889 -0.045 -20.772 -0.041 -20.770 -0.041 -20.872 -0.064 9.987 0.289 3.642 0.174 43.973 42.443
56.600 -20.147 -0.066 -20.769 -0.037 -20.784 -0.037 -20.877 -0.048 -20.929 -0.042 -20.908 -0.039 -20.874 -0.045 -20.760 -0.041 -20.758 -0.041 -20.862 -0.064 9.954 0.279 3.636 0.170 43.966 42.418
57.000 -20.133 -0.064 -20.750 -0.036 -20.765 -0.036 -20.859 -0.048 -20.914 -0.041 -20.893 -0.039 -20.860 -0.045 -20.748 -0.041 -20.747 -0.041 -20.853 -0.064 9.923 0.270 3.629 0.165 43.959 42.394
57.400 -20.120 -0.063 -20.732 -0.035 -20.746 -0.035 -20.841 -0.047 -20.898 -0.041 -20.878 -0.038 -20.846 -0.045 -20.736 -0.041 -20.735 -0.041 -20.845 -0.064 9.893 0.261 3.622 0.161 43.952 42.369
57.800 -20.106 -0.061 -20.713 -0.035 -20.728 -0.034 -20.824 -0.047 -20.883 -0.041 -20.863 -0.038 -20.832 -0.045 -20.724 -0.040 -20.724 -0.041 -20.836 -0.064 9.864 0.252 3.615 0.156 43.945 42.345
58.200 -20.093 -0.060 -20.695 -0.034 -20.710 -0.034 -20.806 -0.047 -20.868 -0.040 -20.849 -0.038 -20.818 -0.045 -20.712 -0.040 -20.713 -0.041 -20.827 -0.064 9.837 0.244 3.607 0.152 43.939 42.321
58.600 -20.080 -0.059 -20.678 -0.034 -20.692 -0.033 -20.789 -0.047 -20.853 -0.040 -20.835 -0.038 -20.805 -0.044 -20.701 -0.040 -20.702 -0.041 -20.819 -0.064 9.811 0.237 3.599 0.148 43.932 42.298
59.000 -20.068 -0.058 -20.660 -0.033 -20.675 -0.033 -20.772 -0.046 -20.838 -0.040 -20.821 -0.038 -20.792 -0.044 -20.689 -0.040 -20.691 -0.041 -20.811 -0.064 9.786 0.230 3.591 0.145 43.926 42.276
59.400 -20.055 -0.058 -20.643 -0.033 -20.657 -0.033 -20.756 -0.046 -20.823 -0.040 -20.807 -0.038 -20.779 -0.044 -20.678 -0.040 -20.680 -0.042 -20.803 -0.064 9.763 0.224 3.583 0.142 43.920 42.256
59.800 -20.043 -0.058 -20.627 -0.033 -20.641 -0.032 -20.740 -0.046 -20.809 -0.040 -20.793 -0.038 -20.766 -0.044 -20.668 -0.041 -20.670 -0.042 -20.796 -0.065 9.741 0.219 3.574 0.139 43.914 42.237
60.200 -20.031 -0.058 -20.610 -0.033 -20.625 -0.033 -20.724 -0.046 -20.795 -0.040 -20.780 -0.038 -20.753 -0.044 -20.657 -0.041 -20.660 -0.043 -20.788 -0.065 9.720 0.215 3.565 0.136 43.908 42.221
60.600 -20.019 -0.058 -20.595 -0.033 -20.609 -0.033 -20.708 -0.046 -20.782 -0.040 -20.767 -0.038 -20.741 -0.045 -20.647 -0.041 -20.650 -0.043 -20.781 -0.066 9.700 0.211 3.557 0.134 43.902 42.206
61.000 -20.008 -0.059 -20.579 -0.034 -20.594 -0.033 -20.693 -0.047 -20.768 -0.040 -20.754 -0.038 -20.729 -0.045 -20.637 -0.042 -20.640 -0.044 -20.774 -0.066 9.681 0.209 3.548 0.133 43.896 42.195
61.400 -19.996 -0.060 -20.565 -0.034 -20.579 -0.034 -20.678 -0.047 -20.755 -0.040 -20.742 -0.038 -20.717 -0.045 -20.627 -0.043 -20.631 -0.044 -20.768 -0.067 9.663 0.207 3.539 0.131 43.891 42.185
61.800 -19.986 -0.062 -20.550 -0.035 -20.564 -0.035 -20.664 -0.047 -20.743 -0.041 -20.730 -0.038 -20.706 -0.045 -20.618 -0.043 -20.621 -0.045 -20.761 -0.068 9.645 0.206 3.531 0.131 43.886 42.177
62.200 -19.975 -0.063 -20.536 -0.036 -20.550 -0.036 -20.650 -0.047 -20.730 -0.041 -20.718 -0.039 -20.695 -0.045 -20.609 -0.044 -20.612 -0.046 -20.755 -0.069 9.628 0.205 3.522 0.130 43.881 42.171
62.600 -19.964 -0.065 -20.523 -0.037 -20.537 -0.037 -20.637 -0.048 -20.718 -0.042 -20.706 -0.039 -20.684 -0.045 -20.600 -0.045 -20.604 -0.046 -20.749 -0.069 9.612 0.205 3.514 0.130 43.876 42.166
63.000 -19.954 -0.067 -20.510 -0.038 -20.524 -0.038 -20.624 -0.048 -20.707 -0.042 -20.695 -0.039 -20.674 -0.045 -20.592 -0.046 -20.595 -0.047 -20.744 -0.070 9.596 0.206 3.507 0.130 43.871 42.163
63.400 -19.944 -0.069 -20.497 -0.039 -20.511 -0.039 -20.611 -0.049 -20.696 -0.042 -20.685 -0.039 -20.664 -0.045 -20.583 -0.046 -20.587 -0.048 -20.738 -0.071 9.579 0.207 3.500 0.130 43.866 42.161
63.800 -19.935 -0.072 -20.485 -0.040 -20.499 -0.040 -20.599 -0.050 -20.685 -0.043 -20.674 -0.040 -20.654 -0.045 -20.576 -0.047 -20.580 -0.048 -20.733 -0.072 9.563 0.208 3.494 0.131 43.862 42.160
64.200 -19.925 -0.074 -20.473 -0.042 -20.487 -0.041 -20.587 -0.050 -20.674 -0.043 -20.664 -0.040 -20.644 -0.046 -20.568 -0.048 -20.572 -0.049 -20.728 -0.073 9.547 0.209 3.488 0.132 43.857 42.159
64.600 -19.916 -0.077 -20.461 -0.043 -20.475 -0.043 -20.576 -0.051 -20.664 -0.044 -20.654 -0.040 -20.635 -0.046 -20.561 -0.049 -20.565 -0.050 -20.723 -0.074 9.531 0.211 3.483 0.133 43.853 42.159
65.000 -19.908 -0.079 -20.450 -0.044 -20.464 -0.044 -20.565 -0.052 -20.655 -0.044 -20.645 -0.041 -20.627 -0.046 -20.554 -0.049 -20.558 -0.050 -20.719 -0.075 9.515 0.213 3.478 0.134 43.849 42.160
65.400 -19.899 -0.082 -20.439 -0.046 -20.454 -0.045 -20.554 -0.053 -20.645 -0.045 -20.636 -0.041 -20.619 -0.046 -20.547 -0.050 -20.552 -0.051 -20.715 -0.076 9.499 0.215 3.474 0.135 43.845 42.161
65.800 -19.891 -0.084 -20.429 -0.047 -20.443 -0.046 -20.544 -0.053 -20.636 -0.045 -20.628 -0.041 -20.611 -0.047 -20.541 -0.051 -20.546 -0.052 -20.711 -0.077 9.482 0.217 3.471 0.136 43.841 42.162
66.200 -19.883 -0.087 -20.419 -0.048 -20.433 -0.048 -20.534 -0.054 -20.628 -0.046 -20.620 -0.042 -20.603 -0.047 -20.535 -0.052 -20.540 -0.052 -20.707 -0.077 9.466 0.220 3.468 0.138 43.838 42.164
66.600 -19.875 -0.090 -20.409 -0.049 -20.424 -0.049 -20.525 -0.055 -20.620 -0.046 -20.612 -0.042 -20.596 -0.047 -20.530 -0.052 -20.535 -0.053 -20.703 -0.078 9.449 0.222 3.467 0.139 43.834 42.165
67.000 -19.867 -0.093 -20.400 -0.051 -20.415 -0.050 -20.516 -0.056 -20.612 -0.047 -20.605 -0.042 -20.589 -0.047 -20.524 -0.053 -20.530 -0.053 -20.700 -0.079 9.432 0.224 3.465 0.140 43.831 42.167
67.400 -19.860 -0.095 -20.391 -0.052 -20.406 -0.051 -20.507 -0.057 -20.605 -0.047 -20.598 -0.043 -20.583 -0.048 -20.519 -0.053 -20.525 -0.054 -20.697 -0.080 9.414 0.227 3.465 0.142 43.827 42.168
67.800 -19.853 -0.098 -20.383 -0.053 -20.397 -0.053 -20.499 -0.057 -20.598 -0.048 -20.591 -0.043 -20.577 -0.048 -20.515 -0.054 -20.520 -0.054 -20.694 -0.080 9.397 0.229 3.466 0.144 43.824 42.170
68.200 -19.846 -0.101 -20.375 -0.054 -20.389 -0.054 -20.492 -0.058 -20.591 -0.048 -20.585 -0.044 -20.571 -0.048 -20.510 -0.054 -20.516 -0.054 -20.691 -0.081 9.379 0.231 3.467 0.145 43.821 42.172
68.600 -19.840 -0.104 -20.367 -0.055 -20.381 -0.055 -20.484 -0.059 -20.585 -0.049 -20.579 -0.044 -20.566 -0.048 -20.506 -0.055 -20.512 -0.055 -20.688 -0.081 9.361 0.233 3.468 0.147 43.818 42.173
69.000 -19.834 -0.106 -20.359 -0.056 -20.374 -0.056 -20.477 -0.060 -20.579 -0.049 -20.574 -0.044 -20.561 -0.049 -20.502 -0.055 -20.508 -0.055 -20.686 -0.082 9.343 0.236 3.471 0.149 43.816 42.175
69.400 -19.828 -0.109 -20.352 -0.057 -20.367 -0.057 -20.470 -0.061 -20.574 -0.049 -20.569 -0.045 -20.556 -0.049 -20.498 -0.055 -20.505 -0.055 -20.683 -0.082 9.326 0.238 3.473 0.150 43.813 42.177
69.800 -19.822 -0.112 -20.345 -0.058 -20.360 -0.058 -20.464 -0.061 -20.569 -0.050 -20.565 -0.045 -20.552 -0.049 -20.495 -0.056 -20.502 -0.056 -20.681 -0.082 9.308 0.240 3.476 0.152 43.811 42.179
70.200 -19.816 -0.114 -20.339 -0.059 -20.354 -0.059 -20.458 -0.062 -20.565 -0.050 -20.560 -0.046 -20.548 -0.050 -20.492 -0.056 -20.499 -0.056 -20.679 -0.083 9.290 0.242 3.481 0.154 43.808 42.180
70.600 -19.811 -0.117 -20.333 -0.060 -20.347 -0.060 -20.452 -0.063 -20.560 -0.051 -20.557 -0.046 -20.545 -0.050 -20.489 -0.056 -20.496 -0.056 -20.677 -0.083 9.272 0.245 3.485 0.156 43.806 42.182
71.000 -19.806 -0.120 -20.327 -0.061 -20.341 -0.060 -20.446 -0.063 -20.556 -0.051 -20.553 -0.047 -20.541 -0.050 -20.486 -0.056 -20.493 -0.056 -20.675 -0.083 9.254 0.247 3.490 0.158 43.804 42.184
71.400 -19.801 -0.122 -20.321 -0.062 -20.336 -0.061 -20.441 -0.064 -20.553 -0.051 -20.550 -0.047 -20.538 -0.051 -20.483 -0.057 -20.491 -0.057 -20.674 -0.083 9.236 0.249 3.495 0.160 43.802 42.186
71.800 -19.796 -0.125 -20.316 -0.062 -20.331 -0.062 -20.436 -0.065 -20.549 -0.052 -20.547 -0.047 -20.535 -0.051 -20.481 -0.057 -20.488 -0.057 -20.672 -0.083 9.218 0.251 3.501 0.162 43.800 42.188
72.200 -19.792 -0.127 -20.311 -0.063 -20.325 -0.062 -20.431 -0.065 -20.546 -0.052 -20.544 -0.048 -20.533 -0.051 -20.478 -0.057 -20.486 -0.057 -20.671 -0.083 9.200 0.253 3.507 0.164 43.798 42.189
72.600 -19.788 -0.130 -20.306 -0.064 -20.321 -0.063 -20.427 -0.066 -20.543 -0.052 -20.541 -0.048 -20.530 -0.052 -20.476 -0.057 -20.484 -0.057 -20.669 -0.083 9.183 0.255 3.513 0.166 43.796 42.191
73.000 -19.783 -0.132 -20.301 -0.064 -20.316 -0.064 -20.422 -0.066 -20.541 -0.052 -20.539 -0.048 -20.528 -0.052 -20.474 -0.057 -20.482 -0.057 -20.668 -0.083 9.166 0.257 3.520 0.168 43.795 42.193
73.400 -19.780 -0.134 -20.297 -0.065 -20.312 -0.064 -20.418 -0.066 -20.538 -0.052 -20.537 -0.049 -20.526 -0.052 -20.472 -0.057 -20.480 -0.058 -20.667 -0.082 9.149 0.260 3.526 0.170 43.793 42.195
73.800 -19.776 -0.137 -20.292 -0.065 -20.307 -0.064 -20.415 -0.067 -20.536 -0.052 -20.535 -0.049 -20.524 -0.052 -20.470 -0.057 -20.478 -0.058 -20.666 -0.082 9.133 0.262 3.533 0.172 43.791 42.196
74.200 -19.772 -0.139 -20.288 -0.065 -20.303 -0.065 -20.411 -0.067 -20.534 -0.053 -20.533 -0.049 -20.522 -0.053 -20.468 -0.058 -20.476 -0.058 -20.665 -0.082 9.117 0.264 3.539 0.174 43.790 42.198
74.600 -19.769 -0.141 -20.285 -0.066 -20.300 -0.065 -20.407 -0.067 -20.532 -0.053 -20.532 -0.049 -20.521 -0.053 -20.467 -0.058 -20.475 -0.058 -20.664 -0.081 9.101 0.266 3.546 0.177 43.789 42.200
75.000 -19.766 -0.144 -20.281 -0.066 -20.296 -0.065 -20.404 -0.068 -20.530 -0.053 -20.530 -0.049 -20.519 -0.053 -20.465 -0.058 -20.473 -0.058 -20.663 -0.081 9.086 0.268 3.553 0.179 43.787 42.201
75.400 -19.763 -0.146 -20.277 -0.066 -20.293 -0.066 -20.401 -0.068 -20.528 -0.053 -20.528 -0.050 -20.517 -0.053 -20.463 -0.058 -20.471 -0.059 -20.662 -0.080 9.071 0.270 3.559 0.181 43.786 42.203
75.800 -19.760 -0.148 -20.274 -0.066 -20.289 -0.066 -20.398 -0.068 -20.527 -0.052 -20.527 -0.050 -20.516 -0.053 -20.462 -0.058 -20.470 -0.059 -20.661 -0.080 9.056 0.272 3.566 0.183 43.785 42.204
76.200 -19.757 -0.150 -20.271 -0.066 -20.286 -0.066 -20.395 -0.068 -20.525 -0.052 -20.526 -0.050 -20.515 -0.053 -20.460 -0.058 -20.468 -0.059 -20.660 -0.079 9.042 0.274 3.572 0.185 43.784 42.205
76.600 -19.755 -0.152 -20.268 -0.066 -20.283 -0.066 -20.392 -0.068 -20.524 -0.052 -20.524 -0.050 -20.513 -0.053 -20.458 -0.058 -20.467 -0.059 -20.659 -0.079 9.029 0.275 3.579 0.187 43.783 42.206
77.000 -19.752 -0.154 -20.265 -0.066 -20.280 -0.066 -20.389 -0.068 -20.522 -0.052 -20.523 -0.050 -20.512 -0.053 -20.457 -0.058 -20.465 -0.059 -20.658 -0.078 9.015 0.277 3.585 0.189 43.782 42.207
77.400 -19.750 -0.157 -20.262 -0.066 -20.278 -0.065 -20.386 -0.068 -20.521 -0.052 -20.522 -0.050 -20.511 -0.053 -20.455 -0.058 -20.464 -0.059 -20.657 -0.078 9.002 0.279 3.591 0.190 43.781 42.207
77.800 -19.748 -0.159 -20.260 -0.066 -20.275 -0.065 -20.384 -0.067 -20.520 -0.052 -20.520 -0.050 -20.509 -0.054 -20.454 -0.058 -20.462 -0.060 -20.656 -0.077 8.989 0.280 3.597 0.192 43.780 42.207
78.200 -19.746 -0.161 -20.257 -0.066 -20.272 -0.065 -20.381 -0.067 -20.518 -0.052 -20.519 -0.049 -20.508 -0.054 -20.452 -0.058 -20.461 -0.060 -20.655 -0.076 8.977 0.281 3.603 0.194 43.779 42.207
78.600 -19.744 -0.163 -20.254 -0.065 -20.270 -0.065 -20.379 -0.067 -20.517 -0.051 -20.518 -0.049 -20.507 -0.054 -20.451 -0.058 -20.459 -0.060 -20.654 -0.076 8.965 0.282 3.608 0.195 43.778 42.206
79.000 -19.742 -0.165 -20.252 -0.065 -20.267 -0.064 -20.376 -0.067 -20.515 -0.051 -20.516 -0.049 -20.505 -0.054 -20.449 -0.058 -20.458 -0.060 -20.653 -0.075 8.954 0.282 3.613 0.196 43.777 42.205
79.400 -19.741 -0.167 -20.249 -0.064 -20.265 -0.064 -20.374 -0.066 -20.513 -0.051 -20.515 -0.049 -20.504 -0.054 -20.448 -0.058 -20.456 -0.060 -20.651 -0.075 8.942 0.283 3.618 0.197 43.776 42.203
79.800 -19.739 -0.169 -20.247 -0.064 -20.262 -0.063 -20.371 -0.066 -20.512 -0.051 -20.514 -0.049 -20.503 -0.053 -20.446 -0.058 -20.455 -0.060 -20.650 -0.074 8.932 0.283 3.623 0.198 43.775 42.201
80.200 -19.738 -0.171 -20.245 -0.063 -20.260 -0.063 -20.369 -0.066 -20.510 -0.051 -20.512 -0.049 -20.501 -0.053 -20.445 -0.058 -20.453 -0.060 -20.649 -0.074 8.921 0.283 3.628 0.199 43.774 42.199
80.600 -19.737 -0.173 -20.242 -0.063 -20.257 -0.062 -20.366 -0.065 -20.508 -0.051 -20.510 -0.049 -20.500 -0.053 -20.443 -0.058 -20.452 -0.060 -20.647 -0.073 8.911 0.283 3.632 0.200 43.773 42.196
81.000 -19.736 -0.174 -20.240 -0.062 -20.255 -0.061 -20.364 -0.065 -20.506 -0.050 -20.509 -0.049 -20.498 -0.053 -20.442 -0.059 -20.450 -0.060 -20.646 -0.073 8.901 0.282 3.636 0.200 43.772 42.193
81.400 -19.735 -0.176 -20.237 -0.062 -20.252 -0.061 -20.362 -0.064 -20.504 -0.050 -20.507 -0.049 -20.496 -0.054 -20.440 -0.059 -20.449 -0.060 -20.645 -0.073 8.892 0.281 3.639 0.200 43.771 42.189
81.800 -19.734 -0.178 -20.235 -0.061 -20.250 -0.060 -20.359 -0.064 -20.502 -0.050 -20.505 -0.049 -20.495 -0.054 -20.439 -0.059 -20.447 -0.060 -20.643 -0.072 8.883 0.281 3.642 0.200 43.770 42.185
82.200 -19.733 -0.180 -20.232 -0.060 -20.248 -0.059 -20.357 -0.063 -20.500 -0.050 -20.503 -0.049 -20.493 -0.054 -20.437 -0.059 -20.446 -0.060 -20.642 -0.072 8.875 0.280 3.645 0.200 43.769 42.181
82.600 -19.732 -0.182 -20.230 -0.060 -20.245 -0.059 -20.354 -0.062 -20.498 -0.050 -20.501 -0.048 -20.491 -0.054 -20.436 -0.058 -20.444 -0.060 -20.640 -0.072 8.866 0.278 3.648 0.200 43.768 42.177
83.000 -19.732 -0.184 -20.228 -0.059 -20.243 -0.058 -20.352 -0.062 -20.496 -0.049 -20.499 -0.048 -20.489 -0.054 -20.434 -0.058 -20.443 -0.060 -20.638 -0.071 8.859 0.277 3.650 0.200 43.767 42.172
83.400 -19.731 -0.186 -20.225 -0.058 -20.240 -0.057 -20.349 -0.061 -20.494 -0.049 -20.497 -0.048 -20.487 -0.054 -20.433 -0.058 -20.441 -0.060 -20.637 -0.071 8.851 0.276 3.652 0.200 43.766 42.167
83.800 -19.731 -0.188 -20.223 -0.058 -20.238 -0.057 -20.347 -0.061 -20.492 -0.049 -20.495 -0.048 -20.485 -0.054 -20.431 -0.058 -20.440 -0.060 -20.635 -0.071 8.845 0.274 3.653 0.199 43.765 42.162
84.200 -19.730 -0.190 -20.220 -0.057 -20.235 -0.056 -20.344 -0.060 -20.490 -0.049 -20.493 -0.048 -20.483 -0.054 -20.430 -0.058 -20.439 -0.060 -20.633 -0.071 8.838 0.272 3.654 0.198 43.764 42.157
84.600 -19.730 -0.192 -20.218 -0.056 -20.233 -0.055 -20.342 -0.060 -20.487 -0.049 -20.491 -0.049 -20.481 -0.055 -20.429 -0.058 -20.437 -0.060 -20.631 -0.071 8.832 0.270 3.655 0.198 43.763 42.152
85.000 -19.730 -0.194 -20.216 -0.056 -20.230 -0.055 -20.339 -0.060 -20.485 -0.049 -20.489 -0.049 -20.479 -0.055 -20.427 -0.058 -20.436 -0.060 -20.630 -0.071 8.827 0.269 3.655 0.197 43.762 42.146
85.400 -19.730 -0.196 -20.213 -0.056 -20.228 -0.054 -20.337 -0.059 -20.483 -0.049 -20.486 -0.049 -20.477 -0.055 -20.426 -0.058 -20.435 -0.060 -20.628 -0.071 8.822 0.267 3.655 0.196 43.761 42.141
85.800 -19.729 -0.198 -20.211 -0.056 -20.226 -0.054 -20.335 -0.059 -20.480 -0.049 -20.484 -0.049 -20.475 -0.056 -20.425 -0.058 -20.433 -0.060 -20.626 -0.072 8.818 0.265 3.654 0.195 43.760 42.136
86.200 -19.730 -0.200 -20.209 -0.055 -20.223 -0.054 -20.332 -0.059 -20.478 -0.049 -20.482 -0.050 -20.473 -0.056 -20.423 -0.058 -20.432 -0.060 -20.624 -0.072 8.815 0.263 3.653 0.194 43.759 42.132
86.600 -19.730 -0.202 -20.206 -0.056 -20.221 -0.054 -20.330 -0.059 -20.476 -0.049 -20.479 -0.050 -20.471 -0.057 -20.422 -0.059 -20.431 -0.060 -20.622 -0.073 8.813 0.262 3.651 0.192 43.758 42.128
87.000 -19.730 -0.204 -20.204 -0.056 -20.219 -0.054 -20.327 -0.059 -20.473 -0.050 -20.477 -0.051 -20.469 -0.058 -20.421 -0.059 -20.430 -0.060 -20.620 -0.073 8.811 0.260 3.648 0.191 43.757 42.124
87.400 -19.730 -0.206 -20.202 -0.057 -20.217 -0.055 -20.325 -0.060 -20.471 -0.050 -20.475 -0.052 -20.467 -0.058 -20.420 -0.059 -20.429 -0.060 -20.618 -0.074 8.811 0.259 3.645 0.190 43.756 42.121
87.800 -19.730 -0.208 -20.200 -0.057 -20.215 -0.056 -20.323 -0.060 -20.468 -0.051 -20.472 -0.052 -20.465 -0.059 -20.419 -0.060 -20.428 -0.061 -20.616 -0.076 8.811 0.258 3.641 0.189 43.756 42.118
88.200 -19.731 -0.211 -20.198 -0.058 -20.212 -0.057 -20.320 -0.061 -20.466 -0.052 -20.470 -0.053 -20.462 -0.060 -20.418 -0.060 -20.427 -0.061 -20.614 -0.077 8.812 0.257 3.637 0.188 43.755 42.117
88.600 -19.731 -0.213 -20.196 -0.060 -20.211 -0.058 -20.318 -0.061 -20.463 -0.053 -20.468 -0.054 -20.460 -0.061 -20.417 -0.061 -20.427 -0.062 -20.612 -0.078 8.815 0.256 3.632 0.187 43.754 42.116
89.000 -19.732 -0.215 -20.194 -0.061 -20.209 -0.060 -20.316 -0.062 -20.461 -0.054 -20.465 -0.056 -20.458 -0.062 -20.416 -0.061 -20.426 -0.062 -20.610 -0.080 8.817 0.255 3.627 0.186 43.753 42.115
89.400 -19.732 -0.217 -20.193 -0.063 -20.207 -0.061 -20.314 -0.064 -20.458 -0.055 -20.463 -0.057 -20.456 -0.063 -20.416 -0.062 -20.425 -0.063 -20.607 -0.082 8.821 0.254 3.621 0.184 43.752 42.115
89.800 -19.733 -0.220 -20.191 -0.065 -20.205 -0.063 -20.312 -0.065 -20.456 -0.057 -20.461 -0.058 -20.454 -0.064 -20.415 -0.063 -20.424 -0.064 -20.605 -0.084 8.825 0.254 3.615 0.183 43.752 42.115
90.200 -19.734 -0.222 -20.189 -0.068 -20.203 -0.066 -20.310 -0.066 -20.453 -0.058 -20.458 -0.060 -20.452 -0.066 -20.414 -0.064 -20.424 -0.065 -20.603 -0.087 8.829 0.253 3.608 0.182 43.751 42.115
90.600 -19.735 -0.224 -20.188 -0.070 -20.202 -0.068 -20.308 -0.068 -20.451 -0.060 -20.456 -0.061 -20.450 -0.067 -20.413 -0.065 -20.423 -0.066 -20.601 -0.089 8.834 0.253 3.602 0.181 43.751 42.116
91.000 -19.735 -0.227 -20.186 -0.073 -20.200 -0.071 -20.306 -0.070 -20.448 -0.062 -20.454 -0.063 -20.448 -0.068 -20.413 -0.067 -20.422 -0.067 -20.599 -0.092 8.839 0.252 3.595 0.180 43.750 42.116
91.400 -19.736 -0.229 -20.185 -0.076 -20.199 -0.073 -20.304 -0.072 -20.446 -0.064 -20.451 -0.065 -20.446 -0.070 -20.412 -0.068 -20.422 -0.069 -20.596 -0.094 8.845 0.252 3.589 0.179 43.749 42.117
91.800 -19.737 -0.232 -20.184 -0.078 -20.198 -0.076 -20.302 -0.074 -20.443 -0.066 -20.449 -0.067 -20.444 -0.071 -20.411 -0.069 -20.421 -0.070 -20.594 -0.097 8.850 0.252 3.582 0.178 43.749 42.118
92.200 -19.738 -0.234 -20.182 -0.081 -20.196 -0.079 -20.300 -0.076 -20.441 -0.067 -20.447 -0.068 -20.442 -0.073 -20.411 -0.071 -20.421 -0.072 -20.592 -0.100 8.856 0.251 3.576 0.177 43.748 42.118
92.600 -19.740 -0.236 -20.181 -0.085 -20.195 -0.082 -20.299 -0.078 -20.438 -0.069 -20.445 -0.070 -20.441 -0.074 -20.410 -0.073 -20.420 -0.073 -20.590 -0.103 8.861 0.251 3.569 0.176 43.748 42.119
93.000 -19.741 -0.239 -20.180 -0.088 -20.194 -0.085 -20.297 -0.080 -20.436 -0.071 -20.442 -0.072 -20.439 -0.076 -20.410 -0.074 -20.420 -0.075 -20.587 -0.106 8.867 0.251 3.563 0.175 43.748 42.119
93.400 -19.742 -0.242 -20.179 -0.091 -20.193 -0.089 -20.295 -0.083 -20.434 -0.073 -20.440 -0.074 -20.437 -0.078 -20.409 -0.076 -20.419 -0.077 -20.585 -0.110 8.873 0.250 3.556 0.174 43.747 42.119
93.800 -19.743 -0.244 -20.178 -0.094 -20.192 -0.092 -20.294 -0.085 -20.431 -0.075 -20.438 -0.076 -20.435 -0.079 -20.409 -0.078 -20.419 -0.079 -20.583 -0.113 8.879 0.250 3.550 0.173 43.747 42.120
94.200 -19.745 -0.247 -20.177 -0.098 -20.191 -0.095 -20.292 -0.088 -20.429 -0.078 -20.436 -0.078 -20.433 -0.081 -20.409 -0.080 -20.418 -0.081 -20.580 -0.116 8.886 0.250 3.544 0.172 43.747 42.120
94.600 -19.746 -0.249 -20.177 -0.101 -20.190 -0.099 -20.291 -0.090 -20.427 -0.080 -20.434 -0.080 -20.432 -0.083 -20.408 -0.082 -20.418 -0.083 -20.578 -0.120 8.892 0.250 3.537 0.171 43.746 42.120
95.000 -19.747 -0.252 -20.176 -0.104 -20.189 -0.102 -20.289 -0.093 -20.425 -0.082 -20.432 -0.081 -20.430 -0.084 -20.408 -0.084 -20.418 -0.085 -20.576 -0.123 8.898 0.249 3.531 0.171 43.746 42.120
95.400 -19.749 -0.255 -20.175 -0.108 -20.189 -0.105 -20.288 -0.096 -20.423 -0.084 -20.430 -0.083 -20.429 -0.086 -20.408 -0.086 -20.417 -0.087 -20.574 -0.127 8.905 0.249 3.525 0.170 43.746 42.120
95.800 -19.751 -0.258 -20.175 -0.111 -20.188 -0.109 -20.287 -0.098 -20.421 -0.085 -20.429 -0.085 -20.427 -0.087 -20.407 -0.088 -20.417 -0.089 -20.571 -0.130 8.912 0.249 3.519 0.169 43.745 42.120
96.200 -19.752 -0.260 -20.174 -0.115 -20.187 -0.112 -20.285 -0.101 -20.419 -0.087 -20.427 -0.087 -20.426 -0.089 -20.407 -0.090 -20.417 -0.092 -20.569 -0.134 8.918 0.249 3.512 0.169 43.745 42.120
96.600 -19.754 -0.263 -20.174 -0.118 -20.187 -0.116 -20.284 -0.104 -20.417 -0.089 -20.425 -0.089 -20.424 -0.091 -20.407 -0.092 -20.417 -0.094 -20.567 -0.138 8.925 0.249 3.506 0.168 43.745 42.120
97.000 -19.756 -0.266 -20.173 -0.122 -20.186 -0.119 -20.283 -0.107 -20.415 -0.091 -20.423 -0.090 -20.423 -0.092 -20.407 -0.094 -20.416 -0.097 -20.565 -0.142 8.932 0.249 3.500 0.167 43.745 42.120
97.400 -19.757 -0.269 -20.173 -0.125 -20.186 -0.123 -20.282 -0.109 -20.413 -0.093 -20.422 -0.092 -20.421 -0.094 -20.406 -0.097 -20.416 -0.099 -20.562 -0.145 8.939 0.249 3.494 0.167 43.745 42.121
97.800 -19.759 -0.271 -20.172 -0.129 -20.185 -0.126 -20.281 -0.112 -20.412 -0.095 -20.420 -0.094 -20.420 -0.095 -20.406 -0.099 -20.416 -0.102 -20.560 -0.149 8.947 0.249 3.487 0.166 43.744 42.121
98.200 -19.761 -0.274 -20.172 -0.132 -20.185 -0.129 -20.280 -0.115 -20.410 -0.097 -20.418 -0.096 -20.419 -0.097 -20.406 -0.101 -20.416 -0.104 -20.558 -0.153 8.954 0.249 3.481 0.166 43.744 42.121
98.600 -19.763 -0.277 -20.172 -0.136 -20.185 -0.133 -20.279 -0.118 -20.408 -0.098 -20.417 -0.097 -20.418 -0.098 -20.406 -0.104 -20.416 -0.107 -20.556 -0.157 8.962 0.249 3.475 0.165 43.744 42.121
99.000 -19.765 -0.280 -20.172 -0.139 -20.184 -0.136 -20.278 -0.121 -20.407 -0.100 -20.416 -0.099 -20.416 -0.100 -20.406 -0.106 -20.416 -0.110 -20.554 -0.161 8.969 0.249 3.469 0.165 43.744 42.121
99.400 -19.767 -0.283 -20.172 -0.142 -20.184 -0.140 -20.277 -0.123 -20.405 -0.102 -20.414 -0.100 -20.415 -0.101 -20.406 -0.109 -20.415 -0.113 -20.551 -0.165 8.977 0.249 3.462 0.164 43.744 42.121
99.800 -19.769 -0.286 -20.172 -0.146 -20.184 -0.143 -20.277 -0.126 -20.404 -0.103 -20.413 -0.102 -20.414 -0.103 -20.406 -0.111 -20.415 -0.115 -20.549 -0.169 8.985 0.250 3.456 0.164 43.744 42.122
100.200 -19.771 -0.288 -20.172 -0.149 -20.184 -0.146 -20.276 -0.129 -20.402 -0.105 -20.411 -0.103 -20.413 -0.104 -20.406 -0.114 -20.415 -0.118 -20.547 -0.173 8.994 0.250 3.449 0.164 43.744 42.122
100.600 -19.773 -0.291 -20.172 -0.153 -20.184 -0.150 -20.275 -0.132 -20.401 -0.107 -20.410 -0.105 -20.412 -0.106 -20.406 -0.116 -20.415 -0.121 -20.545 -0.177 9.002 0.250 3.443 0.163 43.744 42.123
101.000 -19.776 -0.294 -20.172 -0.156 -20.184 -0.153 -20.275 -0.134 -20.399 -0.108 -20.409 -0.106 -20.411 -0.107 -20.406 -0.119 -20.415 -0.124 -20.543 -0.181 9.011 0.251 3.436 0.163 43.744 42.123
101.400 -19.778 -0.297 -20.172 -0.159 -20.184 -0.156 -20.274 -0.137 -20.398 -0.110 -20.408 -0.107 -20.410 -0.108 -20.406 -0.121 -20.415 -0.127 -20.541 -0.185 9.019 0.251 3.430 0.163 43.744 42.124
101.800 -19.780 -0.300 -20.172 -0.162 -20.184 -0.159 -20.274 -0.140 -20.397 -0.111 -20.407 -0.109 -20.410 -0.110 -20.406 -0.124 -20.415 -0.130 -20.539 -0.189 9.028 0.252 3.423 0.162 43.744 42.125
102.200 -19.782 -0.303 -20.172 -0.166 -20.184 -0.163 -20.273 -0.142 -20.396 -0.112 -20.406 -0.110 -20.409 -0.111 -20.406 -0.126 -20.415 -0.133 -20.537 -0.193 9.037 0.252 3.416 0.162 43.744 42.125
102.600 -19.785 -0.306 -20.173 -0.169 -20.184 -0.166 -20.273 -0.145 -20.395 -0.114 -20.405 -0.111 -20.408 -0.112 -20.406 -0.129 -20.415 -0.136 -20.534 -0.197 9.047 0.253 3.410 0.162 43.744 42.126
103.000 -19.787 -0.308 -20.173 -0.172 -20.185 -0.169 -20.272 -0.148 -20.394 -0.115 -20.404 -0.112 -20.407 -0.113 -20.406 -0.132 -20.415 -0.139 -20.532 -0.201 9.056 0.253 3.403 0.162 43.744 42.127
103.400 -19.790 -0.311 -20.173 -0.175 -20.185 -0.172 -20.272 -0.150 -20.392 -0.117 -20.403 -0.114 -20.406 -0.115 -20.406 -0.134 -20.415 -0.142 -20.530 -0.205 9.066 0.254 3.396 0.161 43.744 42.128
103.800 -19.792 -0.314 -20.174 -0.178 -20.185 -0.175 -20.272 -0.153 -20.392 -0.118 -20.402 -0.115 -20.406 -0.116 -20.406 -0.137 -20.415 -0.144 -20.528 -0.209 9.076 0.255 3.389 0.161 43.745 42.129
104.200 -19.795 -0.317 -20.174 -0.181 -20.186 -0.178 -20.272 -0.155 -20.391 -0.119 -20.401 -0.116 -20.405 -0.117 -20.406 -0.139 -20.415 -0.147 -20.526 -0.213 9.086 0.255 3.382 0.161 43.745 42.130
104.600 -19.797 -0.320 -20.175 -0.184 -20.186 -0.181 -20.271 -0.158 -20.390 -0.120 -20.400 -0.117 -20.404 -0.118 -20.406 -0.142 -20.415 -0.150 -20.524 -0.217 9.096 0.256 3.375 0.161 43.745 42.131
105.000 -19.800 -0.323 -20.175 -0.187 -20.187 -0.184 -20.271 -0.160 -20.389 -0.121 -20.399 -0.118 -20.404 -0.119 -20.406 -0.144 -20.415 -0.153 -20.522 -0.221 9.106 0.257 3.368 0.161 43.745 42.133
105.400 -19.802 -0.325 -20.176 -0.190 -20.187 -0.187 -20.271 -0.163 -20.388 -0.123 -20.399 -0.119 -20.403 -0.121 -20.406 -0.147 -20.415 -0.156 -20.520 -0.225 9.117 0.257 3.361 0.160 43.745 42.134
105.800 -19.805 -0.328 -20.176 -0.193 -20.188 -0.190 -20.271 -0.165 -20.387 -0.124 -20.398 -0.120 -20.403 -0.122 -20.406 -0.150 -20.415 -0.159 -20.518 -0.229 9.128 0.258 3.354 0.160 43.745 42.135
106.200 -19.807 -0.331 -20.177 -0.196 -20.188 -0.193 -20.271 -0.167 -20.387 -0.125 -20.397 -0.121 -20.402 -0.123 -20.406 -0.152 -20.415 -0.162 -20.516 -0.233 9.139 0.259 3.347 0.160 43.746 42.137
106.600 -19.810 -0.334 -20.178 -0.199 -20.189 -0.196 -20.271 -0.170 -20.386 -0.126 -20.397 -0.122 -20.402 -0.124 -20.406 -0.155 -20.415 -0.165 -20.514 -0.237 9.150 0.259 3.339 0.160 43.746 42.138
107.000 -19.813 -0.337 -20.178 -0.202 -20.189 -0.198 -20.271 -0.172 -20.385 -0.127 -20.396 -0.123 -20.401 -0.125 -20.406 -0.157 -20.415 -0.168 -20.512 -0.241 9.161 0.260 3.332 0.159 43.746 42.139
107.400 -19.816 -0.339 -20.179 -0.205 -20.190 -0.201 -20.271 -0.174 -20.385 -0.128 -20.396 -0.124 -20.401 -0.126 -20.406 -0.160 -20.414 -0.171 -20.510 -0.245 9.172 0.261 3.325 0.159 43.746 42.141
107.800 -19.818 -0.342 -20.180 -0.208 -20.191 -0.204 -20.271 -0.177 -20.384 -0.129 -20.395 -0.125 -20.401 -0.127 -20.406 -0.162 -20.414 -0.174 -20.508 -0.249 9.184 0.262 3.317 0.159 43.747 42.142
108.200 -19.821 -0.345 -20.181 -0.210 -20.191 -0.207 -20.271 -0.179 -20.383 -0.130 -20.395 -0.126 -20.400 -0.128 -20.406 -0.165 -20.414 -0.177 -20.506 -0.253 9.196 0.262 3.310 0.159 43.747 42.144
108.600 -19.824 -0.347 -20.181 -0.213 -20.192 -0.209 -20.272 -0.181 -20.383 -0.131 -20.394 -0.127 -20.400 -0.129 -20.406 -0.167 -20.414 -0.180 -20.504 -0.257 9.208 0.263 3.302 0.158 43.747 42.145
109.000 -19.827 -0.350 -20.182 -0.216 -20.193 -0.212 -20.272 -0.183 -20.382 -0.132 -20.394 -0.128 -20.399 -0.130 -20.406 -0.170 -20.414 -0.183 -20.501 -0.260 9.220 0.264 3.295 0.158 43.747 42.147
109.400 -19.830 -0.353 -20.183 -0.218 -20.194 -0.214 -20.272 -0.185 -20.382 -0.134 -20.393 -0.129 -20.399 -0.132 -20.406 -0.173 -20.414 -0.186 -20.499 -0.264 9.232 0.265 3.287 0.158 43.748 42.149
109.800 -19.833 -0.355 -20.184 -0.221 -20.195 -0.217 -20.272 -0.187 -20.382 -0.135 -20.393 -0.130 -20.399 -0.133 -20.406 -0.175 -20.414 -0.188 -20.497 -0.268 9.245 0.265 3.280 0.158 43.748 42.150
110.200 -19.835 -0.358 -20.185 -0.223 -20.196 -0.219 -20.273 -0.190 -20.381 -0.136 -20.392 -0.131 -20.398 -0.134 -20.406 -0.178 -20.413 -0.191 -20.495 -0.272 9.258 0.266 3.272 0.157 43.748 42.152
110.600 -19.838 -0.360 -20.186 -0.226 -20.196 -0.222 -20.273 -0.192 -20.381 -0.137 -20.392 -0.132 -20.398 -0.135 -20.406 -0.180 -20.413 -0.194 -20.493 -0.276 9.271 0.267 3.264 0.157 43.749 42.154
111.000 -19.841 -0.363 -20.187 -0.228 -20.197 -0.224 -20.273 -0.194 -20.380 -0.138 -20.392 -0.133 -20.398 -0.136 -20.406 -0.183 -20.413 -0.197 -20.491 -0.280 9.284 0.268 3.256 0.157 43.749 42.155
111.400 -19.844 -0.365 -20.188 -0.231 -20.198 -0.227 -20.274 -0.196 -20.380 -0.139 -20.391 -0.134 -20.398 -0.137 -20.406 -0.185 -20.412 -0.200 -20.489 -0.283 9.297 0.268 3.249 0.156 43.750 42.157
111.800 -19.847 -0.368 -20.189 -0.233 -20.199 -0.229 -20.274 -0.198 -20.380 -0.140 -20.391 -0.135 -20.397 -0.138 -20.406 -0.188 -20.412 -0.203 -20.487 -0.287 9.310 0.269 3.241 0.156 43.750 42.159
112.200 -19.850 -0.370 -20.190 -0.236 -20.200 -0.232 -20.275 -0.200 -20.379 -0.141 -20.391 -0.136 -20.397 -0.140 -20.405 -0.190 -20.412 -0.206 -20.485 -0.291 9.324 0.270 3.233 0.156 43.750 42.161
112.600 -19.853 -0.372 -20.191 -0.238 -20.201 -0.234 -20.275 -0.202 -20.379 -0.142 -20.390 -0.137 -20.397 -0.141 -20.405 -0.193 -20.411 -0.209 -20.483 -0.295 9.338 0.270 3.225 0.155 43.751 42.162
113.000 -19.856 -0.375 -20.192 -0.240 -20.202 -0.236 -20.276 -0.204 -20.379 -0.143 -20.390 -0.138 -20.396 -0.142 -20.405 -0.195 -20.411 -0.211 -20.481 -0.298 9.352 0.271 3.217 0.155 43.751 42.164
113.400 -19.859 -0.377 -20.193 -0.243 -20.203 -0.238 -20.276 -0.206 -20.379 -0.144 -20.390 -0.140 -20.396 -0.143 -20.405 -0.198 -20.411 -0.214 -20.479 -0.302 9.366 0.272 3.208 0.154 43.752 42.166
113.800 -19.862 -0.379 -20.195 -0.245 -20.204 -0.241 -20.277 -0.208 -20.378 -0.146 -20.389 -0.141 -20.396 -0.145 -20.404 -0.201 -20.410 -0.217 -20.476 -0.306 9.381 0.272 3.200 0.154 43.752 42.168
114.200 -19.865 -0.382 -20.196 -0.247 -20.206 -0.243 -20.277 -0.210 -20.378 -0.147 -20.389 -0.142 -20.396 -0.146 -20.404 -0.203 -20.410 -0.220 -20.474 -0.309 9.395 0.273 3.192 0.154 43.753 42.170
114.600 -19.868 -0.384 -20.197 -0.249 -20.207 -0.245 -20.278 -0.212 -20.378 -0.148 -20.389 -0.143 -20.395 -0.148 -20.404 -0.206 -20.409 -0.223 -20.472 -0.313 9.410 0.274 3.184 0.153 43.753 42.172
115.000 -19.871 -0.386 -20.198 -0.251 -20.208 -0.247 -20.278 -0.213 -20.378 -0.150 -20.389 -0.145 -20.395 -0.149 -20.403 -0.208 -20.409 -0.225 -20.470 -0.317 9.425 0.274 3.175 0.153 43.754 42.174
115.400 -19.874 -0.388 -20.199 -0.254 -20.209 -0.249 -20.279 -0.215 -20.377 -0.151 -20.388 -0.146 -20.395 -0.151 -20.403 -0.211 -20.408 -0.228 -20.468 -0.320 9.440 0.275 3.167 0.152 43.754 42.175
115.800 -19.877 -0.390 -20.201 -0.256 -20.210 -0.251 -20.279 -0.217 -20.377 -0.152 -20.388 -0.147 -20.394 -0.152 -20.403 -0.213 -20.408 -0.231 -20.466 -0.324 9.456 0.275 3.158 0.152 43.755 42.177
116.200 -19.880 -0.392 -20.202 -0.258 -20.211 -0.253 -20.280 -0.219 -20.377 -0.154 -20.388 -0.149 -20.394 -0.154 -20.402 -0.216 -20.407 -0.234 -20.463 -0.327 9.471 0.276 3.150 0.151 43.755 42.179
116.600 -19.883 -0.395 -20.203 -0.260 -20.212 -0.255 -20.280 -0.221 -20.377 -0.155 -20.387 -0.151 -20.394 -0.156 -20.402 -0.218 -20.406 -0.237 -20.461 -0.331 9.487 0.277 3.141 0.151 43.756 42.181
117.000 -19.887 -0.397 -20.204 -0.262 -20.213 -0.257 -20.281 -0.223 -20.376 -0.157 -20.387 -0.152 -20.393 -0.157 -20.401 -0.221 -20.405 -0.239 -20.459 -0.334 9.503 0.277 3.133 0.151 43.756 42.183
117.400 -19.890 -0.399 -20.205 -0.264 -20.215 -0.259 -20.282 -0.225 -20.376 -0.159 -20.387 -0.154 -20.393 -0.159 -20.400 -0.224 -20.405 -0.242 -20.457 -0.338 9.520 0.278 3.124 0.150 43.757 42.185
117.800 -19.893 -0.401 -20.207 -0.266 -20.216 -0.261 -20.282 -0.226 -20.376 -0.160 -20.386 -0.156 -20.393 -0.161 -20.400 -0.226 -20.404 -0.245 -20.454 -0.341 9.536 0.278 3.115 0.150 43.757 42.187
118.200 -19.896 -0.402 -20.208 -0.268 -20.217 -0.263 -20.283 -0.228 -20.376 -0.162 -20.386 -0.158 -20.392 -0.163 -20.399 -0.229 -20.403 -0.248 -20.452 -0.344 9.553 0.279 3.106 0.149 43.758 42.189
118.600 -19.899 -0.404 -20.209 -0.269 -20.218 -0.265 -20.284 -0.230 -20.375 -0.164 -20.386 -0.160 -20.392 -0.165 -20.398 -0.231 -20.402 -0.251 -20.450 -0.348 9.570 0.280 3.097 0.148 43.758 42.191
119.000 -19.902 -0.406 -20.210 -0.271 -20.219 -0.267 -20.284 -0.232 -20.375 -0.166 -20.385 -0.162 -20.391 -0.167 -20.398 -0.234 -20.401 -0.253 -20.447 -0.351 9.587 0.280 3.088 0.148 43.759 42.193
119.400 -19.905 -0.408 -20.212 -0.273 -20.221 -0.269 -20.285 -0.233 -20.375 -0.168 -20.385 -0.164 -20.391 -0.169 -20.397 -0.237 -20.401 -0.256 -20.445 -0.354 9.604 0.281 3.079 0.147 43.759 42.195
119.800 -19.908 -0.410 -20.213 -0.275 -20.222 -0.271 -20.285 -0.235 -20.375 -0.170 -20.384 -0.166 -20.390 -0.172 -20.396 -0.239 -20.400 -0.259 -20.443 -0.358 9.621 0.281 3.070 0.147 43.760 42.197
120.200 -19.911 -0.411 -20.214 -0.277 -20.223 -0.272 -20.286 -0.237 -20.374 -0.172 -20.384 -0.168 -20.390 -0.174 -20.395 -0.242 -20.399 -0.262 -20.440 -0.361 9.639 0.282 3.061 0.146 43.761 42.199
120.600 -19.914 -0.413 -20.216 -0.278 -20.224 -0.274 -20.287 -0.239 -20.374 -0.174 -20.383 -0.170 -20.389 -0.176 -20.394 -0.244 -20.398 -0.264 -20.438 -0.364 9.657 0.282 3.052 0.146 43.761 42.200
121.000 -19.917 -0.415 -20.217 -0.280 -20.225 -0.276 -20.287 -0.240 -20.374 -0.176 -20.383 -0.172 -20.389 -0.179 -20.394 -0.247 -20.396 -0.267 -20.435 -0.367 9.675 0.283 3.042 0.145 43.762 42.202
121.400 -19.920 -0.416 -20.218 -0.282 -20.226 -0.277 -20.288 -0.242 -20.373 -0.178 -20.382 -0.175 -20.388 -0.181 -20.393 -0.250 -20.395 -0.270 -20.433 -0.371 9.693 0.283 3.033 0.145 43.762 42.204
121.800 -19.923 -0.418 -20.219 -0.284 -20.228 -0.279 -20.289 -0.244 -20.373 -0.181 -20.382 -0.177 -20.387 -0.183 -20.392 -0.252 -20.394 -0.273 -20.430 -0.374 9.712 0.284 3.023 0.144 43.763 42.206
122.200 -19.926 -0.419 -20.220 -0.285 -20.229 -0.281 -20.289 -0.246 -20.372 -0.183 -20.381 -0.180 -20.387 -0.186 -20.391 -0.255 -20.393 -0.275 -20.428 -0.377 9.731 0.284 3.014 0.143 43.764 42.208
122.600 -19.929 -0.421 -20.222 -0.287 -20.230 -0.282 -20.290 -0.247 -20.372 -0.185 -20.381 -0.182 -20.386 -0.189 -20.389 -0.258 -20.392 -0.278 -20.425 -0.380 9.750 0.285 3.004 0.143 43.764 42.210
123.000 -19.932 -0.422 -20.223 -0.288 -20.231 -0.284 -20.290 -0.249 -20.371 -0.187 -20.380 -0.185 -20.385 -0.191 -20.388 -0.260 -20.390 -0.281 -20.423 -0.383 9.769 0.285 2.994 0.142 43.765 42.212
123.400 -19.935 -0.424 -20.224 -0.290 -20.232 -0.285 -20.291 -0.251 -20.371 -0.190 -20.379 -0.187 -20.384 -0.194 -20.387 -0.263 -20.389 -0.283 -20.420 -0.386 9.788 0.286 2.984 0.142 43.765 42.214
123.800 -19.938 -0.425 -20.225 -0.291 -20.233 -0.287 -20.291 -0.252 -20.370 -0.192 -20.379 -0.190 -20.384 -0.196 -20.386 -0.265 -20.388 -0.286 -20.418 -0.389 9.808 0.286 2.975 0.141 43.766 42.215
124.200 -19.941 -0.427 -20.227 -0.293 -20.235 -0.288 -20.292 -0.254 -20.370 -0.195 -20.378 -0.192 -20.383 -0.199 -20.385 -0.268 -20.386 -0.289 -20.415 -0.392 9.828 0.287 2.965 0.140 43.767 42.217
124.600 -19.944 -0.428 -20.228 -0.294 -20.236 -0.290 -20.293 -0.255 -20.369 -0.197 -20.377 -0.195 -20.382 -0.202 -20.383 -0.271 -20.385 -0.291 -20.412 -0.395 9.848 0.287 2.955 0.140 43.767 42.219
125.000 -19.947 -0.429 -20.229 -0.296 -20.237 -0.291 -20.293 -0.257 -20.369 -0.200 -20.377 -0.198 -20.381 -0.204 -20.382 -0.273 -20.383 -0.294 -20.410 -0.398 9.868 0.288 2.944 0.139 43.768 42.221
125.400 -19.950 -0.430 -20.230 -0.297 -20.238 -0.293 -20.294 -0.259 -20.368 -0.202 -20.376 -0.200 -20.380 -0.207 -20.381 -0.276 -20.382 -0.296 -20.407 -0.400 9.889 0.288 2.934 0.138 43.768 42.223
125.800 -19.953 -0.431 -20.231 -0.298 -20.239 -0.294 -20.294 -0.260 -20.368 -0.205 -20.375 -0.203 -20.379 -0.210 -20.379 -0.278 -20.380 -0.299 -20.404 -0.403 9.910 0.289 2.924 0.138 43.769 42.224
126.200 -19.955 -0.433 -20.232 -0.300 -20.240 -0.295 -20.295 -0.262 -20.367 -0.207 -20.374 -0.206 -20.378 -0.213 -20.378 -0.281 -20.379 -0.302 -20.402 -0.406 9.931 0.289 2.914 0.137 43.770 42.226
126.600 -19.958 -0.434 -20.233 -0.301 -20.241 -0.297 -20.295 -0.263 -20.366 -0.210 -20.373 -0.209 -20.377 -0.215 -20.376 -0.283 -20.377 -0.304 -20.399 -0.409 9.952 0.290 2.903 0.136 43.770 42.228
127.000 -19.961 -0.435 -20.235 -0.302 -20.242 -0.298 -20.295 -0.265 -20.365 -0.212 -20.372 -0.211 -20.376 -0.218 -20.375 -0.286 -20.375 -0.307 -20.396 -0.411 9.973 0.290 2.893 0.136 43.771 42.229
127.400 -19.964 -0.436 -20.236 -0.303 -20.243 -0.299 -20.296 -0.266 -20.365 -0.215 -20.371 -0.214 -20.375 -0.221 -20.373 -0.289 -20.373 -0.309 -20.393 -0.414 9.995 0.291 2.882 0.135 43.771 42.231
127.800 -19.967 -0.437 -20.237 -0.304 -20.244 -0.300 -20.296 -0.267 -20.364 -0.217 -20.370 -0.217 -20.373 -0.224 -20.371 -0.291 -20.371 -0.312 -20.390 -0.417 10.017 0.291 2.872 0.134 43.772 42.233
128.200 -19.969 -0.438 -20.238 -0.306 -20.245 -0.301 -20.297 -0.269 -20.363 -0.220 -20.369 -0.219 -20.372 -0.227 -20.369 -0.294 -20.370 -0.314 -20.387 -0.419 10.039 0.292 2.861 0.134 43.773 42.234
128.600 -19.972 -0.438 -20.239 -0.307 -20.246 -0.302 -20.297 -0.270 -20.362 -0.222 -20.368 -0.222 -20.371 -0.229 -20.368 -0.296 -20.368 -0.317 -20.385 -0.422 10.061 0.292 2.850 0.133 43.773 42.236
129.000 -19.975 -0.439 -20.240 -0.308 -20.247 -0.303 -20.297 -0.272 -20.361 -0.225 -20.367 -0.225 -20.369 -0.232 -20.366 -0.299 -20.366 -0.319 -20.382 -0.424 10.083 0.292 2.840 0.132 43.774 42.238
129.400 -19.978 -0.440 -20.241 -0.309 -20.248 -0.305 -20.298 -0.273 -20.360 -0.227 -20.366 -0.227 -20.368 -0.235 -20.364 -0.301 -20.364 -0.322 -20.379 -0.427 10.106 0.293 2.829 0.132 43.774 42.239
129.800 -19.980 -0.441 -20.242 -0.310 -20.249 -0.306 -20.298 -0.274 -20.359 -0.230 -20.365 -0.230 -20.367 -0.237 -20.362 -0.303 -20.362 -0.324 -20.376 -0.429 10.129 0.293 2.818 0.131 43.775 42.241
130.200 -19.983 -0.441 -20.243 -0.311 -20.249 -0.306 -20.298 -0.276 -20.358 -0.232 -20.363 -0.233 -20.365 -0.240 -20.360 -0.306 -20.359 -0.326 -20.373 -0.432 10.152 0.294 2.807 0.130 43.775 42.242
130.600 -19.985 -0.442 -20.243 -0.311 -20.250 -0.307 -20.298 -0.277 -20.357 -0.234 -20.362 -0.235 -20.364 -0.243 -20.358 -0.308 -20.357 -0.329 -20.369 -0.434 10.175 0.294 2.796 0.129 43.776 42.244
131.000 -19.988 -0.443 -20.244 -0.312 -20.251 -0.308 -20.298 -0.278 -20.356 -0.237 -20.361 -0.238 -20.362 -0.245 -20.356 -0.311 -20.355 -0.331 -20.366 -0.436 10.198 0.295 2.785 0.129 43.777 42.245
131.400 -19.990 -0.443 -20.245 -0.313 -20.252 -0.309 -20.299 -0.279 -20.355 -0.239 -20.359 -0.240 -20.361 -0.248 -20.354 -0.313 -20.353 -0.333 -20.363 -0.439 10.222 0.295 2.774 0.128 43.777 42.247
131.800 -19.993 -0.444 -20.246 -0.314 -20.252 -0.310 -20.299 -0.280 -20.354 -0.241 -20.358 -0.243 -20.359 -0.250 -20.352 -0.315 -20.351 -0.336 -20.360 -0.441 10.245 0.295 2.763 0.127 43.778 42.248
132.200 -19.995 -0.444 -20.247 -0.315 -20.253 -0.311 -20.299 -0.281 -20.353 -0.244 -20.356 -0.245 -20.357 -0.253 -20.349 -0.318 -20.348 -0.338 -20.357 -0.443 10.269 0.296 2.752 0.126 43.778 42.250
132.600 -19.998 -0.445 -20.247 -0.315 -20.254 -0.311 -20.299 -0.282 -20.351 -0.246 -20.355 -0.248 -20.356 -0.256 -20.347 -0.320 -20.346 -0.340 -20.354 -0.445 10.293 0.296 2.741 0.126 43.779 42.251
133.000 -20.000 -0.445 -20.248 -0.316 -20.255 -0.312 -20.299 -0.283 -20.350 -0.248 -20.353 -0.250 -20.354 -0.258 -20.345 -0.322 -20.343 -0.342 -20.350 -0.447 10.318 0.297 2.729 0.125 43.779 42.253
133.400 -20.002 -0.446 -20.249 -0.317 -20.255 -0.313 -20.299 -0.284 -20.349 -0.250 -20.352 -0.252 -20.352 -0.260 -20.342 -0.324 -20.341 -0.344 -20.347 -0.449 10.342 0.297 2.718 0.124 43.780 42.254
133.800 -20.005 -0.446 -20.249 -0.317 -20.256 -0.313 -20.299 -0.285 -20.347 -0.252 -20.350 -0.255 -20.350 -0.263 -20.340 -0.326 -20.338 -0.346 -20.344 -0.451 10.367 0.297 2.707 0.123 43.780 42.255
134.200 -20.007 -0.446 -20.250 -0.318 -20.256 -0.314 -20.299 -0.286 -20.346 -0.254 -20.348 -0.257 -20.348 -0.265 -20.338 -0.329 -20.336 -0.349 -20.341 -0.453 10.391 0.298 2.696 0.122 43.781 42.257
134.600 -20.009 -0.446 -20.251 -0.318 -20.257 -0.314 -20.299 -0.287 -20.344 -0.256 -20.347 -0.259 -20.346 -0.268 -20.335 -0.331 -20.333 -0.351 -20.337 -0.455 10.416 0.298 2.684 0.122 43.781 42.258
135.000 -20.011 -0.447 -20.251 -0.318 -20.257 -0.315 -20.298 -0.288 -20.343 -0.258 -20.345 -0.261 -20.344 -0.270 -20.332 -0.333 -20.330 -0.353 -20.334 -0.457 10.441 0.299 2.673 0.121 43.782 42.259
135.400 -20.014 -0.447 -20.252 -0.319 -20.258 -0.315 -20.298 -0.289 -20.341 -0.260 -20.343 -0.263 -20.342 -0.272 -20.330 -0.335 -20.328 -0.354 -20.330 -0.459 10.466 0.299 2.661 0.120 43.782 42.261
135.800 -20.016 -0.447 -20.252 -0.319 -20.258 -0.315 -20.298 -0.290 -20.340 -0.262 -20.341 -0.266 -20.340 -0.274 -20.327 -0.337 -20.325 -0.356 -20.327 -0.461 10.492 0.299 2.650 0.119 43.783 42.262
136.200 -20.018 -0.447 -20.253 -0.319 -20.258 -0.316 -20.298 -0.290 -20.338 -0.264 -20.339 -0.268 -20.338 -0.276 -20.324 -0.339 -20.322 -0.358 -20.324 -0.463 10.517 0.300 2.639 0.119 43.783 42.263
136.600 -20.020 -0.447 -20.253 -0.320 -20.259 -0.316 -20.297 -0.291 -20.336 -0.266 -20.337 -0.270 -20.335 -0.278 -20.322 -0.340 -20.319 -0.360 -20.320 -0.465 10.543 0.300 2.627 0.118 43.784 42.265
137.000 -20.022 -0.447 -20.253 -0.320 -20.259 -0.316 -20.297 -0.291 -20.334 -0.268 -20.335 -0.272 -20.333 -0.280 -20.319 -0.342 -20.316 -0.362 -20.316 -0.466 10.569 0.301 2.616 0.117 43.784 42.266
137.400 -20.024 -0.447 -20.254 -0.320 -20.259 -0.316 -20.297 -0.292 -20.333 -0.269 -20.333 -0.273 -20.331 -0.282 -20.316 -0.344 -20.313 -0.364 -20.313 -0.468 10.594 0.301 2.604 0.116 43.784 42.267
137.800 -20.026 -0.447 -20.254 -0.320 -20.259 -0.317 -20.296 -0.292 -20.331 -0.271 -20.331 -0.275 -20.328 -0.284 -20.313 -0.346 -20.310 -0.365 -20.309 -0.469 10.620 0.302 2.593 0.115 43.785 42.268
138.200 -20.027 -0.447 -20.254 -0.320 -20.259 -0.317 -20.296 -0.293 -20.329 -0.273 -20.329 -0.277 -20.326 -0.286 -20.310 -0.348 -20.307 -0.367 -20.306 -0.471 10.647 0.302 2.581 0.115 43.785 42.270
138.600 -20.029 -0.447 -20.254 -0.320 -20.260 -0.317 -20.295 -0.293 -20.327 -0.274 -20.326 -0.279 -20.323 -0.288 -20.307 -0.349 -20.304 -0.369 -20.302 -0.473 10.673 0.302 2.570 0.114 43.786 42.271
139.000 -20.031 -0.447 -20.254 -0.320 -20.260 -0.317 -20.294 -0.294 -20.325 -0.276 -20.324 -0.280 -20.321 -0.290 -20.304 -0.351 -20.301 -0.370 -20.298 -0.474 10.699 0.303 2.558 0.113 43.786 42.272
139.400 -20.033 -0.446 -20.254 -0.320 -20.260 -0.316 -20.294 -0.294 -20.323 -0.277 -20.322 -0.282 -20.318 -0.291 -20.301 -0.352 -20.297 -0.372 -20.295 -0.475 10.726 0.303 2.547 0.112 43.786 42.273
139.800 -20.034 -0.446 -20.255 -0.320 -20.260 -0.316 -20.293 -0.294 -20.321 -0.278 -20.319 -0.284 -20.316 -0.293 -20.297 -0.354 -20.294 -0.373 -20.291 -0.477 10.752 0.304 2.535 0.112 43.787 42.275
140.200 -20.036 -0.446 -20.255 -0.319 -20.260 -0.316 -20.292 -0.294 -20.318 -0.280 -20.317 -0.285 -20.313 -0.295 -20.294 -0.355 -20.291 -0.375 -20.287 -0.478 10.779 0.304 2.523 0.111 43.787 42.276
140.600 -20.037 -0.446 -20.254 -0.319 -20.259 -0.316 -20.292 -0.294 -20.316 -0.281 -20.314 -0.286 -20.310 -0.296 -20.291 -0.357 -20.287 -0.376 -20.283 -0.479 10.806 0.305 2.512 0.110 43.787 42.277
141.000 -20.039 -0.445 -20.254 -0.319 -20.259 -0.316 -20.291 -0.294 -20.314 -0.282 -20.312 -0.288 -20.307 -0.298 -20.287 -0.358 -20.284 -0.377 -20.280 -0.481 10.833 0.305 2.500 0.109 43.788 42.278
141.400 -20.040 -0.445 -20.254 -0.318 -20.259 -0.315 -20.290 -0.295 -20.311 -0.283 -20.309 -0.289 -20.304 -0.299 -20.284 -0.360 -20.280 -0.378 -20.276 -0.482 10.860 0.306 2.489 0.109 43.788 42.279
141.800 -20.042 -0.444 -20.254 -0.318 -20.259 -0.315 -20.289 -0.294 -20.309 -0.284 -20.306 -0.290 -20.301 -0.300 -20.281 -0.361 -20.277 -0.380 -20.272 -0.483 10.887 0.307 2.477 0.108 43.788 42.281
142.200 -20.043 -0.444 -20.254 -0.317 -20.258 -0.314 -20.288 -0.294 -20.307 -0.285 -20.303 -0.292 -20.298 -0.302 -20.277 -0.362 -20.273 -0.381 -20.268 -0.484 10.914 0.307 2.466 0.107 43.789 42.282
142.600 -20.044 -0.443 -20.253 -0.317 -20.258 -0.314 -20.287 -0.294 -20.304 -0.286 -20.301 -0.293 -20.295 -0.303 -20.273 -0.363 -20.270 -0.382 -20.264 -0.485 10.941 0.308 2.454 0.107 43.789 42.283
143.000 -20.046 -0.443 -20.253 -0.316 -20.258 -0.313 -20.286 -0.294 -20.301 -0.287 -20.298 -0.294 -20.292 -0.304 -20.270 -0.364 -20.266 -0.383 -20.260 -0.486 10.968 0.308 2.443 0.106 43.789 42.284
143.400 -20.047 -0.442 -20.253 -0.316 -20.257 -0.313 -20.285 -0.294 -20.299 -0.288 -20.295 -0.295 -20.289 -0.305 -20.266 -0.365 -20.262 -0.384 -20.256 -0.487 10.995 0.309 2.431 0.105 43.789 42.286
143.800 -20.048 -0.442 -20.252 -0.315 -20.257 -0.312 -20.283 -0.293 -20.296 -0.289 -20.292 -0.296 -20.286 -0.306 -20.262 -0.366 -20.258 -0.385 -20.252 -0.488 11.023 0.310 2.419 0.104 43.789 42.287
144.200 -20.049 -0.441 -20.252 -0.314 -20.256 -0.311 -20.282 -0.293 -20.293 -0.289 -20.289 -0.296 -20.282 -0.307 -20.259 -0.367 -20.255 -0.386 -20.248 -0.489 11.050 0.310 2.408 0.104 43.790 42.288
144.600 -20.050 -0.441 -20.251 -0.313 -20.255 -0.310 -20.281 -0.293 -20.290 -0.290 -20.285 -0.297 -20.279 -0.308 -20.255 -0.368 -20.251 -0.387 -20.244 -0.490 11.078 0.311 2.396 0.103 43.790 42.290
145.000 -20.051 -0.440 -20.250 -0.312 -20.255 -0.310 -20.279 -0.292 -20.287 -0.290 -20.282 -0.298 -20.275 -0.309 -20.251 -0.369 -20.247 -0.387 -20.240 -0.490 11.105 0.312 2.385 0.103 43.790 42.291
145.400 -20.051 -0.439 -20.250 -0.311 -20.254 -0.309 -20.278 -0.292 -20.284 -0.291 -20.279 -0.299 -20.272 -0.310 -20.247 -0.370 -20.243 -0.388 -20.236 -0.491 11.133 0.313 2.374 0.102 43.790 42.292
145.800 -20.052 -0.439 -20.249 -0.311 -20.253 -0.308 -20.277 -0.291 -20.281 -0.291 -20.276 -0.299 -20.268 -0.310 -20.243 -0.370 -20.239 -0.389 -20.231 -0.492 11.160 0.314 2.362 0.101 43.790 42.294
146.200 -20.053 -0.438 -20.248 -0.310 -20.252 -0.307 -20.275 -0.290 -20.278 -0.292 -20.272 -0.300 -20.265 -0.311 -20.239 -0.371 -20.235 -0.389 -20.227 -0.492 11.188 0.315 2.351 0.101 43.790 42.295
146.600 -20.053 -0.437 -20.247 -0.308 -20.251 -0.306 -20.273 -0.290 -20.275 -0.292 -20.269 -0.300 -20.261 -0.311 -20.235 -0.371 -20.231 -0.390 -20.223 -0.493 11.216 0.316 2.339 0.100 43.790 42.297
147.000 -20.054 -0.436 -20.246 -0.307 -20.250 -0.305 -20.272 -0.289 -20.272 -0.292 -20.265 -0.300 -20.257 -0.312 -20.231 -0.372 -20.227 -0.390 -20.219 -0.493 11.243 0.317 2.328 0.100 43.790 42.298
147.400 -20.055 -0.435 -20.245 -0.306 -20.249 -0.303 -20.270 -0.288 -20.269 -0.292 -20.262 -0.301 -20.253 -0.312 -20.227 -0.372 -20.222 -0.391 -20.215 -0.494 11.271 0.318 2.317 0.099 43.790 42.300
147.800 -20.055 -0.435 -20.244 -0.305 -20.248 -0.302 -20.268 -0.287 -20.265 -0.292 -20.258 -0.301 -20.249 -0.313 -20.222 -0.373 -20.218 -0.391 -20.210 -0.494 11.298 0.319 2.305 0.099 43.790 42.301
148.200 -20.055 -0.434 -20.243 -0.304 -20.247 -0.301 -20.266 -0.286 -20.262 -0.292 -20.254 -0.301 -20.245 -0.313 -20.218 -0.373 -20.214 -0.391 -20.206 -0.494 11.326 0.320 2.294 0.098 43.790 42.303
148.600 -20.056 -0.433 -20.242 -0.302 -20.245 -0.300 -20.264 -0.285 -20.258 -0.292 -20.250 -0.301 -20.241 -0.313 -20.214 -0.373 -20.210 -0.392 -20.202 -0.495 11.354 0.321 2.283 0.098 43.790 42.304
149.000 -20.056 -0.432 -20.241 -0.301 -20.244 -0.298 -20.262 -0.284 -20.255 -0.292 -20.246 -0.301 -20.237 -0.313 -20.209 -0.373 -20.205 -0.392 -20.197 -0.495 11.381 0.322 2.271 0.097 43.790 42.306
149.400 -20.056 -0.431 -20.239 -0.300 -20.243 -0.297 -20.260 -0.283 -20.251 -0.292 -20.243 -0.301 -20.233 -0.313 -20.205 -0.374 -20.201 -0.392 -20.193 -0.495 11.409 0.324 2.260 0.097 43.790 42.308
149.800 -20.056 -0.430 -20.238 -0.298 -20.241 -0.295 -20.258 -0.282 -20.247 -0.292 -20.239 -0.301 -20.229 -0.313 -20.200 -0.374 -20.196 -0.392 -20.189 -0.495 11.436 0.325 2.249 0.096 43.790 42.310
150.200 -20.056 -0.429 -20.236 -0.297 -20.240 -0.294 -20.256 -0.280 -20.243 -0.291 -20.234 -0.301 -20.224 -0.313 -20.196 -0.374 -20.192 -0.392 -20.184 -0.495 11.463 0.326 2.238 0.096 43.790 42.311
150.600 -20.056 -0.429 -20.235 -0.295 -20.238 -0.292 -20.253 -0.279 -20.240 -0.291 -20.230 -0.301 -20.220 -0.313 -20.191 -0.374 -20.187 -0.392 -20.180 -0.495 11.491 0.328 2.227 0.095 43.790 42.313
151.000 -20.056 -0.428 -20.233 -0.293 -20.236 -0.291 -20.251 -0.278 -20.236 -0.290 -20.226 -0.300 -20.216 -0.313 -20.187 -0.373 -20.183 -0.392 -20.176 -0.495 11.518 0.330 2.216 0.095 43.789 42.315
151.400 -20.055 -0.427 -20.232 -0.292 -20.234 -0.289 -20.248 -0.276 -20.232 -0.290 -20.222 -0.300 -20.211 -0.313 -20.182 -0.373 -20.178 -0.391 -20.171 -0.495 11.545 0.331 2.205 0.095 43.789 42.317
151.800 -20.055 -0.426 -20.230 -0.290 -20.233 -0.288 -20.246 -0.275 -20.228 -0.289 -20.217 -0.300 -20.207 -0.312 -20.177 -0.373 -20.173 -0.391 -20.167 -0.495 11.572 0.333 2.194 0.094 43.789 42.319
152.200 -20.055 -0.425 -20.228 -0.288 -20.231 -0.286 -20.243 -0.274 -20.223 -0.289 -20.213 -0.299 -20.202 -0.312 -20.173 -0.373 -20.169 -0.391 -20.162 -0.495 11.599 0.335 2.183 0.094 43.789 42.322
152.600 -20.054 -0.424 -20.226 -0.287 -20.229 -0.284 -20.241 -0.272 -20.219 -0.288 -20.209 -0.298 -20.197 -0.311 -20.168 -0.372 -20.164 -0.390 -20.158 -0.495 11.626 0.337 2.172 0.094 43.788 42.324
153.000 -20.053 -0.423 -20.224 -0.285 -20.227 -0.282 -20.238 -0.270 -20.215 -0.287 -20.204 -0.298 -20.193 -0.311 -20.163 -0.372 -20.159 -0.390 -20.153 -0.494 11.653 0.339 2.161 0.094 43.788 42.326
153.400 -20.053 -0.422 -20.222 -0.283 -20.225 -0.281 -20.235 -0.269 -20.210 -0.286 -20.199 -0.297 -20.188 -0.310 -20.158 -0.371 -20.154 -0.389 -20.148 -0.494 11.679 0.341 2.151 0.093 43.788 42.328
153.800 -20.052 -0.421 -20.220 -0.281 -20.222 -0.279 -20.232 -0.267 -20.206 -0.285 -20.195 -0.296 -20.183 -0.310 -20.153 -0.370 -20.150 -0.389 -20.144 -0.494 11.706 0.343 2.140 0.093 43.787 42.331
154.200 -20.051 -0.420 -20.218 -0.279 -20.220 -0.277 -20.229 -0.265 -20.201 -0.284 -20.190 -0.295 -20.178 -0.309 -20.148 -0.370 -20.145 -0.388 -20.139 -0.493 11.732 0.346 2.129 0.093 43.787 42.333
154.600 -20.050 -0.419 -20.215 -0.277 -20.218 -0.275 -20.226 -0.264 -20.197 -0.283 -20.185 -0.294 -20.173 -0.308 -20.143 -0.369 -20.140 -0.387 -20.135 -0.493 11.758 0.348 2.119 0.093 43.786 42.336
155.000 -20.049 -0.419 -20.213 -0.276 -20.215 -0.273 -20.223 -0.262 -20.192 -0.282 -20.180 -0.293 -20.168 -0.307 -20.138 -0.368 -20.135 -0.386 -20.130 -0.492 11.784 0.350 2.108 0.093 43.786 42.339
155.400 -20.048 -0.418 -20.211 -0.274 -20.213 -0.271 -20.220 -0.260 -20.187 -0.281 -20.175 -0.292 -20.163 -0.306 -20.133 -0.367 -20.130 -0.386 -20.126 -0.492 11.810 0.353 2.098 0.092 43.785 42.341
155.800 -20.047 -0.417 -20.208 -0.272 -20.210 -0.269 -20.216 -0.258 -20.183 -0.280 -20.170 -0.291 -20.157 -0.305 -20.128 -0.366 -20.125 -0.385 -20.121 -0.491 11.835 0.356 2.087 0.092 43.785 42.344
156.200 -20.046 -0.416 -20.205 -0.270 -20.207 -0.267 -20.213 -0.256 -20.178 -0.279 -20.165 -0.290 -20.152 -0.304 -20.123 -0.365 -20.120 -0.384 -20.116 -0.490 11.860 0.359 2.077 0.092 43.784 42.347
156.600 -20.044 -0.415 -20.203 -0.268 -20.205 -0.265 -20.210 -0.254 -20.173 -0.277 -20.160 -0.289 -20.147 -0.303 -20.118 -0.364 -20.115 -0.382 -20.112 -0.489 11.885 0.362 2.066 0.092 43.783 42.350
157.000 -20.043 -0.414 -20.200 -0.266 -20.202 -0.263 -20.206 -0.252 -20.168 -0.276 -20.154 -0.287 -20.141 -0.301 -20.113 -0.363 -20.110 -0.381 -20.107 -0.489 11.910 0.365 2.056 0.092 43.783 42.353
157.400 -20.041 -0.414 -20.197 -0.264 -20.199 -0.261 -20.202 -0.251 -20.162 -0.274 -20.149 -0.286 -20.136 -0.300 -20.107 -0.362 -20.105 -0.380 -20.102 -0.488 11.935 0.368 2.046 0.092 43.782 42.356
157.800 -20.039 -0.413 -20.194 -0.262 -20.196 -0.259 -20.199 -0.249 -20.157 -0.273 -20.144 -0.285 -20.130 -0.299 -20.102 -0.361 -20.099 -0.379 -20.098 -0.487 11.959 0.371 2.036 0.092 43.781 42.360
158.200 -20.038 -0.412 -20.191 -0.260 -20.193 -0.257 -20.195 -0.247 -20.152 -0.271 -20.138 -0.283 -20.125 -0.297 -20.097 -0.359 -20.094 -0.378 -20.093 -0.486 11.983 0.375 2.026 0.093 43.780 42.363
158.600 -20.036 -0.412 -20.188 -0.258 -20.189 -0.255 -20.191 -0.244 -20.147 -0.270 -20.133 -0.282 -20.119 -0.296 -20.091 -0.358 -20.089 -0.376 -20.088 -0.485 12.006 0.379 2.016 0.093 43.780 42.367
159.000 -20.034 -0.411 -20.184 -0.256 -20.186 -0.253 -20.187 -0.242 -20.141 -0.268 -20.127 -0.280 -20.113 -0.294 -20.086 -0.356 -20.084 -0.375 -20.083 -0.484 12.030 0.382 2.006 0.093 43.779 42.370
159.400 -20.032 -0.410 -20.181 -0.254 -20.183 -0.251 -20.183 -0.240 -20.136 -0.266 -20.121 -0.278 -20.108 -0.293 -20.081 -0.355 -20.079 -0.373 -20.079 -0.483 12.052 0.386 1.997 0.093 43.778 42.374
159.800 -20.030 -0.410 -20.178 -0.252 -20.179 -0.249 -20.179 -0.238 -20.130 -0.264 -20.115 -0.277 -20.102 -0.291 -20.075 -0.353 -20.073 -0.372 -20.074 -0.482 12.075 0.390 1.987 0.093 43.777 42.377
160.200 -20.027 -0.409 -20.174 -0.250 -20.175 -0.247 -20.174 -0.236 -20.124 -0.263 -20.110 -0.275 -20.096 -0.289 -20.070 -0.351 -20.068 -0.370 -20.069 -0.480 12.097 0.395 1.977 0.093 43.776 42.381
160.600 -20.025 -0.409 -20.171 -0.248 -20.172 -0.245 -20.170 -0.234 -20.119 -0.261 -20.104 -0.273 -20.090 -0.287 -20.064 -0.350 -20.063 -0.368 -20.064 -0.479 12.119 0.399 1.968 0.094 43.775 42.385
161.000 -20.023 -0.408 -20.167 -0.246 -20.168 -0.243 -20.166 -0.232 -20.113 -0.259 -20.098 -0.271 -20.084 -0.285 -20.059 -0.348 -20.057 -0.366 -20.060 -0.478 12.140 0.403 1.958 0.094 43.773 42.389
161.400 -20.020 -0.408 -20.163 -0.244 -20.164 -0.241 -20.161 -0.230 -20.107 -0.257 -20.092 -0.269 -20.078 -0.283 -20.053 -0.346 -20.052 -0.365 -20.055 -0.476 12.160 0.408 1.949 0.094 43.772 42.393
161.800 -20.017 -0.408 -20.159 -0.242 -20.160 -0.239 -20.156 -0.228 -20.101 -0.255 -20.086 -0.267 -20.072 -0.281 -20.048 -0.344 -20.047 -0.363 -20.050 -0.475 12.180 0.413 1.940 0.095 43.771 42.397
162.200 -20.015 -0.407 -20.155 -0.241 -20.156 -0.238 -20.152 -0.226 -20.095 -0.253 -20.080 -0.265 -20.066 -0.279 -20.042 -0.342 -20.041 -0.361 -20.045 -0.474 12.200 0.418 1.931 0.095 43.770 42.402
162.600 -20.012 -0.407 -20.151 -0.239 -20.152 -0.236 -20.147 -0.224 -20.089 -0.251 -20.073 -0.263 -20.059 -0.277 -20.036 -0.340 -20.036 -0.359 -20.040 -0.472 12.219 0.423 1.922 0.096 43.768 42.406
163.000 -20.009 -0.407 -20.147 -0.237 -20.148 -0.234 -20.142 -0.222 -20.083 -0.248 -20.067 -0.261 -20.053 -0.275 -20.031 -0.338 -20.031 -0.357 -20.036 -0.471 12.237 0.428 1.913 0.096 43.767 42.410
163.400 -20.006 -0.407 -20.142 -0.236 -20.143 -0.233 -20.137 -0.221 -20.077 -0.246 -20.061 -0.258 -20.047 -0.273 -20.025 -0.336 -20.025 -0.354 -20.031 -0.469 12.255 0.434 1.904 0.097 43.766 42.415
163.800 -20.003 -0.407 -20.138 -0.234 -20.139 -0.231 -20.132 -0.219 -20.070 -0.244 -20.054 -0.256 -20.040 -0.271 -20.020 -0.333 -20.020 -0.352 -20.026 -0.468 12.272 0.440 1.896 0.097 43.764 42.419
164.200 -19.999 -0.407 -20.133 -0.233 -20.134 -0.230 -20.126 -0.217 -20.064 -0.242 -20.048 -0.254 -20.034 -0.268 -20.014 -0.331 -20.014 -0.350 -20.021 -0.466 12.288 0.445 1.888 0.098 43.763 42.424
164.600 -19.996 -0.407 -20.129 -0.231 -20.129 -0.228 -20.121 -0.215 -20.057 -0.240 -20.041 -0.252 -20.028 -0.266 -20.008 -0.329 -20.009 -0.348 -20.016 -0.464 12.303 0.452 1.879 0.098 43.761 42.429
165.000 -19.992 -0.407 -20.124 -0.230 -20.124 -0.227 -20.116 -0.214 -20.051 -0.237 -20.035 -0.249 -20.021 -0.263 -20.003 -0.326 -20.003 -0.345 -20.012 -0.462 12.318 0.458 1.871 0.099 43.759 42.433
165.400 -19.989 -0.407 -20.119 -0.229 -20.120 -0.226 -20.110 -0.212 -20.044 -0.235 -20.028 -0.247 -20.014 -0.261 -19.997 -0.324 -19.998 -0.343 -20.007 -0.461 12.332 0.464 1.863 0.100 43.757 42.438
165.800 -19.985 -0.408 -20.114 -0.228 -20.114 -0.225 -20.105 -0.210 -20.038 -0.233 -20.022 -0.244 -20.008 -0.258 -19.991 -0.321 -19.992 -0.340 -20.002 -0.459 12.344 0.471 1.855 0.100 43.756 42.443
166.200 -19.981 -0.408 -20.109 -0.227 -20.109 -0.224 -20.099 -0.209 -20.031 -0.230 -20.015 -0.242 -20.001 -0.256 -19.985 -0.319 -19.987 -0.338 -19.997 -0.457 12.356 0.477 1.848 0.101 43.754 42.448
166.600 -19.977 -0.408 -20.104 -0.226 -20.104 -0.223 -20.093 -0.208 -20.024 -0.228 -20.008 -0.239 -19.995 -0.253 -19.980 -0.316 -19.981 -0.335 -19.992 -0.455 12.367 0.484 1.840 0.102 43.752 42.453
167.000 -19.974 -0.409 -20.099 -0.226 -20.099 -0.222 -20.087 -0.206 -20.018 -0.226 -20.001 -0.237 -19.988 -0.250 -19.974 -0.313 -19.976 -0.332 -19.988 -0.453 12.376 0.491 1.833 0.103 43.750 42.458
167.400 -19.969 -0.409 -20.093 -0.225 -20.093 -0.222 -20.081 -0.205 -20.011 -0.223 -19.995 -0.234 -19.981 -0.248 -19.968 -0.310 -19.971 -0.330 -19.983 -0.451 12.384 0.498 1.826 0.104 43.747 42.463
167.800 -19.965 -0.410 -20.087 -0.225 -20.087 -0.221 -20.075 -0.204 -20.004 -0.221 -19.988 -0.232 -19.974 -0.245 -19.963 -0.308 -19.965 -0.327 -19.978 -0.449 12.391 0.506 1.820 0.105 43.745 42.468
168.200 -19.961 -0.411 -20.082 -0.225 -20.082 -0.221 -20.069 -0.203 -19.997 -0.218 -19.981 -0.229 -19.968 -0.242 -19.957 -0.305 -19.960 -0.324 -19.973 -0.447 12.397 0.513 1.813 0.105 43.743 42.473
168.600 -19.957 -0.412 -20.076 -0.225 -20.076 -0.221 -20.062 -0.202 -19.990 -0.216 -19.974 -0.226 -19.961 -0.239 -19.951 -0.302 -19.954 -0.321 -19.968 -0.445 12.401 0.521 1.807 0.106 43.741 42.478
169.000 -19.952 -0.412 -20.070 -0.225 -20.070 -0.221 -20.056 -0.202 -19.983 -0.214 -19.967 -0.224 -19.954 -0.237 -19.945 -0.299 -19.949 -0.318 -19.964 -0.443 12.404 0.529 1.801 0.108 43.738 42.483
169.400 -19.947 -0.413 -20.064 -0.225 -20.064 -0.221 -20.050 -0.201 -19.976 -0.211 -19.960 -0.221 -19.947 -0.234 -19.940 -0.296 -19.943 -0.315 -19.959 -0.441 12.406 0.537 1.795 0.109 43.735 42.488
169.800 -19.943 -0.414 -20.058 -0.225 -20.057 -0.221 -20.043 -0.201 -19.969 -0.209 -19.953 -0.218 -19.940 -0.231 -19.934 -0.293 -19.938 -0.312 -19.954 -0.439 12.405 0.545 1.789 0.110 43.733 42.493
170.200 -19.938 -0.415 -20.051 -0.226 -20.051 -0.222 -20.036 -0.200 -19.962 -0.207 -19.946 -0.216 -19.934 -0.228 -19.928 -0.290 -19.932 -0.309 -19.949 -0.437 12.404 0.553 1.784 0.111 43.730 42.498
170.600 -19.933 -0.417 -20.045 -0.226 -20.045 -0.222 -20.030 -0.200 -19.955 -0.204 -19.939 -0.213 -19.927 -0.225 -19.923 -0.286 -19.927 -0.306 -19.944 -0.435 12.400 0.561 1.779 0.112 43.727 42.503
171.000 -19.928 -0.418 -20.039 -0.227 -20.038 -0.223 -20.023 -0.200 -19.948 -0.202 -19.932 -0.210 -19.920 -0.222 -19.917 -0.283 -19.922 -0.303 -19.940 -0.432 12.396 0.570 1.775 0.113 43.724 42.507
171.400 -19.923 -0.419 -20.032 -0.228 -20.032 -0.224 -20.016 -0.200 -19.940 -0.200 -19.924 -0.208 -19.913 -0.219 -19.911 -0.280 -19.916 -0.300 -19.935 -0.430 12.389 0.578 1.770 0.115 43.721 42.512
171.800 -19.918 -0.420 -20.025 -0.229 -20.025 -0.225 -20.009 -0.200 -19.933 -0.198 -19.917 -0.205 -19.906 -0.216 -19.906 -0.277 -19.911 -0.297 -19.930 -0.428 12.381 0.587 1.766 0.116 43.718 42.517
172.200 -19.913 -0.422 -20.019 -0.231 -20.018 -0.226 -20.002 -0.201 -19.926 -0.195 -19.910 -0.203 -19.899 -0.214 -19.900 -0.273 -19.905 -0.293 -19.925 -0.426 12.371 0.596 1.763 0.117 43.715 42.522
172.600 -19.907 -0.423 -20.012 -0.232 -20.011 -0.228 -19.995 -0.201 -19.919 -0.193 -19.903 -0.200 -19.892 -0.211 -19.894 -0.270 -19.900 -0.290 -19.921 -0.424 12.359 0.605 1.759 0.119 43.711 42.526
173.000 -19.902 -0.425 -20.005 -0.234 -20.004 -0.229 -19.988 -0.202 -19.911 -0.191 -19.896 -0.198 -19.885 -0.208 -19.889 -0.267 -19.895 -0.287 -19.916 -0.421 12.345 0.614 1.756 0.120 43.708 42.530
173.400 -19.897 -0.427 -19.998 -0.235 -19.997 -0.231 -19.980 -0.203 -19.904 -0.189 -19.889 -0.195 -19.878 -0.205 -19.883 -0.263 -19.890 -0.283 -19.911 -0.419 12.330 0.623 1.753 0.122 43.704 42.535
173.800 -19.891 -0.428 -19.991 -0.237 -19.990 -0.232 -19.973 -0.204 -19.897 -0.188 -19.882 -0.193 -19.872 -0.202 -19.878 -0.260 -19.884 -0.280 -19.906 -0.417 12.313 0.632 1.751 0.124 43.701 42.539
174.200 -19.885 -0.430 -19.984 -0.239 -19.983 -0.234 -19.966 -0.205 -19.890 -0.186 -19.875 -0.190 -19.865 -0.199 -19.872 -0.257 -19.879 -0.277 -19.902 -0.414 12.293 0.641 1.749 0.125 43.697 42.543
174.600 -19.880 -0.432 -19.977 -0.241 -19.976 -0.236 -19.959 -0.206 -19.882 -0.184 -19.867 -0.188 -19.858 -0.197 -19.867 -0.253 -19.874 -0.273 -19.897 -0.412 12.272 0.650 1.747 0.127 43.693 42.546
175.000 -19.874 -0.434 -19.969 -0.243 -19.969 -0.238 -19.951 -0.207 -19.875 -0.182 -19.860 -0.186 -19.851 -0.194 -19.861 -0.250 -19.869 -0.270 -19.892 -0.410 12.249 0.658 1.746 0.129 43.689 42.550
175.400 -19.868 -0.436 -19.962 -0.245 -19.961 -0.241 -19.944 -0.209 -19.868 -0.181 -19.853 -0.184 -19.844 -0.191 -19.856 -0.246 -19.863 -0.266 -19.888 -0.408 12.224 0.667 1.746 0.131 43.686 42.553
175.800 -19.862 -0.438 -19.955 -0.248 -19.954 -0.243 -19.936 -0.210 -19.861 -0.180 -19.846 -0.182 -19.838 -0.189 -19.851 -0.243 -19.858 -0.263 -19.883 -0.405 12.197 0.676 1.745 0.132 43.681 42.556
176.200 -19.856 -0.440 -19.947 -0.250 -19.947 -0.245 -19.929 -0.212 -19.853 -0.178 -19.839 -0.180 -19.831 -0.186 -19.845 -0.239 -19.853 -0.259 -19.878 -0.403 12.167 0.684 1.745 0.134 43.677 42.559
176.600 -19.850 -0.442 -19.940 -0.253 -19.939 -0.248 -19.921 -0.214 -19.846 -0.177 -19.832 -0.178 -19.824 -0.184 -19.840 -0.236 -19.848 -0.256 -19.873 -0.401 12.136 0.693 1.746 0.136 43.673 42.561
177.000 -19.844 -0.444 -19.932 -0.255 -19.932 -0.250 -19.914 -0.216 -19.839 -0.176 -19.825 -0.176 -19.818 -0.182 -19.835 -0.232 -19.843 -0.252 -19.869 -0.399 12.103 0.701 1.747 0.138 43.669 42.563
177.400 -19.837 -0.447 -19.925 -0.258 -19.924 -0.253 -19.906 -0.218 -19.832 -0.176 -19.818 -0.175 -19.811 -0.179 -19.829 -0.229 -19.838 -0.249 -19.864 -0.396 12.067 0.708 1.748 0.140 43.664 42.565
177.800 -19.831 -0.449 -19.918 -0.261 -19.917 -0.256 -19.899 -0.220 -19.825 -0.175 -19.811 -0.173 -19.805 -0.177 -19.824 -0.225 -19.833 -0.245 -19.859 -0.394 12.030 0.716 1.750 0.142 43.660 42.566
178.200 -19.825 -0.451 -19.910 -0.264 -19.909 -0.259 -19.891 -0.223 -19.818 -0.175 -19.805 -0.172 -19.798 -0.175 -19.819 -0.222 -19.828 -0.242 -19.855 -0.392 11.997 0.723 1.751 0.144 43.656 42.568
178.600 -19.818 -0.454 -19.902 -0.267 -19.901 -0.262 -19.884 -0.225 -19.811 -0.174 -19.798 -0.171 -19.792 -0.174 -19.814 -0.219 -19.823 -0.238 -19.850 -0.390 11.958 0.730 1.754 0.146 43.651 42.569
179.000 -19.812 -0.456 -19.895 -0.270 -19.894 -0.265 -19.876 -0.228 -19.804 -0.174 -19.791 -0.170 -19.785 -0.172 -19.808 -0.215 -19.818 -0.235 -19.845 -0.388 11.916 0.736 1.757 0.148 43.647 42.569
179.400 -19.805 -0.459 -19.887 -0.273 -19.886 -0.268 -19.869 -0.230 -19.797 -0.174 -19.785 -0.169 -19.779 -0.170 -19.803 -0.212 -19.813 -0.232 -19.841 -0.385 11.872 0.741 1.760 0.150 43.642 42.569
179.800 -19.799 -0.462 -19.880 -0.276 -19.879 -0.271 -19.861 -0.233 -19.790 -0.175 -19.778 -0.169 -19.773 -0.169 -19.798 -0.209 -19.808 -0.228 -19.836 -0.383 11.826 0.746 1.765 0.152 43.637 42.568
180.200 -19.792 -0.464 -19.872 -0.280 -19.871 -0.274 -19.854 -0.236 -19.784 -0.175 -19.772 -0.168 -19.767 -0.168 -19.793 -0.206 -19.803 -0.225 -19.831 -0.381 11.778 0.750 1.769 0.154 43.633 42.567
180.600 -19.785 -0.467 -19.864 -0.283 -19.863 -0.278 -19.846 -0.239 -19.777 -0.176 -19.765 -0.168 -19.761 -0.167 -19.788 -0.203 -19.798 -0.222 -19.827 -0.379 11.729 0.754 1.775 0.156 43.628 42.565
181.000 -19.779 -0.470 -19.857 -0.287 -19.856 -0.281 -19.839 -0.242 -19.770 -0.177 -19.759 -0.168 -19.755 -0.166 -19.783 -0.199 -19.794 -0.219 -19.822 -0.377 11.678 0.756 1.780 0.158 43.623 42.563
181.400 -19.772 -0.472 -19.849 -0.290 -19.848 -0.285 -19.831 -0.245 -19.764 -0.178 -19.753 -0.169 -19.749 -0.166 -19.778 -0.196 -19.789 -0.215 -19.817 -0.375 11.626 0.758 1.786 0.160 43.619 42.561
181.800 -19.765 -0.475 -19.841 -0.294 -19.841 -0.288 -19.824 -0.248 -19.757 -0.179 -19.746 -0.169 -19.743 -0.165 -19.774 -0.194 -19.784 -0.212 -19.813 -0.374 11.574 0.759 1.793 0.161 43.614 42.558
182.200 -19.758 -0.478 -19.834 -0.297 -19.833 -0.292 -19.816 -0.251 -19.751 -0.180 -19.740 -0.170 -19.737 -0.165 -19.769 -0.191 -19.779 -0.209 -19.808 -0.372 11.521 0.759 1.800 0.163 43.609 42.554
182.600 -19.751 -0.481 -19.826 -0.301 -19.825 -0.295 -19.809 -0.255 -19.745 -0.182 -19.734 -0.171 -19.731 -0.165 -19.764 -0.188 -19.775 -0.207 -19.804 -0.370 11.467 0.759 1.807 0.165 43.604 42.550
183.000 -19.744 -0.484 -19.819 -0.304 -19.818 -0.299 -19.802 -0.258 -19.738 -0.184 -19.729 -0.172 -19.726 -0.165 -19.759 -0.186 -19.770 -0.204 -19.799 -0.368 11.413 0.758 1.814 0.166 43.600 42.546
183.400 -19.737 -0.487 -19.811 -0.308 -19.810 -0.303 -19.794 -0.262 -19.732 -0.186 -19.723 -0.173 -19.720 -0.166 -19.754 -0.183 -19.765 -0.201 -19.794 -0.367 11.360 0.756 1.821 0.167 43.595 42.541
183.800 -19.730 -0.490 -19.803 -0.312 -19.802 -0.307 -19.787 -0.265 -19.726 -0.188 -19.717 -0.175 -19.715 -0.167 -19.750 -0.181 -19.761 -0.199 -19.790 -0.365 11.307 0.754 1.829 0.168 43.591 42.536
184.200 -19.723 -0.493 -19.796 -0.316 -19.795 -0.310 -19.780 -0.269 -19.720 -0.190 -19.711 -0.177 -19.709 -0.168 -19.745 -0.179 -19.756 -0.196 -19.785 -0.364 11.255 0.751 1.837 0.169 43.586 42.531
184.600 -19.716 -0.496 -19.788 -0.320 -19.787 -0.314 -19.772 -0.273 -19.714 -0.193 -19.706 -0.179 -19.704 -0.169 -19.740 -0.177 -19.752 -0.194 -19.780 -0.362 11.204 0.747 1.844 0.170 43.582 42.525
185.000 -19.709 -0.499 -19.780 -0.324 -19.780 -0.318 -19.765 -0.276 -19.708 -0.196 -19.700 -0.181 -19.699 -0.170 -19.736 -0.175 -19.747 -0.192 -19.776 -0.361 11.154 0.743 1.852 0.171 43.578 42.520
185.400 -19.701 -0.502 -19.773 -0.327 -19.772 -0.322 -19.758 -0.280 -19.703 -0.198 -19.695 -0.183 -19.694 -0.172 -19.731 -0.173 -19.743 -0.190 -19.771 -0.360 11.106 0.739 1.859 0.172 43.573 42.514
185.800 -19.694 -0.505 -19.765 -0.331 -19.765 -0.326 -19.751 -0.284 -19.697 -0.201 -19.689 -0.186 -19.689 -0.173 -19.726 -0.172 -19.738 -0.188 -19.766 -0.358 11.059 0.734 1.866 0.172 43.569 42.508
186.200 -19.687 -0.508 -19.758 -0.335 -19.757 -0.330 -19.744 -0.288 -19.691 -0.204 -19.684 -0.188 -19.683 -0.175 -19.722 -0.171 -19.733 -0.186 -19.762 -0.357 11.014 0.729 1.873 0.173 43.566 42.502
186.600 -19.680 -0.511 -19.750 -0.339 -19.750 -0.334 -19.736 -0.292 -19.686 -0.208 -19.679 -0.191 -19.678 -0.178 -19.717 -0.170 -19.729 -0.185 -19.757 -0.356 10.971 0.724 1.879 0.173 43.562 42.496
187.000 -19.672 -0.514 -19.743 -0.343 -19.742 -0.338 -19.729 -0.296 -19.680 -0.211 -19.674 -0.194 -19.674 -0.180 -19.713 -0.169 -19.724 -0.184 -19.753 -0.356 10.930 0.719 1.885 0.173 43.558 42.490
187.400 -19.665 -0.517 -19.735 -0.347 -19.735 -0.342 -19.722 -0.300 -19.675 -0.214 -19.669 -0.197 -19.669 -0.182 -19.708 -0.169 -19.720 -0.183 -19.748 -0.355 10.891 0.714 1.891 0.173 43.554 42.484
187.800 -19.658 -0.520 -19.728 -0.352 -19.727 -0.346 -19.715 -0.304 -19.669 -0.218 -19.663 -0.200 -19.664 -0.185 -19.704 -0.169 -19.716 -0.182 -19.743 -0.354 10.854 0.709 1.896 0.173 43.551 42.478
188.200 -19.650 -0.524 -19.720 -0.356 -19.720 -0.350 -19.708 -0.308 -19.664 -0.222 -19.658 -0.204 -19.659 -0.188 -19.699 -0.169 -19.711 -0.182 -19.739 -0.353 10.819 0.704 1.901 0.173 43.548 42.472
188.600 -19.643 -0.527 -19.713 -0.360 -19.713 -0.354 -19.701 -0.312 -19.658 -0.225 -19.653 -0.207 -19.654 -0.191 -19.695 -0.169 -19.707 -0.181 -19.734 -0.353 10.787 0.698 1.905 0.173 43.544 42.466
189.000 -19.636 -0.530 -19.706 -0.364 -19.705 -0.359 -19.695 -0.316 -19.653 -0.229 -19.648 -0.211 -19.649 -0.194 -19.690 -0.169 -19.702 -0.181 -19.729 -0.353 10.756 0.693 1.909 0.173 43.541 42.461
189.400 -19.628 -0.533 -19.698 -0.368 -19.698 -0.363 -19.688 -0.321 -19.648 -0.233 -19.643 -0.214 -19.645 -0.197 -19.686 -0.170 -19.698 -0.182 -19.725 -0.352 10.728 0.688 1.912 0.173 43.538 42.455
189.800 -19.621 -0.537 -19.691 -0.372 -19.691 -0.367 -19.681 -0.325 -19.642 -0.237 -19.639 -0.218 -19.640 -0.201 -19.681 -0.171 -19.693 -0.182 -19.720 -0.352 10.702 0.684 1.915 0.172 43.535 42.449
190.200 -19.613 -0.540 -19.684 -0.376 -19.683 -0.371 -19.674 -0.329 -19.637 -0.241 -19.634 -0.222 -19.635 -0.204 -19.677 -0.173 -19.689 -0.183 -19.715 -0.352 10.678 0.679 1.917 0.172 43.532 42.444
190.600 -19.606 -0.543 -19.676 -0.381 -19.676 -0.375 -19.667 -0.333 -19.632 -0.245 -19.629 -0.226 -19.631 -0.208 -19.672 -0.174 -19.684 -0.184 -19.711 -0.352 10.655 0.674 1.919 0.171 43.529 42.438
191.000 -19.598 -0.546 -19.669 -0.385 -19.669 -0.379 -19.661 -0.338 -19.627 -0.249 -19.624 -0.230 -19.626 -0.211 -19.668 -0.176 -19.680 -0.185 -19.706 -0.352 10.634 0.670 1.921 0.171 43.527 42.433
191.400 -19.591 -0.550 -19.662 -0.389 -19.662 -0.384 -19.654 -0.342 -19.622 -0.254 -19.619 -0.234 -19.622 -0.215 -19.663 -0.178 -19.675 -0.187 -19.701 -0.352 10.615 0.666 1.922 0.171 43.524 42.427
191.800 -19.583 -0.553 -19.655 -0.393 -19.655 -0.388 -19.647 -0.346 -19.617 -0.258 -19.615 -0.238 -19.617 -0.219 -19.659 -0.180 -19.671 -0.189 -19.697 -0.353 10.597 0.661 1.922 0.170 43.521 42.422
192.200 -19.576 -0.556 -19.648 -0.397 -19.647 -0.392 -19.641 -0.351 -19.612 -0.262 -19.610 -0.242 -19.613 -0.223 -19.654 -0.183 -19.666 -0.191 -19.692 -0.353 10.578 0.657 1.923 0.170 43.519 42.416
192.600 -19.568 -0.559 -19.640 -0.401 -19.640 -0.396 -19.634 -0.355 -19.607 -0.267 -19.605 -0.247 -19.608 -0.227 -19.650 -0.186 -19.662 -0.193 -19.687 -0.354 10.563 0.653 1.923 0.169 43.516 42.411
193.000 -19.561 -0.563 -19.633 -0.406 -19.633 -0.400 -19.628 -0.359 -19.602 -0.271 -19.601 -0.251 -19.604 -0.231 -19.646 -0.189 -19.657 -0.196 -19.682 -0.355 10.549 0.649 1.923 0.169 43.514 42.406
193.400 -19.553 -0.566 -19.626 -0.410 -19.626 -0.405 -19.621 -0.364 -19.597 -0.275 -19.596 -0.255 -19.599 -0.235 -19.641 -0.192 -19.653 -0.198 -19.678 -0.355 10.536 0.646 1.922 0.168 43.511 42.401
193.800 -19.546 -0.569 -19.619 -0.414 -19.619 -0.409 -19.615 -0.368 -19.592 -0.280 -19.591 -0.260 -19.595 -0.240 -19.637 -0.195 -19.648 -0.201 -19.673 -0.356 10.524 0.642 1.921 0.167 43.509 42.396
194.200 -19.538 -0.572 -19.612 -0.418 -19.612 -0.413 -19.608 -0.372 -19.587 -0.284 -19.587 -0.264 -19.591 -0.244 -19.632 -0.199 -19.644 -0.204 -19.668 -0.357 10.513 0.639 1.920 0.167 43.506 42.391
194.600 -19.531 -0.576 -19.605 -0.422 -19.605 -0.417 -19.602 -0.377 -19.583 -0.289 -19.582 -0.269 -19.586 -0.248 -19.628 -0.202 -19.639 -0.208 -19.664 -0.359 10.502 0.635 1.919 0.166 43.504 42.386
195.000 -19.523 -0.579 -19.598 -0.427 -19.598 -0.421 -19.596 -0.381 -19.578 -0.293 -19.578 -0.273 -19.582 -0.253 -19.623 -0.206 -19.635 -0.211 -19.659 -0.360 10.492 0.632 1.918 0.166 43.502 42.381
195.400 -19.516 -0.582 -19.591 -0.431 -19.592 -0.426 -19.589 -0.385 -19.573 -0.298 -19.573 -0.278 -19.578 -0.257 -19.619 -0.210 -19.630 -0.215 -19.654 -0.361 10.482 0.629 1.916 0.165 43.500 42.376
195.800 -19.508 -0.585 -19.584 -0.435 -19.585 -0.430 -19.583 -0.390 -19.568 -0.303 -19.569 -0.282 -19.573 -0.262 -19.615 -0.214 -19.626 -0.218 -19.649 -0.363 10.473 0.626 1.915 0.165 43.497 42.371
196.200 -19.501 -0.589 -19.578 -0.439 -19.578 -0.434 -19.577 -0.394 -19.564 -0.307 -19.564 -0.287 -19.569 -0.266 -19.610 -0.218 -19.621 -0.222 -19.645 -0.364 10.465 0.622 1.913 0.164 43.495 42.366
196.600 -19.493 -0.592 -19.571 -0.443 -19.571 -0.438 -19.571 -0.398 -19.559 -0.312 -19.560 -0.291 -19.565 -0.271 -19.606 -0.223 -19.617 -0.226 -19.640 -0.366 10.456 0.619 1.911 0.163 43.493 42.361
197.000 -19.486 -0.595 -19.564 -0.447 -19.564 -0.442 -19.564 -0.403 -19.554 -0.316 -19.556 -0.296 -19.561 -0.275 -19.601 -0.227 -19.612 -0.230 -19.635 -0.368 10.448 0.616 1.909 0.163 43.491 42.356
197.400 -19.478 -0.598 -19.557 -0.451 -19.558 -0.446 -19.558 -0.407 -19.549 -0.321 -19.551 -0.301 -19.556 -0.280 -19.597 -0.231 -19.608 -0.235 -19.630 -0.370 10.440 0.613 1.907 0.162 43.488 42.351
197.800 -19.471 -0.601 -19.550 -0.455 -19.551 -0.451 -19.552 -0.411 -19.545 -0.326 -19.547 -0.305 -19.552 -0.285 -19.593 -0.236 -19.603 -0.239 -19.625 -0.372 10.433 0.610 1.905 0.162 43.486 42.346
198.200 -19.463 -0.604 -19.544 -0.460 -19.544 -0.455 -19.546 -0.416 -19.540 -0.330 -19.542 -0.310 -19.548 -0.289 -19.588 -0.241 -19.599 -0.243 -19.621 -0.374 10.426 0.607 1.903 0.161 43.484 42.341
198.600 -19.456 -0.608 -19.537 -0.464 -19.538 -0.459 -19.540 -0.420 -19.536 -0.335 -19.538 -0.315 -19.544 -0.294 -19.584 -0.245 -19.594 -0.248 -19.616 -0.376 10.419 0.604 1.901 0.160 43.482 42.336
199.000 -19.448 -0.611 -19.530 -0.468 -19.531 -0.463 -19.534 -0.424 -19.531 -0.339 -19.534 -0.319 -19.540 -0.299 -19.579 -0.250 -19.590 -0.252 -19.611 -0.378 10.412 0.601 1.898 0.160 43.480 42.331
199.400 -19.441 -0.614 -19.524 -0.472 -19.525 -0.467 -19.528 -0.428 -19.526 -0.344 -19.529 -0.324 -19.535 -0.304 -19.575 -0.255 -19.585 -0.257 -19.606 -0.380 10.405 0.598 1.896 0.159 43.478 42.326
199.800 -19.433 -0.617 -19.517 -0.476 -19.518 -0.471 -19.522 -0.433 -19.522 -0.349 -19.525 -0.329 -19.531 -0.308 -19.571 -0.260 -19.581 -0.261 -19.601 -0.383 10.398 0.595 1.894 0.159 43.475 42.321
200.200 -19.426 -0.620 -19.510 -0.480 -19.511 -0.475 -19.516 -0.437 -19.517 -0.353 -19.521 -0.333 -19.527 -0.313 -19.566 -0.264 -19.576 -0.266 -19.597 -0.385 10.392 0.592 1.892 0.158 43.473 42.316
200.600 -19.418 -0.623 -19.504 -0.484 -19.505 -0.479 -19.510 -0.441 -19.513 -0.358 -19.516 -0.338 -19.523 -0.318 -19.562 -0.269 -19.572 -0.271 -19.592 -0.388 10.386 0.589 1.889 0.157 43.471 42.311
201.000 -19.411 -0.626 -19.497 -0.488 -19.498 -0.483 -19.504 -0.445 -19.508 -0.362 -19.512 -0.343 -19.519 -0.323 -19.558 -0.274 -19.567 -0.276 -19.587 -0.390 10.379 0.587 1.887 0.157 43.469 42.306
201.400 -19.403 -0.629 -19.491 -0.492 -19.492 -0.487 -19.498 -0.449 -19.504 -0.367 -19.508 -0.347 -19.514 -0.327 -19.553 -0.279 -19.563 -0.281 -19.582 -0.393 10.373 0.584 1.884 0.156 43.467 42.301
201.800 -19.396 -0.632 -19.484 -0.496 -19.486 -0.491 -19.492 -0.454 -19.499 -0.372 -19.503 -0.352 -19.510 -0.332 -19.549 -0.284 -19.558 -0.285 -19.577 -0.396 10.367 0.581 1.882 0.155 43.465 42.296
202.200 -19.388 -0.635 -19.478 -0.499 -19.479 -0.495 -19.487 -0.458 -19.495 -0.376 -19.499 -0.357 -19.506 -0.337 -19.545 -0.289 -19.554 -0.290 -19.573 -0.398 10.361 0.578 1.880 0.155 43.463 42.291
202.600 -19.381 -0.638 -19.471 -0.503 -19.473 -0.499 -19.481 -0.462 -19.490 -0.381 -19.495 -0.361 -19.502 -0.342 -19.540 -0.294 -19.549 -0.295 -19.568 -0.401 10.355 0.575 1.877 0.154 43.460 42.286
203.000 -19.373 -0.641 -19.465 -0.507 -19.467 -0.503 -19.475 -0.466 -19.486 -0.385 -19.491 -0.366 -19.498 -0.346 -19.536 -0.299 -19.545 -0.300 -19.563 -0.404 10.350 0.572 1.875 0.154 43.458 42.281
203.400 -19.366 -0.644 -19.459 -0.511 -19.460 -0.506 -19.469 -0.470 -19.481 -0.390 -19.486 -0.371 -19.494 -0.351 -19.532 -0.304 -19.541 -0.305 -19.558 -0.407 10.344 0.570 1.872 0.153 43.456 42.276
203.800 -19.359 -0.647 -19.452 -0.515 -19.454 -0.510 -19.464 -0.474 -19.477 -0.394 -19.482 -0.375 -19.490 -0.356 -19.527 -0.309 -19.536 -0.310 -19.553 -0.410 10.338 0.567 1.870 0.152 43.454 42.271
204.200 -19.351 -0.650 -19.446 -0.519 -19.448 -0.514 -19.458 -0.478 -19.472 -0.399 -19.478 -0.380 -19.486 -0.361 -19.523 -0.314 -19.532 -0.315 -19.549 -0.413 10.333 0.564 1.867 0.152 43.452 42.266
204.600 -19.344 -0.653 -19.440 -0.522 -19.442 -0.518 -19.452 -0.482 -19.468 -0.403 -19.474 -0.384 -19.481 -0.365 -19.519 -0.320 -19.527 -0.320 -19.544 -0.416 10.327 0.561 1.865 0.151 43.450 42.261
205.000 -19.336 -0.656 -19.434 -0.526 -19.435 -0.522 -19.447 -0.486 -19.464 -0.408 -19.469 -0.389 -19.477 -0.370 -19.514 -0.325 -19.523 -0.325 -19.539 -0.419 10.322 0.558 1.862 0.150 43.448 42.256
205.400 -19.329 -0.658 -19.427 -0.530 -19.429 -0.525 -19.441 -0.490 -19.459 -0.412 -19.465 -0.393 -19.473 -0.375 -19.510 -0.330 -19.518 -0.330 -19.534 -0.422 10.316 0.556 1.860 0.150 43.446 42.251
205.800 -19.322 -0.661 -19.421 -0.533 -19.423 -0.529 -19.435 -0.494 -19.455 -0.416 -19.461 -0.398 -19.469 -0.379 -19.506 -0.335 -19.514 -0.335 -19.529 -0.426 10.311 0.553 1.857 0.149 43.444 42.247
206.200 -19.314 -0.664 -19.415 -0.537 -19.417 -0.533 -19.430 -0.498 -19.450 -0.421 -19.457 -0.402 -19.465 -0.384 -19.501 -0.340 -19.510 -0.340 -19.524 -0.429 10.305 0.550 1.855 0.148 43.442 42.242
206.600 -19.307 -0.667 -19.409 -0.541 -19.411 -0.536 -19.424 -0.502 -19.446 -0.425 -19.453 -0.407 -19.461 -0.388 -19.497 -0.345 -19.505 -0.345 -19.520 -0.432 10.300 0.547 1.852 0.148 43.439 42.237
207.000 -19.300 -0.669 -19.403 -0.544 -19.405 -0.540 -19.419 -0.506 -19.442 -0.430 -19.449 -0.411 -19.457 -0.393 -19.493 -0.350 -19.501 -0.349 -19.515 -0.435 10.295 0.545 1.850 0.147 43.437 42.232
207.400 -19.292 -0.672 -19.396 -0.548 -19.399 -0.544 -19.413 -0.509 -19.437 -0.434 -19.444 -0.416 -19.453 -0.398 -19.489 -0.355 -19.496 -0.354 -19.510 -0.439 10.289 0.542 1.847 0.147 43.435 42.227
207.800 -19.285 -0.675 -19.390 -0.551 -19.393 -0.547 -19.408 -0.513 -19.433 -0.438 -19.440 -0.420 -19.449 -0.402 -19.484 -0.360 -19.492 -0.359 -19.505 -0.442 10.284 0.539 1.844 0.146 43.433 42.222
208.200 -19.278 -0.677 -19.384 -0.555 -19.387 -0.551 -19.402 -0.517 -19.429 -0.442 -19.436 -0.425 -19.445 -0.407 -19.480 -0.364 -19.488 -0.364 -19.500 -0.445 10.279 0.537 1.842 0.145 43.431 42.217
208.600 -19.271 -0.680 -19.378 -0.558 -19.381 -0.554 -19.397 -0.521 -19.424 -0.447 -19.432 -0.429 -19.441 -0.411 -19.476 -0.369 -19.483 -0.369 -19.495 -0.449 10.274 0.534 1.839 0.145 43.429 42.212
209.000 -19.263 -0.683 -19.372 -0.562 -19.375 -0.558 -19.391 -0.524 -19.420 -0.451 -19.428 -0.433 -19.437 -0.416 -19.472 -0.374 -19.479 -0.374 -19.491 -0.452 10.268 0.531 1.837 0.144 43.427 42.208
209.400 -19.256 -0.685 -19.366 -0.565 -19.369 -0.561 -19.386 -0.528 -19.416 -0.455 -19.424 -0.438 -19.433 -0.420 -19.467 -0.379 -19.475 -0.379 -19.486 -0.455 10.263 0.529 1.834 0.143 43.425 42.203
209.800 -19.249 -0.688 -19.360 -0.568 -19.363 -0.564 -19.381 -0.531 -19.411 -0.459 -19.419 -0.442 -19.428 -0.425 -19.463 -0.384 -19.470 -0.383 -19.481 -0.459 10.258 0.526 1.832 0.143 43.423 42.198
210.200 -19.242 -0.690 -19.354 -0.572 -19.357 -0.568 -19.375 -0.535 -19.407 -0.463 -19.415 -0.446 -19.424 -0.429 -19.459 -0.389 -19.466 -0.388 -19.476 -0.462 10.253 0.524 1.829 0.142 43.421 42.193
210.600 -19.235 -0.693 -19.348 -0.575 -19.351 -0.571 -19.370 -0.539 -19.403 -0.467 -19.411 -0.450 -19.420 -0.433 -19.455 -0.393 -19.462 -0.393 -19.471 -0.466 10.248 0.521 1.827 0.141 43.419 42.188
211.000 -19.227 -0.695 -19.342 -0.578 -19.345 -0.574 -19.365 -0.542 -19.399 -0.471 -19.407 -0.454 -19.416 -0.438 -19.450 -0.398 -19.457 -0.398 -19.467 -0.469 10.243 0.518 1.824 0.141 43.417 42.183
211.400 -19.220 -0.697 -19.336 -0.582 -19.339 -0.578 -19.359 -0.546 -19.394 -0.475 -19.403 -0.459 -19.412 -0.442 -19.446 -0.403 -19.453 -0.402 -19.462 -0.472 10.237 0.516 1.822 0.140 43.415 42.179
211.800 -19.213 -0.700 -19.331 -0.585 -19.333 -0.581 -19.354 -0.549 -19.390 -0.479 -19.399 -0.463 -19.408 -0.446 -19.442 -0.407 -19.449 -0.407 -19.457 -0.476 10.232 0.513 1.819 0.140 43.413 42.174
212.200 -19.206 -0.702 -19.325 -0.588 -19.328 -0.584 -19.349 -0.552 -19.386 -0.483 -19.395 -0.467 -19.404 -0.450 -19.438 -0.412 -19.444 -0.411 -19.452 -0.479 10.227 0.511 1.817 0.139 43.410 42.169
212.600 -19.199 -0.704 -19.319 -0.591 -19.322 -0.587 -19.343 -0.556 -19.382 -0.487 -19.391 -0.471 -19.400 -0.455 -19.434 -0.417 -19.440 -0.416 -19.447 -0.482 10.222 0.508 1.814 0.138 43.408 42.164
213.000 -19.192 -0.707 -19.313 -0.594 -19.316 -0.590 -19.338 -0.559 -19.377 -0.491 -19.386 -0.475 -19.396 -0.459 -19.429 -0.421 -19.436 -0.421 -19.443 -0.486 10.217 0.506 1.812 0.138 43.406 42.159
213.400 -19.184 -0.709 -19.307 -0.597 -19.310 -0.593 -19.333 -0.562 -19.373 -0.495 -19.382 -0.479 -19.392 -0.463 -19.425 -0.426 -19.431 -0.425 -19.438 -0.489 10.212 0.503 1.809 0.137 43.404 42.155
213.800 -19.177 -0.711 -19.301 -0.600 -19.305 -0.596 -19.328 -0.566 -19.369 -0.499 -19.378 -0.483 -19.388 -0.467 -19.421 -0.430 -19.427 -0.429 -19.433 -0.493 10.207 0.501 1.807 0.136 43.402 42.150
214.200 -19.170 -0.713 -19.296 -0.603 -19.299 -0.599 -19.323 -0.569 -19.365 -0.502 -19.374 -0.487 -19.384 -0.471 -19.417 -0.435 -19.423 -0.434 -19.428 -0.496 10.202 0.498 1.804 0.136 43.400 42.145
214.600 -19.163 -0.715 -19.290 -0.606 -19.293 -0.602 -19.317 -0.572 -19.360 -0.506 -19.370 -0.490 -19.380 -0.475 -19.413 -0.439 -19.419 -0.438 -19.423 -0.499 10.197 0.496 1.802 0.135 43.398 42.140
215.000 -19.156 -0.717 -19.284 -0.609 -19.288 -0.605 -19.312 -0.575 -19.356 -0.510 -19.366 -0.494 -19.376 -0.479 -19.409 -0.443 -19.414 -0.443 -19.419 -0.503 10.192 0.493 1.800 0.135 43.396 42.136
215.400 -19.149 -0.719 -19.279 -0.612 -19.282 -0.608 -19.307 -0.578 -19.352 -0.513 -19.362 -0.498 -19.372 -0.483 -19.405 -0.448 -19.410 -0.447 -19.414 -0.506 10.187 0.491 1.797 0.134 43.394 42.131
215.800 -19.142 -0.721 -19.273 -0.614 -19.276 -0.611 -19.302 -0.581 -19.348 -0.517 -19.358 -0.502 -19.368 -0.487 -19.400 -0.452 -19.406 -0.451 -19.409 -0.509 10.182 0.489 1.795 0.133 43.392 42.126
216.200 -19.135 -0.723 -19.267 -0.617 -19.271 -0.614 -19.297 -0.584 -19.344 -0.520 -19.354 -0.505 -19.364 -0.491 -19.396 -0.456 -19.402 -0.455 -19.404 -0.512 10.176 0.486 1.792 0.133 43.390 42.122
216.600 -19.128 -0.725 -19.262 -0.620 -19.265 -0.616 -19.292 -0.587 -19.340 -0.524 -19.350 -0.509 -19.361 -0.494 -19.392 -0.460 -19.397 -0.460 -19.399 -0.516 10.171 0.484 1.790 0.132 43.388 42.117
217.000 -19.121 -0.727 -19.256 -0.623 -19.260 -0.619 -19.287 -0.590 -19.335 -0.527 -19.346 -0.513 -19.357 -0.498 -19.388 -0.465 -19.393 -0.464 -19.395 -0.519 10.166 0.481 1.788 0.132 43.386 42.112
217.400 -19.114 -0.729 -19.250 -0.625 -19.254 -0.622 -19.282 -0.593 -19.331 -0.531 -19.342 -0.516 -19.353 -0.502 -19.384 -0.469 -19.389 -0.468 -19.390 -0.522 10.161 0.479 1.785 0.131 43.384 42.108
217.800 -19.107 -0.731 -19.245 -0.628 -19.249 -0.624 -19.277 -0.596 -19.327 -0.534 -19.338 -0.520 -19.349 -0.506 -19.380 -0.473 -19.385 -0.472 -19.385 -0.525 10.156 0.477 1.783 0.130 43.382 42.103
218.200 -19.100 -0.733 -19.239 -0.630 -19.243 -0.627 -19.272 -0.599 -19.323 -0.538 -19.334 -0.523 -19.345 -0.509 -19.376 -0.477 -19.380 -0.476 -19.380 -0.528 10.151 0.474 1.780 0.130 43.380 42.098
218.600 -19.093 -0.734 -19.234 -0.633 -19.238 -0.629 -19.267 -0.602 -19.319 -0.541 -19.330 -0.527 -19.341 -0.513 -19.372 -0.481 -19.376 -0.480 -19.376 -0.532 10.146 0.472 1.778 0.129 43.378 42.094
219.000 -19.086 -0.736 -19.228 -0.635 -19.232 -0.632 -19.262 -0.604 -19.315 -0.544 -19.326 -0.530 -19.337 -0.516 -19.367 -0.485 -19.372 -0.484 -19.371 -0.535 10.141 0.470 1.776 0.129 43.376 42.089
219.400 -19.080 -0.738 -19.223 -0.638 -19.227 -0.634 -19.257 -0.607 -19.311 -0.547 -19.322 -0.533 -19.333 -0.520 -19.363 -0.489 -19.368 -0.488 -19.366 -0.538 10.136 0.467 1.773 0.128 43.374 42.084
219.800 -19.073 -0.739 -19.217 -0.640 -19.221 -0.637 -19.252 -0.610 -19.307 -0.550 -19.318 -0.537 -19.329 -0.523 -19.359 -0.492 -19.364 -0.491 -19.361 -0.541 10.131 0.465 1.771 0.127 43.372 42.080
220.200 -19.066 -0.741 -19.212 -0.643 -19.216 -0.639 -19.247 -0.612 -19.303 -0.554 -19.314 -0.540 -19.325 -0.527 -19.355 -0.496 -19.359 -0.495 -19.357 -0.544 10.126 0.463 1.769 0.127 43.370 42.075
220.600 -19.059 -0.743 -19.206 -0.645 -19.210 -0.641 -19.242 -0.615 -19.298 -0.557 -19.310 -0.543 -19.321 -0.530 -19.351 -0.500 -19.355 -0.499 -19.352 -0.547 10.121 0.460 1.767 0.126 43.368 42.070
221.000 -19.052 -0.744 -19.201 -0.647 -19.205 -0.644 -19.237 -0.617 -19.294 -0.560 -19.306 -0.546 -19.317 -0.533 -19.347 -0.503 -19.351 -0.503 -19.347 -0.550 10.115 0.458 1.764 0.126 43.366 42.066
221.400 -19.045 -0.746 -19.195 -0.649 -19.200 -0.646 -19.232 -0.620 -19.290 -0.563 -19.302 -0.550 -19.314 -0.537 -19.343 -0.507 -19.347 -0.506 -19.342 -0.553 10.110 0.456 1.762 0.125 43.364 42.061
221.800 -19.038 -0.747 -19.190 -0.651 -19.194 -0.648 -19.227 -0.622 -19.286 -0.566 -19.298 -0.553 -19.310 -0.540 -19.339 -0.511 -19.343 -0.510 -19.338 -0.556 10.105 0.453 1.760 0.124 43.362 42.056
222.200 -19.032 -0.748 -19.184 -0.654 -19.189 -0.650 -19.222 -0.624 -19.282 -0.569 -19.294 -0.556 -19.306 -0.543 -19.335 -0.514 -19.339 -0.513 -19.333 -0.558 10.100 0.451 1.757 0.124 43.360 42.052
222.600 -19.025 -0.750 -19.179 -0.656 -19.184 -0.652 -19.217 -0.627 -19.278 -0.571 -19.290 -0.559 -19.302 -0.546 -19.331 -0.518 -19.335 -0.517 -19.328 -0.561 10.095 0.449 1.755 0.123 43.358 42.047
223.000 -19.018 -0.751 -19.174 -0.658 -19.178 -0.654 -19.213 -0.629 -19.274 -0.574 -19.287 -0.562 -19.298 -0.549 -19.327 -0.521 -19.330 -0.520 -19.323 -0.564 10.090 0.447 1.753 0.123 43.356 42.043
223.400 -19.011 -0.752 -19.168 -0.660 -19.173 -0.656 -19.208 -0.631 -19.270 -0.577 -19.283 -0.564 -19.294 -0.552 -19.323 -0.524 -19.326 -0.524 -19.319 -0.567 10.085 0.444 1.751 0.122 43.354 42.038
223.800 -19.005 -0.753 -19.163 -0.662 -19.168 -0.658 -19.203 -0.633 -19.266 -0.580 -19.279 -0.567 -19.291 -0.555 -19.319 -0.528 -19.322 -0.527 -19.314 -0.569 10.080 0.442 1.749 0.121 43.352 42.033
224.200 -18.998 -0.755 -19.158 -0.663 -19.163 -0.660 -19.198 -0.636 -19.262 -0.582 -19.275 -0.570 -19.287 -0.558 -19.315 -0.531 -19.318 -0.530 -19.309 -0.572 10.075 0.440 1.746 0.121 43.350 42.029
224.600 -18.991 -0.756 -19.153 -0.665 -19.157 -0.662 -19.193 -0.638 -19.258 -0.585 -19.271 -0.573 -19.283 -0.561 -19.311 -0.534 -19.314 -0.533 -19.304 -0.575 10.070 0.438 1.744 0.120 43.348 42.024
225.000 -18.984 -0.757 -19.147 -0.667 -19.152 -0.664 -19.189 -0.640 -19.254 -0.587 -19.267 -0.575 -19.279 -0.564 -19.307 -0.537 -19.310 -0.536 -19.300 -0.577 10.065 0.435 1.742 0.120 43.346 42.020
225.400 -18.978 -0.758 -19.142 -0.669 -19.147 -0.666 -19.184 -0.642 -19.250 -0.590 -19.263 -0.578 -19.275 -0.567 -19.303 -0.540 -19.306 -0.540 -19.295 -0.580 10.060 0.433 1.740 0.119 43.344 42.015
225.800 -18.971 -0.759 -19.137 -0.670 -19.142 -0.668 -19.179 -0.644 -19.246 -0.592 -19.259 -0.581 -19.272 -0.569 -19.299 -0.543 -19.302 -0.543 -19.290 -0.582 10.054 0.431 1.738 0.118 43.342 42.010
226.200 -18.964 -0.760 -19.132 -0.672 -19.137 -0.669 -19.175 -0.646 -19.243 -0.595 -19.256 -0.583 -19.268 -0.572 -19.295 -0.546 -19.298 -0.546 -19.286 -0.585 10.049 0.429 1.736 0.118 43.340 42.006
226.600 -18.958 -0.761 -19.126 -0.674 -19.131 -0.671 -19.170 -0.647 -19.239 -0.597 -19.252 -0.586 -19.264 -0.575 -19.291 -0.549 -19.293 -0.549 -19.281 -0.587 10.044 0.426 1.733 0.117 43.338 42.001
227.000 -18.951 -0.762 -19.121 -0.675 -19.126 -0.672 -19.165 -0.649 -19.235 -0.599 -19.248 -0.588 -19.260 -0.577 -19.287 -0.552 -19.289 -0.551 -19.276 -0.589 10.039 0.424 1.731 0.117 43.336 41.997
227.400 -18.944 -0.762 -19.116 -0.677 -19.121 -0.674 -19.160 -0.651 -19.231 -0.602 -19.244 -0.590 -19.256 -0.580 -19.283 -0.555 -19.285 -0.554 -19.272 -0.592 10.034 0.422 1.729 0.116 43.334 41.992
227.800 -18.938 -0.763 -19.111 -0.678 -19.116 -0.675 -19.156 -0.653 -19.227 -0.604 -19.240 -0.593 -19.253 -0.582 -19.279 -0.558 -19.281 -0.557 -19.267 -0.594 10.029 0.420 1.727 0.116 43.333 41.987
228.200 -18.931 -0.764 -19.106 -0.680 -19.111 -0.677 -19.151 -0.654 -19.223 -0.606 -19.237 -0.595 -19.249 -0.584 -19.275 -0.560 -19.277 -0.560 -19.262 -0.596 10.024 0.417 1.725 0.115 43.331 41.983
228.600 -18.925 -0.765 -19.101 -0.681 -19.106 -0.678 -19.147 -0.656 -19.219 -0.608 -19.233 -0.597 -19.245 -0.587 -19.271 -0.563 -19.273 -0.562 -19.258 -0.598 10.019 0.415 1.723 0.114 43.329 41.978
229.000 -18.918 -0.765 -19.096 -0.682 -19.101 -0.680 -19.142 -0.657 -19.215 -0.610 -19.229 -0.599 -19.242 -0.589 -19.267 -0.566 -19.269 -0.565 -19.253 -0.601 10.014 0.413 1.721 0.114 43.327 41.974
229.400 -18.912 -0.766 -19.090 -0.684 -19.096 -0.681 -19.137 -0.659 -19.212 -0.612 -19.225 -0.601 -19.238 -0.591 -19.263 -0.568 -19.265 -0.567 -19.248 -0.603 10.009 0.411 1.719 0.113 43.325 41.969
229.800 -18.905 -0.766 -19.085 -0.685 -19.091 -0.682 -19.133 -0.660 -19.208 -0.614 -19.222 -0.604 -19.234 -0.593 -19.260 -0.571 -19.261 -0.570 -19.244 -0.605 10.004 0.409 1.717 0.113 43.323 41.964
230.200 -18.898 -0.767 -19.080 -0.686 -19.086 -0.683 -19.128 -0.662 -19.204 -0.616 -19.218 -0.606 -19.231 -0.596 -19.256 -0.573 -19.257 -0.572 -19.239 -0.607 9.999 0.406 1.715 0.112 43.321 41.960
230.600 -18.892 -0.767 -19.075 -0.687 -19.081 -0.684 -19.124 -0.663 -19.200 -0.618 -19.214 -0.607 -19.227 -0.598 -19.252 -0.575 -19.253 -0.575 -19.234 -0.609 9.994 0.404 1.713 0.111 43.319 41.955
231.000 -18.885 -0.768 -19.070 -0.688 -19.076 -0.685 -19.119 -0.664 -19.196 -0.619 -19.211 -0.609 -19.223 -0.600 -19.248 -0.578 -19.249 -0.577 -19.230 -0.610 9.989 0.402 1.711 0.111 43.317 41.951
231.400 -18.879 -0.768 -19.065 -0.689 -19.071 -0.686 -19.115 -0.665 -19.193 -0.621 -19.207 -0.611 -19.220 -0.602 -19.244 -0.580 -19.245 -0.579 -19.225 -0.612 9.984 0.400 1.709 0.110 43.315 41.946
231.800 -18.872 -0.768 -19.060 -0.690 -19.066 -0.687 -19.110 -0.667 -19.189 -0.623 -19.203 -0.613 -19.216 -0.603 -19.240 -0.582 -19.241 -0.581 -19.220 -0.614 9.979 0.397 1.707 0.110 43.313 41.941
232.200 -18.866 -0.769 -19.055 -0.691 -19.061 -0.688 -19.106 -0.668 -19.185 -0.624 -19.200 -0.615 -19.212 -0.605 -19.236 -0.584 -19.237 -0.584 -19.216 -0.616 9.974 0.395 1.705 0.109 43.312 41.937
232.600 -18.859 -0.769 -19.050 -0.692 -19.056 -0.689 -19.101 -0.669 -19.181 -0.626 -19.196 -0.616 -19.209 -0.607 -19.232 -0.586 -19.233 -0.586 -19.211 -0.618 9.969 0.393 1.703 0.109 43.310 41.932
233.000 -18.853 -0.769 -19.046 -0.693 -19.052 -0.690 -19.097 -0.670 -19.178 -0.627 -19.192 -0.618 -19.205 -0.609 -19.229 -0.588 -19.229 -0.588 -19.206 -0.619 9.964 0.391 1.701 0.108 43.308 41.928
233.400 -18.847 -0.769 -19.041 -0.693 -19.047 -0.691 -19.093 -0.671 -19.174 -0.629 -19.189 -0.619 -19.202 -0.610 -19.225 -0.590 -19.225 -0.590 -19.202 -0.621 9.959 0.389 1.699 0.107 43.306 41.923
233.800 -18.840 -0.769 -19.036 -0.694 -19.042 -0.691 -19.088 -0.672 -19.170 -0.630 -19.185 -0.621 -19.198 -0.612 -19.221 -0.592 -19.221 -0.591 -19.197 -0.622 9.954 0.386 1.697 0.107 43.304 41.918
234.200 -18.834 -0.769 -19.031 -0.695 -19.037 -0.692 -19.084 -0.673 -19.167 -0.632 -19.181 -0.622 -19.194 -0.614 -19.217 -0.594 -19.217 -0.593 -19.192 -0.624 9.949 0.384 1.695 0.106 43.302 41.914
234.600 -18.827 -0.769 -19.026 -0.695 -19.032 -0.693 -19.079 -0.673 -19.163 -0.633 -19.178 -0.624 -19.191 -0.615 -19.213 -0.596 -19.213 -0.595 -19.188 -0.625 9.944 0.382 1.693 0.106 43.300 41.909
235.000 -18.821 -0.769 -19.021 -0.696 -19.027 -0.693 -19.075 -0.674 -19.159 -0.634 -19.174 -0.625 -19.187 -0.617 -19.210 -0.597 -19.209 -0.597 -19.183 -0.627 9.939 0.380 1.691 0.105 43.299 41.904
235.400 -18.814 -0.769 -19.016 -0.696 -19.023 -0.694 -19.071 -0.675 -19.156 -0.635 -19.171 -0.626 -19.184 -0.618 -19.206 -0.599 -19.206 -0.598 -19.179 -0.628 9.934 0.377 1.689 0.104 43.297 41.900
235.800 -18.808 -0.769 -19.011 -0.697 -19.018 -0.694 -19.066 -0.676 -19.152 -0.636 -19.167 -0.628 -19.180 -0.619 -19.202 -0.601 -19.202 -0.600 -19.174 -0.629 9.929 0.375 1.687 0.104 43.295 41.895
236.200 -18.802 -0.769 -19.007 -0.697 -19.013 -0.695 -19.062 -0.676 -19.149 -0.637 -19.164 -0.629 -19.177 -0.620 -19.198 -0.602 -19.198 -0.602 -19.169 -0.630 9.924 0.373 1.685 0.103 43.293 41.890
236.600 -18.795 -0.768 -19.002 -0.697 -19.008 -0.695 -19.058 -0.677 -19.145 -0.638 -19.160 -0.630 -19.173 -0.622 -19.194 -0.604 -19.194 -0.603 -19.165 -0.631 9.919 0.371 1.684 0.103 43.291 41.886
237.000 -18.789 -0.768 -18.997 -0.698 -19.004 -0.695 -19.054 -0.677 -19.141 -0.639 -19.157 -0.631 -19.170 -0.623 -19.191 -0.605 -19.190 -0.604 -19.160 -0.633 9.914 0.368 1.682 0.102 43.289 41.881
237.400 -18.783 -0.768 -18.992 -0.698 -18.999 -0.696 -19.049 -0.678 -19.138 -0.640 -19.153 -0.632 -19.166 -0.624 -19.187 -0.606 -19.186 -0.606 -19.155 -0.634 9.909 0.366 1.680 0.101 43.288 41.876
237.800 -18.776 -0.767 -18.988 -0.698 -18.994 -0.696 -19.045 -0.678 -19.134 -0.641 -19.150 -0.633 -19.163 -0.625 -19.183 -0.608 -19.182 -0.607 -19.151 -0.635 9.904 0.364 1.678 0.101 43.286 41.872
238.200 -18.770 -0.767 -18.983 -0.698 -18.990 -0.696 -19.041 -0.678 -19.131 -0.642 -19.146 -0.634 -19.159 -0.626 -19.179 -0.609 -19.178 -0.608 -19.146 -0.636 9.900 0.362 1.676 0.100 43.284 41.867
238.600 -18.764 -0.766 -18.978 -0.698 -18.985 -0.696 -19.037 -0.678 -19.127 -0.642 -19.143 -0.634 -19.156 -0.627 -19.176 -0.610 -19.174 -0.609 -19.142 -0.636 9.895 0.359 1.674 0.100 43.282 41.862
239.000 -18.757 -0.766 -18.974 -0.698 -18.980 -0.696 -19.033 -0.679 -19.124 -0.643 -19.139 -0.635 -19.153 -0.628 -19.172 -0.611 -19.170 -0.610 -19.137 -0.637 9.890 0.357 1.673 0.099 43.280 41.857
239.400 -18.751 -0.765 -18.969 -0.698 -18.976 -0.696 -19.028 -0.679 -19.120 -0.644 -19.136 -0.636 -19.149 -0.628 -19.168 -0.612 -19.167 -0.611 -19.132 -0.638 9.885 0.355 1.671 0.098 43.279 41.853
239.800 -18.745 -0.764 -18.964 -0.698 -18.971 -0.696 -19.024 -0.679 -19.117 -0.644 -19.133 -0.636 -19.146 -0.629 -19.164 -0.613 -19.163 -0.612 -19.128 -0.639 9.880 0.353 1.669 0.098 43.277 41.848
240.200 -18.739 -0.764 -18.960 -0.698 -18.967 -0.696 -19.020 -0.679 -19.113 -0.645 -19.129 -0.637 -19.142 -0.630 -19.161 -0.614 -19.159 -0.613 -19.123 -0.639 9.875 0.350 1.667 0.097 43.275 41.843
240.600 -18.732 -0.763 -18.955 -0.698 -18.962 -0.695 -19.016 -0.679 -19.110 -0.645 -19.126 -0.637 -19.139 -0.630 -19.157 -0.615 -19.155 -0.614 -19.119 -0.640 9.871 0.348 1.665 0.097 43.273 41.838
241.000 -18.726 -0.762 -18.950 -0.697 -18.958 -0.695 -19.012 -0.679 -19.107 -0.645 -19.122 -0.638 -19.136 -0.631 -19.153 -0.615 -19.151 -0.615 -19.114 -0.640 9.866 0.346 1.664 0.096 43.271 41.833
241.400 -18.720 -0.761 -18.946 -0.697 -18.953 -0.695 -19.008 -0.679 -19.103 -0.646 -19.119 -0.638 -19.132 -0.631 -19.150 -0.616 -19.147 -0.616 -19.109 -0.641 9.861 0.344 1.662 0.095 43.270 41.829
241.800 -18.714 -0.760 -18.941 -0.696 -18.949 -0.694 -19.004 -0.679 -19.100 -0.646 -19.116 -0.639 -19.129 -0.632 -19.146 -0.617 -19.144 -0.616 -19.105 -0.641 9.856 0.341 1.660 0.095 43.268 41.824
242.200 -18.708 -0.759 -18.937 -0.696 -18.944 -0.694 -19.000 -0.678 -19.096 -0.646 -19.113 -0.639 -19.126 -0.632 -19.142 -0.617 -19.140 -0.617 -19.100 -0.642 9.852 0.339 1.658 0.094 43.266 41.819
242.600 -18.701 -0.758 -18.932 -0.696 -18.940 -0.694 -18.996 -0.678 -19.093 -0.646 -19.109 -0.639 -19.123 -0.632 -19.139 -0.618 -19.136 -0.617 -19.096 -0.642 9.847 0.337 1.656 0.093 43.264 41.814
243.000 -18.695 -0.757 -18.928 -0.695 -18.935 -0.693 -18.992 -0.678 -19.090 -0.646 -19.106 -0.639 -19.119 -0.633 -19.135 -0.618 -19.132 -0.618 -19.091 -0.642 9.842 0.334 1.655 0.093 43.263 41.809
243.400 -18.689 -0.756 -18.923 -0.694 -18.931 -0.692 -18.988 -0.677 -19.086 -0.646 -19.103 -0.639 -19.116 -0.633 -19.131 -0.619 -19.128 -0.618 -19.086 -0.642 9.838 0.332 1.653 0.092 43.261 41.804
243.800 -18.683 -0.755 -18.919 -0.694 -18.926 -0.692 -18.984 -0.677 -19.083 -0.646 -19.099 -0.639 -19.113 -0.633 -19.128 -0.619 -19.124 -0.619 -19.082 -0.642 9.833 0.330 1.651 0.092 43.259 41.799
244.200 -18.677 -0.754 -18.914 -0.693 -18.922 -0.691 -18.980 -0.676 -19.080 -0.646 -19.096 -0.639 -19.109 -0.633 -19.124 -0.619 -19.121 -0.619 -19.077 -0.643 9.828 0.327 1.650 0.091 43.257 41.794
244.600 -18.671 -0.752 -18.910 -0.692 -18.918 -0.690 -18.976 -0.676 -19.077 -0.646 -19.093 -0.639 -19.106 -0.633 -19.120 -0.619 -19.117 -0.619 -19.073 -0.643 9.824 0.325 1.648 0.090 43.256 41.789
245.000 -18.664 -0.751 -18.906 -0.691 -18.913 -0.689 -18.972 -0.675 -19.073 -0.645 -19.090 -0.639 -19.103 -0.633 -19.117 -0.619 -19.113 -0.619 -19.068 -0.642 9.819 0.323 1.646 0.090 43.254 41.784
245.400 -18.658 -0.750 -18.901 -0.690 -18.909 -0.689 -18.968 -0.674 -19.070 -0.645 -19.087 -0.639 -19.100 -0.633 -19.113 -0.619 -19.109 -0.619 -19.063 -0.642 9.815 0.320 1.644 0.089 43.252 41.779
245.800 -18.652 -0.748 -18.897 -0.689 -18.905 -0.688 -18.964 -0.673 -19.067 -0.645 -19.083 -0.638 -19.097 -0.632 -19.110 -0.619 -19.106 -0.619 -19.059 -0.642 9.810 0.318 1.643 0.088 43.251 41.774
246.200 -18.646 -0.747 -18.892 -0.688 -18.900 -0.687 -18.961 -0.673 -19.064 -0.644 -19.080 -0.638 -19.094 -0.632 -19.106 -0.619 -19.102 -0.619 -19.054 -0.642 9.806 0.316 1.641 0.088 43.249 41.769
246.600 -18.640 -0.745 -18.888 -0.687 -18.896 -0.686 -18.957 -0.672 -19.060 -0.644 -19.077 -0.638 -19.090 -0.632 -19.102 -0.619 -19.098 -0.619 -19.050 -0.642 9.801 0.313 1.639 0.087 43.247 41.764
247.000 -18.634 -0.743 -18.884 -0.686 -18.892 -0.684 -18.953 -0.671 -19.057 -0.643 -19.074 -0.637 -19.087 -0.631 -19.099 -0.619 -19.094 -0.619 -19.045 -0.641 9.797 0.311 1.638 0.087 43.246 41.759
247.400 -18.628 -0.742 -18.879 -0.685 -18.887 -0.683 -18.949 -0.670 -19.054 -0.642 -19.071 -0.637 -19.084 -0.631 -19.095 -0.619 -19.091 -0.619 -19.040 -0.641 9.792 0.309 1.636 0.086 43.244 41.754
247.800 -18.622 -0.740 -18.875 -0.684 -18.883 -0.682 -18.945 -0.669 -19.051 -0.642 -19.068 -0.636 -19.081 -0.630 -19.092 -0.618 -19.087 -0.618 -19.036 -0.640 9.788 0.306 1.634 0.085 43.242 41.749
248.200 -18.616 -0.738 -18.871 -0.682 -18.879 -0.681 -18.942 -0.668 -19.048 -0.641 -19.065 -0.635 -19.078 -0.630 -19.088 -0.618 -19.083 -0.618 -19.031 -0.640 9.783 0.304 1.633 0.085 43.241 41.744
248.600 -18.609 -0.736 -18.866 -0.681 -18.875 -0.679 -18.938 -0.666 -19.045 -0.640 -19.062 -0.635 -19.075 -0.629 -19.085 -0.618 -19.079 -0.617 -19.027 -0.639 9.779 0.302 1.631 0.084 43.239 41.739
249.000 -18.603 -0.735 -18.862 -0.680 -18.871 -0.678 -18.934 -0.665 -19.042 -0.639 -19.059 -0.634 -19.072 -0.628 -19.081 -0.617 -19.076 -0.617 -19.022 -0.639 9.775 0.299 1.629 0.083 43.237 41.734
249.400 -18.597 -0.733 -18.858 -0.678 -18.866 -0.677 -18.931 -0.664 -19.039 -0.638 -19.056 -0.633 -19.069 -0.628 -19.077 -0.616 -19.072 -0.616 -19.017 -0.638 9.770 0.297 1.628 0.083 43.236 41.729
249.800 -18.591 -0.731 -18.854 -0.677 -18.862 -0.675 -18.927 -0.662 -19.036 -0.637 -19.053 -0.632 -19.066 -0.627 -19.074 -0.616 -19.068 -0.616 -19.013 -0.637 9.766 0.295 1.626 0.082 43.234 41.723
250.200 -18.585 -0.729 -18.850 -0.675 -18.858 -0.673 -18.923 -0.661 -19.033 -0.636 -19.050 -0.631 -19.063 -0.626 -19.070 -0.615 -19.064 -0.615 -19.008 -0.636 9.762 0.292 1.624 0.081 43.232 41.718
250.600 -18.579 -0.727 -18.845 -0.673 -18.854 -0.672 -18.920 -0.660 -19.030 -0.635 -19.047 -0.630 -19.060 -0.625 -19.067 -0.614 -19.061 -0.614 -19.003 -0.635 9.757 0.290 1.623 0.081 43.231 41.713
251.000 -18.573 -0.724 -18.841 -0.672 -18.850 -0.670 -18.916 -0.658 -19.027 -0.634 -19.044 -0.629 -19.057 -0.624 -19.063 -0.613 -19.057 -0.613 -18.999 -0.634 9.753 0.287 1.621 0.080 43.229 41.708
251.400 -18.567 -0.722 -18.837 -0.670 -18.846 -0.668 -18.912 -0.656 -19.024 -0.633 -19.041 -0.628 -19.054 -0.623 -19.060 -0.612 -19.053 -0.612 -18.994 -0.633 9.749 0.285 1.619 0.079 43.227 41.702
251.800 -18.561 -0.720 -18.833 -0.668 -18.842 -0.667 -18.909 -0.655 -19.021 -0.631 -19.038 -0.626 -19.051 -0.622 -19.056 -0.611 -19.049 -0.611 -18.990 -0.632 9.745 0.283 1.618 0.079 43.226 41.697
252.200 -18.555 -0.718 -18.829 -0.666 -18.838 -0.665 -18.905 -0.653 -19.018 -0.630 -19.035 -0.625 -19.048 -0.620 -19.053 -0.610 -19.046 -0.610 -18.985 -0.631 9.740 0.280 1.616 0.078 43.224 41.692
252.600 -18.549 -0.715 -18.825 -0.664 -18.834 -0.663 -18.902 -0.651 -19.015 -0.629 -19.032 -0.624 -19.045 -0.619 -19.049 -0.609 -19.042 -0.609 -18.980 -0.630 9.736 0.278 1.615 0.077 43.223 41.686
253.000 -18.543 -0.713 -18.821 -0.662 -18.830 -0.661 -18.898 -0.649 -19.012 -0.627 -19.029 -0.622 -19.042 -0.618 -19.046 -0.608 -19.038 -0.608 -18.976 -0.628 9.732 0.275 1.613 0.077 43.221 41.681
253.400 -18.537 -0.710 -18.817 -0.660 -18.826 -0.659 -18.895 -0.647 -19.009 -0.625 -19.026 -0.621 -19.039 -0.616 -19.042 -0.607 -19.035 -0.607 -18.971 -0.627 9.728 0.273 1.611 0.076 43.219 41.675
253.800 -18.531 -0.708 -18.813 -0.658 -18.822 -0.657 -18.891 -0.646 -19.007 -0.624 -19.024 -0.619 -19.036 -0.615 -19.039 -0.606 -19.031 -0.605 -18.967 -0.626 9.724 0.271 1.610 0.075 43.218 41.670
254.200 -18.525 -0.705 -18.808 -0.656 -18.818 -0.654 -18.888 -0.643 -19.004 -0.622 -19.021 -0.618 -19.033 -0.613 -19.035 -0.604 -19.027 -0.604 -18.962 -0.624 9.720 0.268 1.608 0.075 43.216 41.664
254.600 -18.519 -0.703 -18.804 -0.654 -18.814 -0.652 -18.884 -0.641 -19.001 -0.620 -19.018 -0.616 -19.030 -0.612 -19.032 -0.603 -19.023 -0.603 -18.957 -0.623 9.716 0.266 1.607 0.074 43.215 41.659
255.000 -18.513 -0.700 -18.800 -0.651 -18.810 -0.650 -18.881 -0.639 -18.998 -0.619 -19.015 -0.614 -19.028 -0.610 -19.028 -0.601 -19.020 -0.601 -18.953 -0.621 9.712 0.264 1.605 0.073 43.213 41.653
255.400 -18.507 -0.697 -18.796 -0.649 -18.806 -0.648 -18.878 -0.637 -18.995 -0.617 -19.013 -0.612 -19.025 -0.608 -19.025 -0.600 -19.016 -0.600 -18.948 -0.619 9.708 0.261 1.603 0.073 43.211 41.648
255.800 -18.502 -0.695 -18.793 -0.647 -18.802 -0.645 -18.874 -0.635 -18.993 -0.615 -19.010 -0.610 -19.022 -0.606 -19.021 -0.598 -19.012 -0.598 -18.943 -0.618 9.704 0.259 1.602 0.072 43.210 41.642
256.200 -18.496 -0.692 -18.789 -0.644 -18.798 -0.643 -18.871 -0.632 -18.990 -0.613 -19.007 -0.608 -19.019 -0.605 -19.018 -0.596 -19.009 -0.596 -18.939 -0.616 9.700 0.256 1.600 0.071 43.208 41.637
256.600 -18.490 -0.689 -18.785 -0.642 -18.794 -0.640 -18.867 -0.630 -18.987 -0.611 -19.004 -0.606 -19.016 -0.603 -19.014 -0.594 -19.005 -0.594 -18.934 -0.614 9.696 0.254 1.599 0.071 43.207 41.631
257.000 -18.484 -0.686 -18.781 -0.639 -18.790 -0.638 -18.864 -0.628 -18.985 -0.608 -19.002 -0.604 -19.014 -0.601 -19.011 -0.593 -19.001 -0.593 -18.929 -0.612 9.692 0.252 1.597 0.070 43.205 41.626
257.400 -18.478 -0.683 -18.777 -0.636 -18.787 -0.635 -18.861 -0.625 -18.982 -0.606 -18.999 -0.602 -19.011 -0.599 -19.007 -0.591 -18.997 -0.591 -18.925 -0.610 9.688 0.249 1.595 0.069 43.204 41.620
257.800 -18.472 -0.680 -18.773 -0.634 -18.783 -0.632 -18.858 -0.623 -18.979 -0.604 -18.996 -0.600 -19.008 -0.596 -19.004 -0.589 -18.994 -0.589 -18.920 -0.608 9.685 0.247 1.594 0.069 43.202 41.614
258.200 -18.466 -0.677 -18.769 -0.631 -18.779 -0.630 -18.854 -0.620 -18.977 -0.602 -18.994 -0.598 -19.005 -0.594 -19.000 -0.587 -18.990 -0.587 -18.915 -0.606 9.681 0.245 1.592 0.068 43.201 41.609
258.600 -18.460 -0.673 -18.765 -0.628 -18.775 -0.627 -18.851 -0.617 -18.974 -0.599 -18.991 -0.595 -19.003 -0.592 -18.997 -0.584 -18.986 -0.585 -18.911 -0.604 9.677 0.242 1.591 0.068 43.199 41.603
259.000 -18.454 -0.670 -18.761 -0.625 -18.771 -0.624 -18.848 -0.614 -18.971 -0.597 -18.988 -0.593 -19.000 -0.590 -18.993 -0.582 -18.983 -0.582 -18.906 -0.601 9.673 0.240 1.589 0.067 43.197 41.598
259.400 -18.448 -0.667 -18.758 -0.622 -18.768 -0.621 -18.845 -0.612 -18.969 -0.594 -18.986 -0.591 -18.997 -0.587 -18.990 -0.580 -18.979 -0.580 -18.901 -0.599 9.670 0.238 1.588 0.066 43.196 41.592
259.800 -18.442 -0.664 -18.754 -0.619 -18.764 -0.618 -18.841 -0.609 -18.966 -0.592 -18.983 -0.588 -18.995 -0.585 -18.986 -0.578 -18.975 -0.578 -18.897 -0.597 9.666 0.235 1.586 0.066 43.194 41.586
260.200 -18.436 -0.660 -18.750 -0.616 -18.760 -0.615 -18.838 -0.606 -18.964 -0.589 -18.981 -0.585 -18.992 -0.582 -18.983 -0.575 -18.971 -0.575 -18.892 -0.594 9.662 0.233 1.584 0.065 43.193 41.581
260.600 -18.431 -0.657 -18.746 -0.613 -18.757 -0.612 -18.835 -0.603 -18.961 -0.586 -18.978 -0.583 -18.989 -0.580 -18.979 -0.573 -18.968 -0.573 -18.887 -0.592 9.659 0.231 1.583 0.064 43.191 41.575
261.000 -18.425 -0.653 -18.742 -0.610 -18.753 -0.609 -18.832 -0.600 -18.959 -0.583 -18.976 -0.580 -18.987 -0.577 -18.976 -0.570 -18.964 -0.570 -18.883 -0.589 9.655 0.229 1.581 0.064 43.190 41.569
261.400 -18.419 -0.650 -18.739 -0.606 -18.749 -0.605 -18.829 -0.597 -18.956 -0.581 -18.973 -0.577 -18.984 -0.574 -18.972 -0.568 -18.960 -0.568 -18.878 -0.587 9.652 0.227 1.580 0.063 43.188 41.564
261.800 -18.413 -0.646 -18.735 -0.603 -18.745 -0.602 -18.826 -0.593 -18.954 -0.578 -18.971 -0.574 -18.982 -0.571 -18.969 -0.565 -18.957 -0.565 -18.873 -0.584 9.648 0.224 1.578 0.062 43.187 41.558
262.200 -18.407 -0.643 -18.731 -0.600 -18.742 -0.599 -18.823 -0.590 -18.951 -0.575 -18.968 -0.572 -18.979 -0.569 -18.966 -0.562 -18.953 -0.563 -18.868 -0.581 9.645 0.222 1.577 0.062 43.185 41.552
262.600 -18.401 -0.639 -18.727 -0.596 -18.738 -0.595 -18.820 -0.587 -18.949 -0.572 -18.966 -0.569 -18.976 -0.566 -18.962 -0.560 -18.949 -0.560 -18.864 -0.578 9.641 0.220 1.575 0.061 43.184 41.547
263.000 -18.395 -0.635 -18.724 -0.593 -18.735 -0.592 -18.817 -0.584 -18.947 -0.569 -18.963 -0.566 -18.974 -0.563 -18.959 -0.557 -18.945 -0.557 -18.859 -0.576 9.638 0.218 1.573 0.061 43.182 41.541
263.400 -18.389 -0.631 -18.720 -0.589 -18.731 -0.588 -18.814 -0.580 -18.944 -0.565 -18.961 -0.562 -18.971 -0.560 -18.955 -0.554 -18.942 -0.554 -18.854 -0.573 9.634 0.216 1.572 0.060 43.181 41.536
263.800 -18.384 -0.627 -18.716 -0.586 -18.727 -0.585 -18.811 -0.577 -18.942 -0.562 -18.959 -0.559 -18.969 -0.556 -18.952 -0.551 -18.938 -0.551 -18.849 -0.570 9.631 0.214 1.570 0.059 43.179 41.530
264.200 -18.378 -0.623 -18.713 -0.582 -18.724 -0.581 -18.808 -0.573 -18.940 -0.559 -18.956 -0.556 -18.966 -0.553 -18.948 -0.548 -18.934 -0.548 -18.845 -0.567 9.628 0.212 1.569 0.059 43.178 41.525
264.600 -18.372 -0.620 -18.709 -0.578 -18.720 -0.577 -18.805 -0.569 -18.937 -0.556 -18.954 -0.553 -18.964 -0.550 -18.945 -0.545 -18.930 -0.545 -18.840 -0.563 9.624 0.210 1.567 0.058 43.177 41.519
265.000 -18.366 -0.615 -18.705 -0.574 -18.717 -0.573 -18.802 -0.566 -18.935 -0.552 -18.951 -0.549 -18.961 -0.547 -18.941 -0.541 -18.927 -0.542 -18.835 -0.560 9.621 0.208 1.566 0.058 43.175 41.514
265.400 -18.360 -0.611 -18.702 -0.571 -18.713 -0.570 -18.799 -0.562 -18.933 -0.549 -18.949 -0.546 -18.959 -0.543 -18.938 -0.538 -18.923 -0.538 -18.830 -0.557 9.618 0.206 1.564 0.057 43.174 41.508
265.800 -18.354 -0.607 -18.698 -0.567 -18.710 -0.566 -18.796 -0.558 -18.930 -0.545 -18.947 -0.542 -18.956 -0.540 -18.934 -0.535 -18.919 -0.535 -18.826 -0.554 9.615 0.204 1.562 0.057 43.172 41.503
266.200 -18.348 -0.603 -18.695 -0.563 -18.706 -0.562 -18.793 -0.554 -18.928 -0.541 -18.945 -0.539 -18.954 -0.536 -18.931 -0.532 -18.915 -0.532 -18.821 -0.550 9.612 0.202 1.561 0.056 43.171 41.498
266.600 -18.343 -0.599 -18.691 -0.559 -18.703 -0.558 -18.790 -0.551 -18.926 -0.538 -18.942 -0.535 -18.951 -0.533 -18.927 -0.528 -18.911 -0.528 -18.816 -0.547 9.608 0.201 1.559 0.056 43.169 41.493
267.000 -18.337 -0.595 -18.688 -0.555 -18.699 -0.554 -18.787 -0.547 -18.924 -0.534 -18.940 -0.532 -18.949 -0.529 -18.924 -0.525 -18.908 -0.525 -18.811 -0.543 9.605 0.199 1.558 0.055 43.168 41.488
267.400 -18.331 -0.590 -18.684 -0.550 -18.696 -0.549 -18.785 -0.542 -18.922 -0.530 -18.938 -0.528 -18.946 -0.525 -18.920 -0.521 -18.904 -0.521 -18.806 -0.540 9.602 0.197 1.556 0.055 43.166 41.483
267.800 -18.325 -0.586 -18.680 -0.546 -18.692 -0.545 -18.782 -0.538 -18.919 -0.526 -18.935 -0.524 -18.944 -0.522 -18.916 -0.517 -18.900 -0.518 -18.802 -0.536 9.599 0.196 1.554 0.054 43.165 41.478
268.200 -18.319 -0.581 -18.677 -0.542 -18.689 -0.541 -18.779 -0.534 -18.917 -0.522 -18.933 -0.520 -18.942 -0.518 -18.913 -0.514 -18.896 -0.514 -18.797 -0.533 9.596 0.194 1.553 0.054 43.163 41.473
268.600 -18.313 -0.577 -18.673 -0.538 -18.685 -0.537 -18.776 -0.530 -18.915 -0.518 -18.931 -0.516 -18.939 -0.514 -18.909 -0.510 -18.892 -0.510 -18.792 -0.529 9.593 0.193 1.551 0.053 43.162 41.469
269.000 -18.307 -0.572 -18.670 -0.533 -18.682 -0.532 -18.773 -0.526 -18.913 -0.514 -18.929 -0.512 -18.937 -0.510 -18.906 -0.506 -18.888 -0.506 -18.787 -0.525 9.590 0.191 1.550 0.053 43.161 41.464
269.400 -18.302 -0.568 -18.666 -0.529 -18.679 -0.528 -18.771 -0.521 -18.911 -0.510 -18.927 -0.508 -18.934 -0.506 -18.902 -0.502 -18.885 -0.502 -18.782 -0.521 9.587 0.190 1.548 0.053 43.159 41.460
269.800 -18.296 -0.563 -18.663 -0.524 -18.675 -0.523 -18.768 -0.517 -18.909 -0.506 -18.924 -0.504 -18.932 -0.502 -18.899 -0.498 -18.881 -0.498 -18.777 -0.517 9.584 0.189 1.546 0.052 43.158 41.456
270.200 -18.290 -0.558 -18.659 -0.520 -18.672 -0.519 -18.765 -0.512 -18.907 -0.502 -18.922 -0.500 -18.930 -0.498 -18.895 -0.494 -18.877 -0.494 -18.773 -0.513 9.582 0.188 1.545 0.052 43.156 41.452
270.600 -18.284 -0.554 -18.656 -0.515 -18.668 -0.514 -18.762 -0.508 -18.905 -0.497 -18.920 -0.495 -18.927 -0.493 -18.892 -0.490 -18.873 -0.490 -18.768 -0.509 9.579 0.186 1.543 0.052 43.155 41.448
271.000 -18.278 -0.549 -18.652 -0.510 -18.665 -0.509 -18.760 -0.503 -18.903 -0.493 -18.918 -0.491 -18.925 -0.489 -18.888 -0.486 -18.869 -0.486 -18.763 -0.505 9.576 0.185 1.541 0.051 43.153 41.444
271.400 -18.272 -0.544 -18.649 -0.506 -18.662 -0.505 -18.757 -0.499 -18.901 -0.489 -18.916 -0.487 -18.922 -0.485 -18.884 -0.482 -18.865 -0.482 -18.758 -0.501 9.573 0.185 1.540 0.051 43.152 41.441
271.800 -18.266 -0.539 -18.646 -0.501 -18.658 -0.500 -18.754 -0.494 -18.899 -0.484 -18.914 -0.482 -18.920 -0.480 -18.881 -0.477 -18.861 -0.478 -18.753 -0.497 9.570 0.184 1.538 0.051 43.151 41.437
272.200 -18.261 -0.534 -18.642 -0.496 -18.655 -0.495 -18.752 -0.489 -18.897 -0.479 -18.912 -0.478 -18.918 -0.476 -18.877 -0.473 -18.857 -0.473 -18.748 -0.492 9.568 0.183 1.537 0.051 43.149 41.434
272.600 -18.255 -0.529 -18.639 -0.491 -18.652 -0.490 -18.749 -0.484 -18.895 -0.475 -18.909 -0.473 -18.915 -0.471 -18.873 -0.468 -18.853 -0.469 -18.743 -0.488 9.565 0.182 1.535 0.050 43.148 41.431
273.000 -18.249 -0.524 -18.635 -0.486 -18.648 -0.485 -18.746 -0.479 -18.893 -0.470 -18.907 -0.468 -18.913 -0.467 -18.870 -0.464 -18.849 -0.464 -18.739 -0.484 9.562 0.182 1.533 0.050 43.146 41.429
273.400 -18.243 -0.519 -18.632 -0.481 -18.645 -0.480 -18.744 -0.475 -18.891 -0.465 -18.905 -0.464 -18.911 -0.462 -18.866 -0.459 -18.845 -0.460 -18.734 -0.479 9.560 0.181 1.532 0.050 43.145 41.426
273.800 -18.237 -0.514 -18.628 -0.476 -18.642 -0.475 -18.741 -0.470 -18.889 -0.460 -18.903 -0.459 -18.908 -0.457 -18.862 -0.455 -18.841 -0.455 -18.729 -0.475 9.557 0.181 1.530 0.050 43.143 41.424
274.200 -18.231 -0.509 -18.625 -0.471 -18.638 -0.470 -18.739 -0.464 -18.887 -0.456 -18.901 -0.454 -18.906 -0.452 -18.859 -0.450 -18.837 -0.451 -18.724 -0.470 9.554 0.181 1.528 0.050 43.142 41.422
274.600 -18.226 -0.503 -18.622 -0.465 -18.635 -0.465 -18.736 -0.459 -18.885 -0.451 -18.899 -0.449 -18.904 -0.448 -18.855 -0.445 -18.833 -0.446 -18.719 -0.465 9.552 0.180 1.527 0.050 43.141 41.421
275.000 -18.220 -0.498 -18.618 -0.460 -18.632 -0.459 -18.733 -0.454 -18.883 -0.446 -18.897 -0.444 -18.901 -0.443 -18.851 -0.440 -18.829 -0.441 -18.714 -0.461 9.549 0.180 1.525 0.050 43.139 41.419
275.400 -18.214 -0.493 -18.615 -0.455 -18.628 -0.454 -18.731 -0.449 -18.881 -0.440 -18.895 -0.439 -18.899 -0.438 -18.847 -0.436 -18.825 -0.436 -18.709 -0.456 9.547 0.180 1.523 0.050 43.138 41.418
275.800 -18.208 -0.488 -18.611 -0.449 -18.625 -0.449 -18.728 -0.444 -18.879 -0.435 -18.893 -0.434 -18.897 -0.433 -18.844 -0.431 -18.821 -0.431 -18.704 -0.451 9.544 0.181 1.521 0.050 43.136 41.417
276.200 -18.202 -0.482 -18.608 -0.444 -18.622 -0.443 -18.726 -0.438 -18.877 -0.430 -18.891 -0.429 -18.894 -0.427 -18.840 -0.426 -18.817 -0.426 -18.699 -0.446 9.542 0.181 1.520 0.050 43.135 41.417
276.600 -18.196 -0.477 -18.605 -0.439 -18.618 -0.438 -18.723 -0.433 -18.875 -0.425 -18.889 -0.423 -18.892 -0.422 -18.836 -0.421 -18.813 -0.421 -18.694 -0.442 9.539 0.181 1.518 0.050 43.133 41.416
277.000 -18.190 -0.471 -18.601 -0.433 -18.615 -0.432 -18.721 -0.427 -18.874 -0.419 -18.887 -0.418 -18.890 -0.417 -18.832 -0.415 -18.809 -0.416 -18.689 -0.437 9.537 0.182 1.516 0.050 43.132 41.416
277.400 -18.185 -0.466 -18.598 -0.427 -18.612 -0.427 -18.718 -0.422 -18.872 -0.414 -18.885 -0.413 -18.887 -0.412 -18.828 -0.410 -18.805 -0.411 -18.684 -0.432 9.534 0.182 1.515 0.050 43.131 41.417
277.800 -18.179 -0.460 -18.594 -0.422 -18.609 -0.421 -18.716 -0.416 -18.870 -0.409 -18.883 -0.407 -18.885 -0.406 -18.825 -0.405 -18.801 -0.406 -18.679 -0.426 9.532 0.183 1.513 0.050 43.129 41.417
278.200 -18.173 -0.455 -18.591 -0.416 -18.605 -0.415 -18.713 -0.410 -18.868 -0.403 -18.881 -0.402 -18.883 -0.401 -18.821 -0.400 -18.796 -0.400 -18.674 -0.421 9.530 0.184 1.511 0.051 43.128 41.418
278.600 -18.167 -0.449 -18.588 -0.410 -18.602 -0.410 -18.711 -0.405 -18.866 -0.397 -18.879 -0.396 -18.880 -0.395 -18.817 -0.394 -18.792 -0.395 -18.669 -0.416 9.527 0.185 1.509 0.051 43.126 41.419
279.000 -18.161 -0.443 -18.584 -0.404 -18.599 -0.404 -18.708 -0.399 -18.864 -0.392 -18.877 -0.391 -18.878 -0.390 -18.813 -0.389 -18.788 -0.390 -18.664 -0.411 9.525 0.186 1.508 0.051 43.125 41.420
279.400 -18.155 -0.437 -18.581 -0.399 -18.595 -0.398 -18.705 -0.393 -18.863 -0.386 -18.875 -0.385 -18.876 -0.384 -18.809 -0.383 -18.784 -0.384 -18.660 -0.406 9.522 0.187 1.506 0.051 43.123 41.421
279.800 -18.149 -0.432 -18.577 -0.393 -18.592 -0.392 -18.703 -0.387 -18.861 -0.380 -18.873 -0.379 -18.873 -0.378 -18.805 -0.378 -18.779 -0.379 -18.655 -0.400 9.520 0.189 1.504 0.052 43.122 41.423
280.200 -18.144 -0.426 -18.574 -0.387 -18.589 -0.386 -18.700 -0.381 -18.859 -0.374 -18.871 -0.373 -18.871 -0.373 -18.801 -0.372 -18.775 -0.373 -18.650 -0.395 9.518 0.190 1.502 0.052 43.121 41.425
280.600 -18.138 -0.420 -18.570 -0.381 -18.585 -0.380 -18.698 -0.375 -18.857 -0.369 -18.869 -0.368 -18.868 -0.367 -18.797 -0.366 -18.771 -0.367 -18.645 -0.390 9.515 0.191 1.501 0.052 43.119 41.427
281.000 -18.132 -0.414 -18.567 -0.374 -18.582 -0.374 -18.695 -0.369 -18.855 -0.363 -18.867 -0.362 -18.866 -0.361 -18.793 -0.361 -18.767 -0.362 -18.640 -0.384 9.513 0.193 1.499 0.053 43.118 41.429
281.400 -18.126 -0.408 -18.564 -0.368 -18.579 -0.368 -18.693 -0.363 -18.854 -0.357 -18.864 -0.356 -18.864 -0.355 -18.789 -0.355 -18.762 -0.356 -18.635 -0.379 9.511 0.195 1.497 0.053 43.116 41.432
281.800 -18.120 -0.403 -18.560 -0.362 -18.575 -0.361 -18.690 -0.357 -18.852 -0.351 -18.862 -0.350 -18.861 -0.349 -18.785 -0.349 -18.758 -0.350 -18.630 -0.373 9.508 0.197 1.495 0.054 43.115 41.434
282.200 -18.114 -0.397 -18.557 -0.356 -18.572 -0.355 -18.688 -0.351 -18.850 -0.344 -18.860 -0.344 -18.859 -0.343 -18.781 -0.343 -18.754 -0.344 -18.625 -0.368 9.506 0.199 1.494 0.054 43.113 41.437
282.600 -18.109 -0.391 -18.553 -0.350 -18.569 -0.349 -18.685 -0.345 -18.848 -0.338 -18.858 -0.337 -18.856 -0.337 -18.777 -0.337 -18.749 -0.338 -18.620 -0.362 9.504 0.201 1.492 0.055 43.112 41.440
283.000 -18.103 -0.385 -18.550 -0.343 -18.565 -0.343 -18.683 -0.338 -18.846 -0.332 -18.856 -0.331 -18.854 -0.331 -18.773 -0.331 -18.745 -0.332 -18.615 -0.356 9.501 0.203 1.490 0.055 43.110 41.443
283.400 -18.097 -0.379 -18.546 -0.337 -18.562 -0.336 -18.680 -0.332 -18.844 -0.326 -18.854 -0.325 -18.851 -0.325 -18.768 -0.325 -18.740 -0.326 -18.610 -0.351 9.499 0.205 1.488 0.056 43.109 41.446
283.800 -18.091 -0.373 -18.543 -0.330 -18.558 -0.330 -18.677 -0.325 -18.843 -0.319 -18.852 -0.319 -18.849 -0.318 -18.764 -0.319 -18.736 -0.320 -18.605 -0.345 9.497 0.207 1.487 0.056 43.107 41.450
284.200 -18.085 -0.367 -18.539 -0.324 -18.555 -0.323 -18.675 -0.319 -18.841 -0.313 -18.850 -0.312 -18.846 -0.312 -18.760 -0.313 -18.731 -0.314 -18.600 -0.339 9.494 0.210 1.485 0.057 43.106 41.453
284.600 -18.079 -0.361 -18.536 -0.318 -18.552 -0.317 -18.672 -0.312 -18.839 -0.306 -18.848 -0.306 -18.844 -0.306 -18.756 -0.307 -18.727 -0.308 -18.595 -0.334 9.492 0.212 1.483 0.057 43.105 41.457
285.000 -18.074 -0.355 -18.532 -0.311 -18.548 -0.310 -18.669 -0.306 -18.837 -0.300 -18.846 -0.299 -18.841 -0.299 -18.752 -0.300 -18.722 -0.301 -18.590 -0.328 9.489 0.215 1.481 0.058 43.103 41.460
285.400 -18.068 -0.349 -18.529 -0.304 -18.545 -0.304 -18.667 -0.299 -18.835 -0.293 -18.843 -0.293 -18.838 -0.293 -18.747 -0.294 -18.718 -0.295 -18.585 -0.322 9.487 0.217 1.479 0.059 43.102 41.464
285.800 -18.062 -0.343 -18.525 -0.298 -18.541 -0.297 -18.664 -0.293 -18.833 -0.287 -18.841 -0.286 -18.836 -0.286 -18.743 -0.288 -18.713 -0.289 -18.580 -0.316 9.485 0.220 1.478 0.059 43.100 41.468
286.200 -18.056 -0.337 -18.521 -0.291 -18.538 -0.290 -18.661 -0.286 -18.831 -0.280 -18.839 -0.279 -18.833 -0.279 -18.739 -0.281 -18.709 -0.282 -18.575 -0.310 9.482 0.223 1.476 0.060 43.099 41.472
286.600 -18.050 -0.331 -18.518 -0.284 -18.534 -0.284 -18.659 -0.279 -18.829 -0.273 -18.837 -0.273 -18.830 -0.273 -18.734 -0.275 -18.704 -0.276 -18.570 -0.305 9.479 0.226 1.474 0.061 43.097 41.476
287.000 -18.045 -0.325 -18.514 -0.278 -18.531 -0.277 -18.656 -0.272 -18.827 -0.266 -18.835 -0.266 -18.828 -0.266 -18.730 -0.268 -18.700 -0.270 -18.565 -0.299 9.477 0.229 1.472 0.062 43.096 41.480
287.400 -18.039 -0.319 -18.510 -0.271 -18.527 -0.270 -18.653 -0.266 -18.825 -0.260 -18.832 -0.259 -18.825 -0.259 -18.726 -0.262 -18.695 -0.263 -18.560 -0.293 9.474 0.232 1.471 0.062 43.094 41.484
287.800 -18.033 -0.313 -18.507 -0.264 -18.523 -0.263 -18.650 -0.259 -18.823 -0.253 -18.830 -0.252 -18.822 -0.253 -18.721 -0.255 -18.690 -0.256 -18.555 -0.287 9.471 0.235 1.469 0.063 43.093 41.488
288.200 -18.027 -0.307 -18.503 -0.257 -18.520 -0.256 -18.647 -0.252 -18.821 -0.246 -18.828 -0.245 -18.819 -0.246 -18.717 -0.248 -18.686 -0.250 -18.550 -0.281 9.468 0.238 1.467 0.064 43.091 41.492
288.600 -18.022 -0.301 -18.499 -0.250 -18.516 -0.250 -18.645 -0.245 -18.819 -0.239 -18.825 -0.238 -18.816 -0.239 -18.712 -0.242 -18.681 -0.243 -18.545 -0.275 9.465 0.242 1.466 0.065 43.090 41.496
289.000 -18.016 -0.295 -18.496 -0.243 -18.513 -0.243 -18.642 -0.238 -18.817 -0.232 -18.823 -0.231 -18.813 -0.232 -18.708 -0.235 -18.676 -0.237 -18.540 -0.269 9.462 0.245 1.464 0.066 43.088 41.500
289.400 -18.010 -0.289 -18.492 -0.237 -18.509 -0.236 -18.639 -0.231 -18.815 -0.225 -18.820 -0.224 -18.810 -0.225 -18.703 -0.228 -18.672 -0.230 -18.535 -0.264 9.459 0.249 1.463 0.067 43.086 41.504
289.800 -18.005 -0.283 -18.488 -0.230 -18.505 -0.229 -18.636 -0.224 -18.813 -0.218 -18.818 -0.217 -18.807 -0.218 -18.699 -0.222 -18.667 -0.223 -18.531 -0.258 9.456 0.252 1.461 0.068 43.085 41.509
290.200 -17.999 -0.278 -18.484 -0.223 -18.501 -0.222 -18.633 -0.217 -18.811 -0.210 -18.815 -0.210 -18.804 -0.211 -18.694 -0.215 -18.662 -0.217 -18.526 -0.252 9.453 0.256 1.460 0.068 43.083 41.513
290.600 -17.993 -0.272 -18.480 -0.216 -18.498 -0.215 -18.630 -0.210 -18.808 -0.203 -18.813 -0.203 -18.801 -0.204 -18.690 -0.208 -18.658 -0.210 -18.521 -0.246 9.449 0.260 1.458 0.069 43.082 41.517
291.000 -17.988 -0.266 -18.476 -0.209 -18.494 -0.208 -18.626 -0.203 -18.806 -0.196 -18.810 -0.196 -18.798 -0.197 -18.685 -0.201 -18.653 -0.203 -18.516 -0.241 9.445 0.264 1.457 0.070 43.080 41.521
291.400 -17.982 -0.261 -18.472 -0.202 -18.490 -0.201 -18.623 -0.196 -18.804 -0.189 -18.807 -0.189 -18.795 -0.190 -18.681 -0.195 -18.648 -0.197 -18.511 -0.235 9.441 0.268 1.455 0.071 43.079 41.525
291.800 -17.977 -0.255 -18.468 -0.195 -18.486 -0.194 -18.620 -0.189 -18.801 -0.182 -18.805 -0.182 -18.792 -0.183 -18.676 -0.188 -18.643 -0.190 -18.506 -0.230 9.437 0.272 1.454 0.072 43.077 41.530
292.200 -17.971 -0.250 -18.464 -0.188 -18.482 -0.188 -18.617 -0.182 -18.799 -0.174 -18.802 -0.175 -18.788 -0.176 -18.671 -0.181 -18.639 -0.183 -18.501 -0.224 9.432 0.277 1.453 0.074 43.076 41.534
292.600 -17.966 -0.245 -18.460 -0.182 -18.478 -0.181 -18.613 -0.175 -18.796 -0.167 -18.799 -0.167 -18.785 -0.169 -18.667 -0.174 -18.634 -0.177 -18.497 -0.219 9.428 0.281 1.452 0.075 43.074 41.538
293.000 -17.960 -0.240 -18.456 -0.175 -18.474 -0.174 -18.610 -0.169 -18.794 -0.160 -18.796 -0.160 -18.781 -0.162 -18.662 -0.168 -18.629 -0.170 -18.492 -0.214 9.423 0.286 1.451 0.076 43.073 41.542
293.400 -17.955 -0.235 -18.452 -0.168 -18.470 -0.167 -18.606 -0.162 -18.791 -0.153 -18.793 -0.153 -18.778 -0.155 -18.657 -0.161 -18.624 -0.164 -18.487 -0.209 9.417 0.290 1.450 0.077 43.071 41.547
293.800 -17.949 -0.231 -18.448 -0.162 -18.466 -0.161 -18.603 -0.155 -18.788 -0.146 -18.790 -0.146 -18.774 -0.148 -18.653 -0.155 -18.620 -0.157 -18.482 -0.204 9.411 0.295 1.449 0.078 43.070 41.551
294.200 -17.944 -0.226 -18.444 -0.155 -18.462 -0.154 -18.599 -0.148 -18.786 -0.139 -18.787 -0.139 -18.771 -0.141 -18.648 -0.148 -18.615 -0.151 -18.477 -0.199 9.405 0.301 1.449 0.080 43.068 41.555
294.600 -17.939 -0.222 -18.440 -0.149 -18.458 -0.148 -18.596 -0.142 -18.783 -0.132 -18.784 -0.132 -18.767 -0.135 -18.643 -0.142 -18.610 -0.145 -18.473 -0.195 9.398 0.306 1.448 0.081 43.067 41.560
295.000 -17.933 -0.218 -18.436 -0.143 -18.454 -0.142 -18.592 -0.135 -18.780 -0.125 -18.780 -0.125 -18.763 -0.128 -18.639 -0.136 -18.605 -0.139 -18.468 -0.191 9.391 0.312 1.448 0.083 43.065 41.564
295.400 -17.928 -0.214 -18.431 -0.137 -18.449 -0.136 -18.588 -0.129 -18.777 -0.118 -18.777 -0.118 -18.760 -0.121 -18.634 -0.129 -18.601 -0.133 -18.463 -0.187 9.383 0.317 1.448 0.084 43.064 41.569
295.800 -17.923 -0.210 -18.427 -0.131 -18.445 -0.130 -18.584 -0.123 -18.774 -0.111 -18.774 -0.112 -18.756 -0.115 -18.629 -0.124 -18.596 -0.127 -18.459 -0.183 9.375 0.323 1.448 0.086 43.062 41.573
296.200 -17.917 -0.207 -18.423 -0.126 -18.441 -0.124 -18.580 -0.117 -18.770 -0.105 -18.770 -0.105 -18.752 -0.109 -18.625 -0.118 -18.591 -0.122 -18.454 -0.179 9.367 0.330 1.449 0.087 43.061 41.578
296.600 -17.912 -0.204 -18.418 -0.121 -18.437 -0.119 -18.576 -0.112 -18.767 -0.098 -18.766 -0.099 -18.748 -0.103 -18.620 -0.113 -18.586 -0.117 -18.449 -0.176 9.358 0.336 1.449 0.089 43.060 41.582
297.000 -17.907 -0.201 -18.414 -0.116 -18.432 -0.114 -18.572 -0.107 -18.764 -0.092 -18.763 -0.093 -18.743 -0.098 -18.615 -0.108 -18.582 -0.112 -18.445 -0.173 9.348 0.342 1.450 0.091 43.058 41.587
297.400 -17.902 -0.199 -18.410 -0.111 -18.428 -0.110 -18.568 -0.102 -18.760 -0.087 -18.759 -0.088 -18.739 -0.093 -18.611 -0.103 -18.577 -0.108 -18.440 -0.170 9.339 0.349 1.450 0.092 43.057 41.591
297.800 -17.897 -0.197 -18.405 -0.108 -18.423 -0.106 -18.564 -0.098 -18.756 -0.082 -18.755 -0.083 -18.735 -0.088 -18.606 -0.099 -18.572 -0.104 -18.435 -0.168 9.330 0.355 1.451 0.094 43.056 41.595
298.200 -17.892 -0.195 -18.401 -0.104 -18.419 -0.103 -18.560 -0.094 -18.753 -0.077 -18.751 -0.079 -18.731 -0.084 -18.601 -0.096 -18.568 -0.100 -18.431 -0.166 9.321 0.360 1.451 0.096 43.054 41.599
298.600 -17.887 -0.194 -18.396 -0.102 -18.414 -0.100 -18.555 -0.091 -18.749 -0.074 -18.746 -0.075 -18.726 -0.081 -18.597 -0.093 -18.563 -0.098 -18.426 -0.165 9.313 0.366 1.451 0.097 43.053 41.601
299.000 -17.883 -0.193 -18.391 -0.100 -18.410 -0.098 -18.551 -0.089 -18.745 -0.071 -18.742 -0.072 -18.722 -0.078 -18.592 -0.091 -18.558 -0.096 -18.422 -0.164 9.307 0.370 1.451 0.098 43.051 41.603
299.400 -17.878 -0.193 -18.387 -0.098 -18.405 -0.097 -18.546 -0.088 -18.740 -0.069 -18.738 -0.070 -18.717 -0.077 -18.588 -0.089 -18.554 -0.094 -18.417 -0.164 9.302 0.372 1.450 0.099 43.050 41.604
299.800 -17.873 -0.193 -18.382 -0.098 -18.401 -0.096 -18.542 -0.087 -18.736 -0.068 -18.733 -0.070 -18.713 -0.076 -18.583 -0.089 -18.549 -0.094 -18.413 -0.164 9.300 0.374 1.447 0.099 43.048 41.603
300.200 -17.868 -0.193 -18.378 -0.098 -18.396 -0.096 -18.537 -0.088 -18.731 -0.069 -18.729 -0.070 -18.708 -0.076 -18.578 -0.089 -18.545 -0.094 -18.408 -0.164 9.299 0.373 1.444 0.099 43.046 41.601
300.600 -17.864 -0.194 -18.373 -0.099 -18.391 -0.097 -18.532 -0.089 -18.726 -0.070 -18.724 -0.072 -18.704 -0.078 -18.574 -0.090 -18.540 -0.095 -18.404 -0.165 9.302 0.371 1.440 0.098 43.044 41.596
