"Time (MJD)" G-5850.88 G-5850.88_err cyan-5182.42 cyan-5182.42_err g-4671.78 g-4671.78_err g-4746.48 g-4746.48_err i-7457.89 i-7457.89_err orange-6629.82 orange-6629.82_err r-6141.12 r-6141.12_err r-6366.38 r-6366.38_err "Temp./1e3 (K)" "Temp. Err." "Radius/1e15 (cm)" "Radius Err." "Log10(Bol. Lum)" "Log10(Bol. Err)"
-43.000 -20.420 -0.116 -20.433 -0.110 -20.499 -0.092 -20.584 -0.077 -20.623 -0.067 -20.653 -0.060 -20.679 -0.059 -20.673 -0.126 20.471 14.370 1.360 0.892 44.365 44.542
-42.600 -20.429 -0.115 -20.442 -0.109 -20.508 -0.090 -20.594 -0.075 -20.633 -0.066 -20.663 -0.059 -20.690 -0.058 -20.683 -0.125 8.063 0.148 4.545 0.146 43.794 41.872
-42.200 -20.437 -0.113 -20.451 -0.108 -20.518 -0.089 -20.603 -0.074 -20.643 -0.065 -20.673 -0.058 -20.701 -0.056 -20.694 -0.123 8.049 0.149 4.579 0.148 43.797 41.877
-41.800 -20.446 -0.112 -20.460 -0.106 -20.527 -0.088 -20.613 -0.073 -20.653 -0.064 -20.684 -0.056 -20.711 -0.055 -20.704 -0.122 8.036 0.150 4.614 0.150 43.801 41.881
-41.400 -20.455 -0.111 -20.468 -0.105 -20.536 -0.087 -20.623 -0.072 -20.663 -0.063 -20.694 -0.055 -20.722 -0.054 -20.715 -0.120 8.023 0.150 4.648 0.152 43.805 41.885
-41.000 -20.463 -0.110 -20.477 -0.104 -20.545 -0.086 -20.632 -0.072 -20.673 -0.062 -20.704 -0.054 -20.732 -0.053 -20.725 -0.119 8.010 0.151 4.683 0.154 43.808 41.889
-40.600 -20.472 -0.108 -20.486 -0.103 -20.554 -0.085 -20.642 -0.071 -20.683 -0.061 -20.714 -0.054 -20.742 -0.052 -20.736 -0.118 7.997 0.151 4.717 0.156 43.812 41.893
-40.200 -20.480 -0.107 -20.494 -0.102 -20.563 -0.084 -20.651 -0.070 -20.693 -0.060 -20.724 -0.053 -20.753 -0.051 -20.746 -0.117 7.985 0.151 4.751 0.158 43.815 41.896
-39.800 -20.489 -0.106 -20.503 -0.101 -20.572 -0.083 -20.661 -0.069 -20.703 -0.060 -20.734 -0.052 -20.763 -0.050 -20.757 -0.116 7.973 0.152 4.785 0.160 43.819 41.900
-39.400 -20.497 -0.105 -20.512 -0.100 -20.581 -0.082 -20.670 -0.068 -20.712 -0.059 -20.745 -0.051 -20.773 -0.049 -20.767 -0.115 7.962 0.152 4.819 0.162 43.823 41.903
-39.000 -20.506 -0.105 -20.520 -0.099 -20.590 -0.082 -20.680 -0.068 -20.722 -0.058 -20.754 -0.051 -20.784 -0.048 -20.778 -0.114 7.950 0.152 4.852 0.163 43.826 41.905
-38.600 -20.514 -0.104 -20.529 -0.098 -20.599 -0.081 -20.689 -0.067 -20.732 -0.058 -20.764 -0.050 -20.794 -0.048 -20.788 -0.113 7.940 0.152 4.885 0.165 43.830 41.908
-38.200 -20.523 -0.103 -20.537 -0.097 -20.608 -0.080 -20.699 -0.067 -20.742 -0.057 -20.774 -0.050 -20.804 -0.047 -20.798 -0.112 7.930 0.152 4.918 0.166 43.833 41.910
-37.800 -20.531 -0.102 -20.546 -0.097 -20.617 -0.079 -20.708 -0.066 -20.751 -0.057 -20.784 -0.049 -20.814 -0.047 -20.809 -0.111 7.920 0.152 4.950 0.168 43.837 41.912
-37.400 -20.540 -0.101 -20.554 -0.096 -20.626 -0.079 -20.717 -0.065 -20.761 -0.056 -20.794 -0.049 -20.824 -0.047 -20.819 -0.110 7.911 0.152 4.982 0.169 43.841 41.914
-37.000 -20.548 -0.100 -20.563 -0.095 -20.635 -0.078 -20.727 -0.065 -20.770 -0.056 -20.804 -0.049 -20.834 -0.046 -20.829 -0.109 7.902 0.152 5.014 0.171 43.844 41.916
-36.600 -20.556 -0.100 -20.571 -0.094 -20.644 -0.077 -20.736 -0.064 -20.780 -0.055 -20.813 -0.048 -20.843 -0.046 -20.839 -0.108 7.894 0.152 5.045 0.172 43.848 41.918
-36.200 -20.565 -0.099 -20.580 -0.094 -20.653 -0.077 -20.745 -0.064 -20.789 -0.055 -20.823 -0.048 -20.853 -0.046 -20.850 -0.107 7.886 0.152 5.075 0.173 43.851 41.920
-35.800 -20.573 -0.098 -20.588 -0.093 -20.662 -0.076 -20.754 -0.063 -20.799 -0.055 -20.832 -0.048 -20.863 -0.046 -20.860 -0.107 7.878 0.151 5.106 0.174 43.855 41.921
-35.400 -20.581 -0.098 -20.597 -0.093 -20.671 -0.075 -20.763 -0.063 -20.808 -0.054 -20.842 -0.048 -20.873 -0.046 -20.870 -0.106 7.871 0.151 5.136 0.175 43.858 41.923
-35.000 -20.589 -0.097 -20.605 -0.092 -20.679 -0.075 -20.772 -0.062 -20.817 -0.054 -20.851 -0.048 -20.882 -0.046 -20.880 -0.105 7.865 0.151 5.165 0.177 43.862 41.924
-34.600 -20.598 -0.096 -20.613 -0.091 -20.688 -0.074 -20.781 -0.062 -20.826 -0.054 -20.860 -0.047 -20.892 -0.046 -20.890 -0.105 7.858 0.151 5.194 0.178 43.865 41.926
-34.200 -20.606 -0.096 -20.622 -0.091 -20.697 -0.074 -20.790 -0.061 -20.835 -0.053 -20.870 -0.047 -20.901 -0.046 -20.900 -0.104 7.852 0.151 5.223 0.179 43.869 41.927
-33.800 -20.614 -0.095 -20.630 -0.090 -20.706 -0.073 -20.799 -0.060 -20.844 -0.053 -20.879 -0.047 -20.910 -0.046 -20.909 -0.103 7.847 0.151 5.251 0.180 43.872 41.929
-33.400 -20.622 -0.095 -20.638 -0.089 -20.715 -0.072 -20.808 -0.060 -20.853 -0.053 -20.888 -0.047 -20.919 -0.046 -20.919 -0.103 7.841 0.150 5.279 0.181 43.875 41.930
-33.000 -20.630 -0.094 -20.646 -0.089 -20.723 -0.072 -20.817 -0.059 -20.862 -0.052 -20.897 -0.047 -20.929 -0.046 -20.929 -0.102 7.836 0.150 5.306 0.182 43.879 41.932
-32.600 -20.638 -0.093 -20.655 -0.088 -20.732 -0.071 -20.826 -0.059 -20.871 -0.052 -20.906 -0.047 -20.938 -0.046 -20.939 -0.101 7.832 0.150 5.333 0.183 43.882 41.934
-32.200 -20.646 -0.093 -20.663 -0.088 -20.741 -0.070 -20.835 -0.058 -20.880 -0.052 -20.915 -0.047 -20.947 -0.046 -20.948 -0.101 7.828 0.150 5.359 0.184 43.886 41.935
-31.800 -20.654 -0.092 -20.671 -0.087 -20.749 -0.070 -20.843 -0.057 -20.888 -0.051 -20.923 -0.047 -20.955 -0.046 -20.958 -0.100 7.824 0.150 5.385 0.185 43.889 41.937
-31.400 -20.662 -0.091 -20.679 -0.086 -20.758 -0.069 -20.852 -0.057 -20.897 -0.051 -20.932 -0.046 -20.964 -0.046 -20.967 -0.100 7.820 0.150 5.410 0.186 43.892 41.938
-31.000 -20.670 -0.091 -20.687 -0.086 -20.767 -0.068 -20.860 -0.056 -20.906 -0.050 -20.941 -0.046 -20.973 -0.046 -20.977 -0.099 7.817 0.150 5.435 0.187 43.895 41.940
-30.600 -20.678 -0.090 -20.695 -0.085 -20.775 -0.067 -20.869 -0.055 -20.914 -0.050 -20.949 -0.046 -20.982 -0.046 -20.986 -0.098 7.815 0.150 5.460 0.188 43.899 41.942
-30.200 -20.686 -0.089 -20.703 -0.084 -20.784 -0.067 -20.877 -0.054 -20.922 -0.049 -20.957 -0.046 -20.990 -0.046 -20.995 -0.098 7.812 0.149 5.484 0.189 43.902 41.943
-29.800 -20.694 -0.089 -20.711 -0.084 -20.792 -0.066 -20.886 -0.054 -20.931 -0.049 -20.966 -0.046 -20.999 -0.046 -21.004 -0.097 7.810 0.149 5.507 0.190 43.905 41.945
-29.400 -20.702 -0.088 -20.719 -0.083 -20.801 -0.065 -20.894 -0.053 -20.939 -0.048 -20.974 -0.045 -21.007 -0.046 -21.013 -0.097 7.809 0.149 5.530 0.191 43.908 41.947
-29.000 -20.710 -0.087 -20.727 -0.082 -20.809 -0.064 -20.902 -0.052 -20.947 -0.048 -20.982 -0.045 -21.015 -0.046 -21.022 -0.096 7.807 0.149 5.552 0.192 43.912 41.949
-28.600 -20.717 -0.087 -20.735 -0.082 -20.817 -0.063 -20.910 -0.051 -20.955 -0.047 -20.990 -0.045 -21.023 -0.046 -21.031 -0.095 7.806 0.149 5.573 0.193 43.915 41.950
-28.200 -20.725 -0.086 -20.743 -0.081 -20.826 -0.062 -20.918 -0.050 -20.963 -0.047 -20.998 -0.045 -21.031 -0.046 -21.040 -0.095 7.806 0.149 5.594 0.193 43.918 41.952
-27.800 -20.733 -0.085 -20.751 -0.080 -20.834 -0.061 -20.926 -0.049 -20.971 -0.046 -21.006 -0.044 -21.039 -0.046 -21.049 -0.094 7.806 0.149 5.614 0.194 43.921 41.954
-27.400 -20.740 -0.084 -20.758 -0.079 -20.843 -0.060 -20.934 -0.048 -20.979 -0.046 -21.014 -0.044 -21.047 -0.045 -21.058 -0.093 7.806 0.150 5.634 0.195 43.924 41.956
-27.000 -20.748 -0.083 -20.766 -0.078 -20.851 -0.059 -20.942 -0.047 -20.987 -0.045 -21.022 -0.044 -21.055 -0.045 -21.066 -0.093 7.807 0.150 5.653 0.196 43.927 41.958
-26.600 -20.755 -0.083 -20.774 -0.078 -20.859 -0.058 -20.950 -0.046 -20.994 -0.044 -21.029 -0.044 -21.063 -0.045 -21.075 -0.092 7.808 0.150 5.672 0.197 43.930 41.960
-26.200 -20.763 -0.082 -20.781 -0.077 -20.867 -0.057 -20.958 -0.045 -21.002 -0.044 -21.037 -0.043 -21.070 -0.045 -21.083 -0.091 7.809 0.150 5.689 0.198 43.933 41.961
-25.800 -20.770 -0.081 -20.789 -0.076 -20.876 -0.056 -20.966 -0.044 -21.010 -0.043 -21.044 -0.043 -21.078 -0.045 -21.092 -0.091 7.811 0.150 5.706 0.198 43.936 41.963
-25.400 -20.777 -0.080 -20.796 -0.075 -20.884 -0.055 -20.974 -0.043 -21.017 -0.042 -21.052 -0.043 -21.085 -0.045 -21.100 -0.090 7.813 0.150 5.723 0.199 43.939 41.965
-25.000 -20.785 -0.079 -20.804 -0.074 -20.892 -0.054 -20.981 -0.042 -21.025 -0.041 -21.059 -0.042 -21.093 -0.045 -21.108 -0.089 7.815 0.150 5.739 0.200 43.942 41.967
-24.600 -20.792 -0.078 -20.811 -0.073 -20.900 -0.053 -20.989 -0.041 -21.032 -0.041 -21.066 -0.042 -21.100 -0.045 -21.116 -0.088 7.818 0.150 5.754 0.201 43.945 41.968
-24.200 -20.799 -0.077 -20.819 -0.072 -20.908 -0.052 -20.996 -0.039 -21.039 -0.040 -21.074 -0.042 -21.107 -0.045 -21.124 -0.088 7.821 0.151 5.769 0.201 43.948 41.970
-23.800 -20.806 -0.076 -20.826 -0.071 -20.916 -0.050 -21.004 -0.038 -21.047 -0.039 -21.081 -0.041 -21.114 -0.045 -21.132 -0.087 7.825 0.151 5.783 0.202 43.951 41.972
-23.400 -20.813 -0.075 -20.833 -0.070 -20.924 -0.049 -21.011 -0.037 -21.054 -0.038 -21.088 -0.041 -21.121 -0.044 -21.140 -0.086 7.828 0.151 5.797 0.203 43.954 41.973
-23.000 -20.820 -0.074 -20.840 -0.069 -20.932 -0.048 -21.019 -0.036 -21.061 -0.038 -21.095 -0.040 -21.128 -0.044 -21.148 -0.085 7.832 0.151 5.810 0.204 43.957 41.975
-22.600 -20.827 -0.073 -20.848 -0.068 -20.940 -0.047 -21.026 -0.034 -21.068 -0.037 -21.102 -0.040 -21.135 -0.044 -21.155 -0.084 7.836 0.151 5.823 0.204 43.960 41.976
-22.200 -20.834 -0.072 -20.855 -0.067 -20.948 -0.045 -21.033 -0.033 -21.075 -0.036 -21.109 -0.040 -21.142 -0.044 -21.163 -0.083 7.841 0.152 5.835 0.205 43.962 41.977
-21.800 -20.841 -0.071 -20.862 -0.066 -20.955 -0.044 -21.041 -0.032 -21.082 -0.035 -21.115 -0.039 -21.148 -0.044 -21.170 -0.082 7.845 0.152 5.847 0.206 43.965 41.978
-21.400 -20.848 -0.070 -20.869 -0.065 -20.963 -0.043 -21.048 -0.031 -21.089 -0.034 -21.122 -0.039 -21.155 -0.043 -21.178 -0.081 7.850 0.152 5.858 0.206 43.968 41.979
-21.000 -20.855 -0.069 -20.876 -0.063 -20.971 -0.041 -21.055 -0.029 -21.096 -0.034 -21.129 -0.038 -21.161 -0.043 -21.185 -0.081 7.855 0.152 5.869 0.207 43.971 41.980
-20.600 -20.861 -0.068 -20.882 -0.062 -20.979 -0.040 -21.062 -0.028 -21.103 -0.033 -21.135 -0.038 -21.168 -0.043 -21.192 -0.080 7.861 0.152 5.879 0.207 43.973 41.981
-20.200 -20.868 -0.067 -20.889 -0.061 -20.986 -0.039 -21.069 -0.027 -21.109 -0.032 -21.142 -0.037 -21.174 -0.042 -21.200 -0.079 7.866 0.152 5.889 0.207 43.976 41.981
-19.800 -20.874 -0.066 -20.896 -0.060 -20.994 -0.037 -21.076 -0.026 -21.116 -0.031 -21.148 -0.037 -21.181 -0.042 -21.207 -0.077 7.872 0.152 5.899 0.207 43.979 41.981
-19.400 -20.880 -0.065 -20.902 -0.059 -21.001 -0.036 -21.083 -0.024 -21.123 -0.031 -21.155 -0.037 -21.187 -0.042 -21.214 -0.076 7.878 0.152 5.908 0.207 43.981 41.980
-19.000 -20.887 -0.063 -20.909 -0.058 -21.009 -0.034 -21.090 -0.023 -21.129 -0.030 -21.161 -0.036 -21.193 -0.041 -21.220 -0.075 7.885 0.152 5.917 0.207 43.984 41.979
-18.600 -20.893 -0.062 -20.915 -0.057 -21.016 -0.033 -21.097 -0.022 -21.136 -0.030 -21.168 -0.036 -21.199 -0.041 -21.227 -0.074 7.891 0.151 5.926 0.206 43.987 41.977
-18.200 -20.899 -0.061 -20.922 -0.055 -21.024 -0.032 -21.104 -0.021 -21.143 -0.029 -21.174 -0.035 -21.205 -0.040 -21.234 -0.073 7.898 0.150 5.934 0.205 43.990 41.975
-17.800 -20.905 -0.060 -20.928 -0.054 -21.031 -0.030 -21.111 -0.020 -21.149 -0.028 -21.180 -0.035 -21.211 -0.040 -21.240 -0.072 7.904 0.149 5.943 0.204 43.992 41.971
-17.400 -20.911 -0.059 -20.934 -0.053 -21.038 -0.029 -21.118 -0.020 -21.156 -0.028 -21.186 -0.034 -21.217 -0.040 -21.247 -0.071 7.911 0.147 5.951 0.202 43.995 41.966
-17.000 -20.917 -0.057 -20.940 -0.052 -21.045 -0.028 -21.125 -0.019 -21.162 -0.028 -21.192 -0.034 -21.223 -0.039 -21.253 -0.070 7.917 0.145 5.960 0.199 43.998 41.960
-16.600 -20.922 -0.056 -20.946 -0.051 -21.052 -0.026 -21.132 -0.019 -21.169 -0.027 -21.199 -0.034 -21.229 -0.039 -21.260 -0.069 7.923 0.142 5.970 0.195 44.000 41.952
-16.200 -20.928 -0.055 -20.952 -0.049 -21.059 -0.025 -21.139 -0.018 -21.175 -0.027 -21.205 -0.033 -21.234 -0.038 -21.266 -0.067 7.929 0.139 5.981 0.191 44.003 41.942
-15.800 -20.934 -0.054 -20.958 -0.048 -21.066 -0.024 -21.145 -0.018 -21.181 -0.027 -21.210 -0.033 -21.240 -0.038 -21.272 -0.066 7.934 0.135 5.993 0.186 44.006 41.931
-15.400 -20.939 -0.053 -20.963 -0.047 -21.073 -0.023 -21.152 -0.018 -21.188 -0.026 -21.216 -0.032 -21.246 -0.037 -21.278 -0.065 7.938 0.130 6.006 0.180 44.009 41.917
-15.000 -20.944 -0.052 -20.969 -0.046 -21.080 -0.021 -21.159 -0.019 -21.194 -0.026 -21.222 -0.032 -21.251 -0.037 -21.284 -0.064 7.941 0.125 6.021 0.175 44.012 41.902
-14.600 -20.949 -0.050 -20.974 -0.045 -21.087 -0.020 -21.166 -0.019 -21.200 -0.026 -21.228 -0.032 -21.256 -0.036 -21.290 -0.062 7.943 0.121 6.036 0.169 44.014 41.886
-14.200 -20.954 -0.049 -20.980 -0.043 -21.093 -0.020 -21.172 -0.019 -21.206 -0.026 -21.234 -0.031 -21.262 -0.035 -21.295 -0.061 7.944 0.116 6.053 0.163 44.017 41.869
-13.800 -20.959 -0.048 -20.985 -0.042 -21.100 -0.019 -21.179 -0.020 -21.212 -0.026 -21.239 -0.031 -21.267 -0.035 -21.301 -0.060 7.944 0.111 6.072 0.157 44.020 41.852
-13.400 -20.964 -0.047 -20.990 -0.041 -21.106 -0.018 -21.185 -0.020 -21.218 -0.026 -21.245 -0.030 -21.272 -0.034 -21.306 -0.058 7.943 0.107 6.091 0.152 44.022 41.835
-13.000 -20.969 -0.046 -20.995 -0.040 -21.112 -0.017 -21.192 -0.021 -21.224 -0.025 -21.250 -0.030 -21.277 -0.034 -21.312 -0.057 7.942 0.103 6.112 0.147 44.025 41.819
-12.600 -20.973 -0.044 -21.000 -0.039 -21.119 -0.017 -21.198 -0.021 -21.230 -0.025 -21.256 -0.030 -21.282 -0.034 -21.317 -0.056 7.939 0.099 6.133 0.143 44.027 41.804
-12.200 -20.978 -0.043 -21.004 -0.038 -21.125 -0.017 -21.204 -0.022 -21.236 -0.025 -21.261 -0.029 -21.287 -0.033 -21.322 -0.054 7.935 0.096 6.156 0.139 44.030 41.791
-11.800 -20.982 -0.042 -21.009 -0.037 -21.130 -0.016 -21.211 -0.023 -21.242 -0.025 -21.266 -0.029 -21.292 -0.033 -21.327 -0.053 7.929 0.093 6.180 0.135 44.032 41.780
-11.400 -20.986 -0.041 -21.013 -0.036 -21.136 -0.016 -21.217 -0.023 -21.248 -0.025 -21.272 -0.029 -21.297 -0.032 -21.332 -0.052 7.923 0.090 6.206 0.132 44.034 41.770
-11.000 -20.990 -0.040 -21.017 -0.035 -21.141 -0.016 -21.223 -0.024 -21.253 -0.025 -21.277 -0.028 -21.301 -0.032 -21.337 -0.050 7.915 0.088 6.232 0.129 44.036 41.762
-10.600 -20.994 -0.039 -21.021 -0.034 -21.147 -0.017 -21.229 -0.024 -21.259 -0.025 -21.282 -0.028 -21.306 -0.032 -21.342 -0.049 7.906 0.085 6.260 0.127 44.038 41.755
-10.200 -20.998 -0.037 -21.025 -0.033 -21.152 -0.017 -21.234 -0.025 -21.264 -0.025 -21.287 -0.028 -21.310 -0.031 -21.347 -0.048 7.896 0.083 6.290 0.124 44.040 41.750
-9.800 -21.001 -0.036 -21.029 -0.032 -21.157 -0.017 -21.240 -0.025 -21.269 -0.025 -21.292 -0.027 -21.315 -0.031 -21.351 -0.046 7.885 0.081 6.320 0.122 44.042 41.744
-9.400 -21.005 -0.035 -21.032 -0.031 -21.162 -0.018 -21.245 -0.026 -21.275 -0.025 -21.296 -0.027 -21.319 -0.031 -21.356 -0.045 7.874 0.078 6.351 0.119 44.043 41.738
-9.000 -21.008 -0.034 -21.036 -0.030 -21.166 -0.018 -21.250 -0.026 -21.280 -0.025 -21.301 -0.027 -21.323 -0.030 -21.360 -0.044 7.861 0.076 6.382 0.116 44.045 41.731
-8.600 -21.011 -0.033 -21.039 -0.029 -21.171 -0.019 -21.256 -0.026 -21.285 -0.024 -21.306 -0.027 -21.327 -0.030 -21.365 -0.043 7.849 0.073 6.414 0.113 44.046 41.724
-8.200 -21.014 -0.032 -21.042 -0.028 -21.175 -0.020 -21.261 -0.027 -21.289 -0.024 -21.310 -0.026 -21.331 -0.030 -21.369 -0.041 7.836 0.071 6.446 0.111 44.048 41.716
-7.800 -21.017 -0.031 -21.045 -0.027 -21.179 -0.020 -21.265 -0.027 -21.294 -0.024 -21.314 -0.026 -21.335 -0.030 -21.373 -0.040 7.822 0.069 6.478 0.108 44.049 41.707
-7.400 -21.019 -0.030 -21.048 -0.026 -21.182 -0.021 -21.270 -0.028 -21.299 -0.024 -21.319 -0.026 -21.339 -0.030 -21.377 -0.039 7.809 0.066 6.509 0.104 44.050 41.696
-7.000 -21.022 -0.029 -21.051 -0.026 -21.186 -0.022 -21.275 -0.028 -21.303 -0.024 -21.323 -0.026 -21.343 -0.030 -21.381 -0.038 7.796 0.064 6.541 0.101 44.052 41.685
-6.600 -21.024 -0.029 -21.053 -0.025 -21.189 -0.023 -21.279 -0.028 -21.307 -0.024 -21.327 -0.026 -21.347 -0.029 -21.384 -0.037 7.783 0.061 6.572 0.098 44.053 41.673
-6.200 -21.026 -0.028 -21.056 -0.025 -21.192 -0.024 -21.283 -0.028 -21.311 -0.023 -21.331 -0.025 -21.350 -0.029 -21.388 -0.036 7.770 0.059 6.602 0.095 44.054 41.660
-5.800 -21.028 -0.027 -21.058 -0.024 -21.195 -0.024 -21.287 -0.029 -21.315 -0.023 -21.334 -0.025 -21.354 -0.029 -21.391 -0.035 7.757 0.056 6.632 0.092 44.055 41.647
-5.400 -21.030 -0.026 -21.060 -0.024 -21.198 -0.025 -21.291 -0.029 -21.319 -0.023 -21.338 -0.025 -21.357 -0.029 -21.395 -0.035 7.744 0.054 6.662 0.089 44.056 41.634
-5.000 -21.032 -0.026 -21.062 -0.023 -21.201 -0.026 -21.294 -0.029 -21.323 -0.023 -21.342 -0.025 -21.361 -0.029 -21.398 -0.034 7.732 0.052 6.690 0.087 44.057 41.621
-4.600 -21.033 -0.026 -21.063 -0.023 -21.203 -0.027 -21.298 -0.029 -21.326 -0.023 -21.345 -0.025 -21.364 -0.029 -21.401 -0.033 7.720 0.050 6.718 0.084 44.058 41.608
-4.200 -21.035 -0.025 -21.065 -0.023 -21.205 -0.027 -21.301 -0.030 -21.330 -0.023 -21.348 -0.025 -21.367 -0.029 -21.404 -0.033 7.709 0.048 6.744 0.082 44.059 41.596
-3.800 -21.036 -0.025 -21.067 -0.023 -21.207 -0.028 -21.304 -0.030 -21.333 -0.023 -21.351 -0.025 -21.370 -0.029 -21.407 -0.033 7.698 0.047 6.770 0.079 44.060 41.584
-3.400 -21.037 -0.025 -21.068 -0.023 -21.209 -0.029 -21.307 -0.030 -21.336 -0.023 -21.354 -0.025 -21.373 -0.029 -21.410 -0.033 7.687 0.045 6.795 0.077 44.060 41.573
-3.000 -21.039 -0.025 -21.069 -0.023 -21.211 -0.029 -21.309 -0.030 -21.338 -0.024 -21.357 -0.025 -21.375 -0.029 -21.412 -0.032 7.677 0.044 6.819 0.076 44.061 41.562
-2.600 -21.039 -0.025 -21.070 -0.023 -21.212 -0.030 -21.311 -0.031 -21.341 -0.024 -21.360 -0.025 -21.378 -0.029 -21.415 -0.032 7.667 0.043 6.842 0.074 44.062 41.553
-2.200 -21.040 -0.025 -21.071 -0.023 -21.214 -0.030 -21.314 -0.031 -21.343 -0.024 -21.362 -0.025 -21.380 -0.029 -21.417 -0.033 7.657 0.042 6.864 0.072 44.062 41.543
-1.800 -21.041 -0.025 -21.072 -0.024 -21.215 -0.031 -21.316 -0.031 -21.346 -0.024 -21.365 -0.025 -21.383 -0.029 -21.419 -0.033 7.648 0.041 6.886 0.071 44.063 41.534
-1.400 -21.041 -0.025 -21.072 -0.024 -21.216 -0.031 -21.317 -0.031 -21.348 -0.024 -21.367 -0.025 -21.385 -0.029 -21.422 -0.033 7.638 0.040 6.907 0.070 44.063 41.526
-1.000 -21.042 -0.026 -21.073 -0.024 -21.217 -0.032 -21.319 -0.032 -21.350 -0.025 -21.369 -0.025 -21.387 -0.029 -21.424 -0.033 7.629 0.039 6.927 0.069 44.064 41.519
-0.600 -21.042 -0.026 -21.073 -0.025 -21.217 -0.032 -21.320 -0.032 -21.351 -0.025 -21.371 -0.025 -21.389 -0.029 -21.425 -0.034 7.620 0.038 6.946 0.068 44.064 41.512
-0.200 -21.042 -0.026 -21.073 -0.025 -21.218 -0.032 -21.321 -0.032 -21.353 -0.025 -21.373 -0.025 -21.391 -0.029 -21.427 -0.034 7.612 0.038 6.965 0.067 44.065 41.505
0.200 -21.042 -0.026 -21.073 -0.025 -21.218 -0.032 -21.322 -0.032 -21.354 -0.025 -21.374 -0.025 -21.392 -0.029 -21.429 -0.034 7.603 0.037 6.983 0.066 44.065 41.499
0.600 -21.042 -0.027 -21.073 -0.026 -21.219 -0.033 -21.323 -0.032 -21.355 -0.026 -21.376 -0.025 -21.394 -0.029 -21.431 -0.035 7.595 0.037 7.001 0.066 44.065 41.493
1.000 -21.042 -0.027 -21.073 -0.026 -21.219 -0.033 -21.324 -0.032 -21.356 -0.026 -21.377 -0.025 -21.395 -0.029 -21.432 -0.035 7.586 0.036 7.018 0.065 44.065 41.488
1.400 -21.041 -0.027 -21.073 -0.026 -21.219 -0.033 -21.324 -0.032 -21.357 -0.026 -21.378 -0.025 -21.397 -0.029 -21.434 -0.035 7.578 0.036 7.035 0.065 44.065 41.484
1.800 -21.041 -0.028 -21.073 -0.026 -21.218 -0.033 -21.324 -0.032 -21.358 -0.026 -21.379 -0.025 -21.398 -0.029 -21.435 -0.036 7.569 0.036 7.051 0.064 44.066 41.480
2.200 -21.040 -0.028 -21.072 -0.027 -21.218 -0.033 -21.324 -0.032 -21.358 -0.026 -21.380 -0.025 -21.399 -0.029 -21.436 -0.036 7.561 0.035 7.066 0.064 44.066 41.478
2.600 -21.039 -0.028 -21.071 -0.027 -21.218 -0.033 -21.324 -0.032 -21.359 -0.026 -21.381 -0.025 -21.400 -0.029 -21.437 -0.036 7.553 0.035 7.081 0.064 44.066 41.476
3.000 -21.039 -0.028 -21.070 -0.027 -21.217 -0.033 -21.324 -0.032 -21.359 -0.026 -21.382 -0.025 -21.401 -0.028 -21.438 -0.036 7.545 0.035 7.096 0.064 44.065 41.475
3.400 -21.037 -0.028 -21.069 -0.027 -21.216 -0.033 -21.323 -0.032 -21.359 -0.026 -21.382 -0.025 -21.401 -0.028 -21.439 -0.037 7.537 0.035 7.110 0.065 44.065 41.475
3.800 -21.036 -0.029 -21.068 -0.027 -21.216 -0.032 -21.322 -0.032 -21.359 -0.026 -21.382 -0.024 -21.402 -0.028 -21.440 -0.037 7.528 0.036 7.124 0.065 44.065 41.477
4.200 -21.035 -0.029 -21.067 -0.027 -21.215 -0.032 -21.321 -0.032 -21.359 -0.026 -21.383 -0.024 -21.402 -0.028 -21.440 -0.037 7.520 0.036 7.137 0.066 44.065 41.480
4.600 -21.033 -0.029 -21.066 -0.027 -21.213 -0.032 -21.320 -0.032 -21.358 -0.026 -21.383 -0.024 -21.402 -0.027 -21.441 -0.037 7.512 0.036 7.150 0.067 44.065 41.484
5.000 -21.032 -0.029 -21.064 -0.027 -21.212 -0.032 -21.319 -0.031 -21.357 -0.026 -21.383 -0.024 -21.403 -0.027 -21.442 -0.037 7.504 0.037 7.163 0.069 44.064 41.490
5.400 -21.030 -0.029 -21.063 -0.027 -21.211 -0.031 -21.318 -0.031 -21.357 -0.026 -21.382 -0.024 -21.403 -0.027 -21.442 -0.038 7.496 0.038 7.176 0.070 44.064 41.497
5.800 -21.028 -0.029 -21.061 -0.027 -21.209 -0.031 -21.316 -0.031 -21.356 -0.026 -21.382 -0.023 -21.403 -0.026 -21.442 -0.038 7.487 0.039 7.188 0.072 44.063 41.506
6.200 -21.026 -0.029 -21.059 -0.027 -21.208 -0.031 -21.314 -0.030 -21.355 -0.026 -21.381 -0.023 -21.402 -0.026 -21.443 -0.038 7.479 0.040 7.200 0.074 44.063 41.516
6.600 -21.024 -0.029 -21.057 -0.027 -21.206 -0.030 -21.312 -0.030 -21.353 -0.025 -21.381 -0.023 -21.402 -0.026 -21.443 -0.038 7.470 0.041 7.211 0.077 44.062 41.527
7.000 -21.022 -0.029 -21.055 -0.027 -21.204 -0.030 -21.310 -0.030 -21.352 -0.025 -21.380 -0.023 -21.402 -0.025 -21.443 -0.038 7.462 0.042 7.223 0.079 44.062 41.539
7.400 -21.019 -0.029 -21.052 -0.027 -21.202 -0.029 -21.308 -0.029 -21.351 -0.025 -21.379 -0.023 -21.401 -0.025 -21.443 -0.038 7.453 0.044 7.235 0.082 44.061 41.552
7.800 -21.017 -0.029 -21.050 -0.027 -21.200 -0.029 -21.305 -0.029 -21.349 -0.025 -21.378 -0.022 -21.401 -0.025 -21.443 -0.038 7.444 0.045 7.247 0.086 44.060 41.566
8.200 -21.014 -0.029 -21.047 -0.027 -21.198 -0.028 -21.303 -0.028 -21.347 -0.024 -21.377 -0.022 -21.400 -0.024 -21.443 -0.038 7.434 0.047 7.258 0.089 44.059 41.581
8.600 -21.011 -0.029 -21.045 -0.027 -21.196 -0.028 -21.300 -0.028 -21.345 -0.024 -21.376 -0.022 -21.399 -0.024 -21.442 -0.037 7.425 0.049 7.270 0.093 44.059 41.596
9.000 -21.008 -0.028 -21.042 -0.027 -21.193 -0.027 -21.297 -0.027 -21.344 -0.024 -21.375 -0.022 -21.399 -0.023 -21.442 -0.037 7.415 0.051 7.283 0.097 44.058 41.612
9.400 -21.005 -0.028 -21.039 -0.026 -21.191 -0.027 -21.294 -0.027 -21.341 -0.024 -21.373 -0.022 -21.398 -0.023 -21.442 -0.037 7.405 0.053 7.295 0.102 44.057 41.628
9.800 -21.001 -0.028 -21.035 -0.026 -21.188 -0.026 -21.291 -0.026 -21.339 -0.023 -21.372 -0.022 -21.397 -0.023 -21.441 -0.037 7.394 0.055 7.308 0.107 44.056 41.644
10.200 -20.998 -0.028 -21.032 -0.026 -21.185 -0.026 -21.288 -0.026 -21.337 -0.023 -21.370 -0.021 -21.396 -0.022 -21.441 -0.037 7.383 0.058 7.322 0.112 44.055 41.660
10.600 -20.994 -0.028 -21.028 -0.026 -21.183 -0.025 -21.285 -0.025 -21.335 -0.023 -21.369 -0.021 -21.395 -0.022 -21.440 -0.037 7.372 0.060 7.336 0.117 44.054 41.676
11.000 -20.990 -0.028 -21.025 -0.026 -21.180 -0.025 -21.282 -0.025 -21.332 -0.023 -21.367 -0.021 -21.394 -0.022 -21.439 -0.037 7.360 0.063 7.351 0.123 44.053 41.692
11.400 -20.986 -0.028 -21.021 -0.026 -21.177 -0.024 -21.278 -0.024 -21.330 -0.022 -21.366 -0.021 -21.393 -0.022 -21.439 -0.036 7.347 0.065 7.366 0.129 44.052 41.707
11.800 -20.982 -0.028 -21.017 -0.026 -21.173 -0.024 -21.275 -0.024 -21.327 -0.022 -21.364 -0.021 -21.392 -0.022 -21.438 -0.036 7.335 0.068 7.382 0.135 44.051 41.723
12.200 -20.978 -0.028 -21.013 -0.026 -21.170 -0.024 -21.271 -0.023 -21.325 -0.022 -21.362 -0.021 -21.391 -0.022 -21.437 -0.036 7.321 0.071 7.399 0.141 44.050 41.737
12.600 -20.974 -0.028 -21.009 -0.026 -21.167 -0.023 -21.268 -0.023 -21.322 -0.022 -21.360 -0.020 -21.389 -0.022 -21.436 -0.036 7.307 0.073 7.417 0.147 44.048 41.751
13.000 -20.969 -0.028 -21.004 -0.026 -21.163 -0.023 -21.264 -0.023 -21.320 -0.021 -21.359 -0.020 -21.388 -0.022 -21.435 -0.036 7.293 0.076 7.436 0.153 44.047 41.765
13.400 -20.964 -0.028 -21.000 -0.026 -21.159 -0.023 -21.260 -0.022 -21.317 -0.021 -21.357 -0.020 -21.387 -0.022 -21.434 -0.036 7.278 0.079 7.455 0.159 44.046 41.777
13.800 -20.959 -0.028 -20.995 -0.026 -21.156 -0.023 -21.257 -0.022 -21.314 -0.021 -21.355 -0.020 -21.386 -0.022 -21.433 -0.036 7.263 0.081 7.475 0.165 44.045 41.788
14.200 -20.955 -0.028 -20.990 -0.026 -21.152 -0.023 -21.253 -0.022 -21.311 -0.021 -21.353 -0.020 -21.384 -0.022 -21.432 -0.036 7.247 0.083 7.497 0.171 44.043 41.798
14.600 -20.949 -0.028 -20.985 -0.026 -21.148 -0.023 -21.249 -0.022 -21.308 -0.021 -21.351 -0.020 -21.383 -0.022 -21.430 -0.036 7.231 0.085 7.519 0.176 44.042 41.807
15.000 -20.944 -0.029 -20.980 -0.026 -21.144 -0.023 -21.246 -0.022 -21.306 -0.021 -21.349 -0.020 -21.382 -0.022 -21.429 -0.035 7.214 0.087 7.542 0.181 44.041 41.814
15.400 -20.939 -0.029 -20.975 -0.026 -21.139 -0.023 -21.242 -0.022 -21.303 -0.021 -21.347 -0.020 -21.380 -0.022 -21.428 -0.036 7.197 0.088 7.567 0.185 44.039 41.820
15.800 -20.933 -0.029 -20.970 -0.027 -21.135 -0.023 -21.238 -0.022 -21.300 -0.021 -21.345 -0.020 -21.379 -0.022 -21.426 -0.036 7.179 0.089 7.592 0.189 44.038 41.825
16.200 -20.928 -0.029 -20.964 -0.027 -21.131 -0.023 -21.235 -0.022 -21.297 -0.021 -21.343 -0.020 -21.377 -0.023 -21.425 -0.036 7.161 0.090 7.618 0.192 44.037 41.829
16.600 -20.922 -0.029 -20.959 -0.027 -21.126 -0.023 -21.231 -0.022 -21.294 -0.021 -21.340 -0.020 -21.376 -0.023 -21.424 -0.036 7.143 0.091 7.645 0.195 44.035 41.832
17.000 -20.917 -0.030 -20.953 -0.027 -21.121 -0.023 -21.227 -0.022 -21.291 -0.021 -21.338 -0.020 -21.374 -0.023 -21.422 -0.036 7.124 0.091 7.673 0.198 44.034 41.835
17.400 -20.911 -0.030 -20.948 -0.027 -21.116 -0.024 -21.223 -0.022 -21.288 -0.021 -21.336 -0.020 -21.372 -0.023 -21.421 -0.036 7.106 0.092 7.701 0.200 44.032 41.837
17.800 -20.905 -0.030 -20.942 -0.028 -21.111 -0.024 -21.220 -0.022 -21.284 -0.021 -21.334 -0.020 -21.370 -0.023 -21.419 -0.036 7.087 0.092 7.729 0.202 44.031 41.839
18.200 -20.899 -0.030 -20.936 -0.028 -21.107 -0.024 -21.216 -0.022 -21.281 -0.021 -21.331 -0.020 -21.368 -0.023 -21.417 -0.036 7.068 0.092 7.757 0.204 44.029 41.840
18.600 -20.893 -0.030 -20.930 -0.028 -21.102 -0.025 -21.212 -0.022 -21.278 -0.021 -21.329 -0.020 -21.366 -0.023 -21.416 -0.036 7.050 0.092 7.786 0.206 44.028 41.842
19.000 -20.887 -0.031 -20.924 -0.028 -21.096 -0.025 -21.208 -0.023 -21.275 -0.021 -21.326 -0.020 -21.364 -0.024 -21.414 -0.036 7.031 0.092 7.814 0.208 44.027 41.843
19.400 -20.881 -0.031 -20.918 -0.028 -21.091 -0.025 -21.205 -0.023 -21.272 -0.021 -21.323 -0.020 -21.362 -0.024 -21.412 -0.036 7.012 0.092 7.842 0.210 44.025 41.844
19.800 -20.874 -0.031 -20.912 -0.029 -21.086 -0.025 -21.201 -0.023 -21.268 -0.021 -21.321 -0.020 -21.360 -0.024 -21.410 -0.036 6.994 0.092 7.869 0.211 44.024 41.845
20.200 -20.868 -0.031 -20.906 -0.029 -21.081 -0.026 -21.197 -0.023 -21.265 -0.021 -21.318 -0.020 -21.357 -0.024 -21.408 -0.036 6.976 0.092 7.896 0.213 44.022 41.846
20.600 -20.861 -0.031 -20.900 -0.029 -21.076 -0.026 -21.193 -0.023 -21.262 -0.021 -21.315 -0.020 -21.355 -0.024 -21.407 -0.036 6.958 0.092 7.923 0.214 44.021 41.846
21.000 -20.855 -0.031 -20.894 -0.029 -21.071 -0.026 -21.189 -0.023 -21.258 -0.021 -21.312 -0.020 -21.352 -0.024 -21.405 -0.036 6.941 0.092 7.949 0.215 44.019 41.847
21.400 -20.848 -0.031 -20.887 -0.029 -21.066 -0.026 -21.186 -0.022 -21.255 -0.021 -21.309 -0.020 -21.350 -0.024 -21.403 -0.036 6.923 0.091 7.975 0.217 44.018 41.848
21.800 -20.842 -0.031 -20.881 -0.029 -21.060 -0.026 -21.182 -0.022 -21.251 -0.021 -21.306 -0.020 -21.347 -0.024 -21.401 -0.036 6.906 0.091 8.001 0.218 44.016 41.848
22.200 -20.835 -0.031 -20.874 -0.029 -21.055 -0.026 -21.178 -0.022 -21.248 -0.021 -21.302 -0.021 -21.344 -0.024 -21.399 -0.036 6.889 0.091 8.026 0.219 44.014 41.849
22.600 -20.828 -0.031 -20.868 -0.029 -21.050 -0.026 -21.174 -0.022 -21.245 -0.021 -21.299 -0.021 -21.342 -0.024 -21.397 -0.036 6.873 0.091 8.050 0.220 44.013 41.849
23.000 -20.822 -0.031 -20.861 -0.029 -21.045 -0.026 -21.170 -0.022 -21.241 -0.021 -21.296 -0.021 -21.339 -0.024 -21.394 -0.036 6.856 0.090 8.075 0.221 44.011 41.849
23.400 -20.815 -0.031 -20.855 -0.029 -21.040 -0.026 -21.166 -0.021 -21.238 -0.021 -21.293 -0.021 -21.336 -0.024 -21.392 -0.036 6.840 0.090 8.099 0.222 44.010 41.850
23.800 -20.808 -0.031 -20.848 -0.029 -21.035 -0.026 -21.163 -0.021 -21.234 -0.020 -21.289 -0.021 -21.333 -0.024 -21.390 -0.036 6.824 0.089 8.122 0.222 44.008 41.850
24.200 -20.801 -0.031 -20.841 -0.028 -21.030 -0.025 -21.159 -0.020 -21.231 -0.020 -21.286 -0.021 -21.330 -0.024 -21.388 -0.036 6.808 0.089 8.146 0.223 44.007 41.850
24.600 -20.794 -0.030 -20.835 -0.028 -21.025 -0.025 -21.155 -0.020 -21.227 -0.020 -21.283 -0.021 -21.327 -0.024 -21.386 -0.036 6.792 0.089 8.169 0.223 44.005 41.850
25.000 -20.787 -0.030 -20.828 -0.028 -21.020 -0.025 -21.152 -0.020 -21.224 -0.020 -21.279 -0.021 -21.323 -0.024 -21.383 -0.036 6.776 0.088 8.192 0.224 44.004 41.850
25.400 -20.779 -0.030 -20.821 -0.028 -21.015 -0.024 -21.148 -0.019 -21.221 -0.020 -21.276 -0.021 -21.320 -0.024 -21.381 -0.035 6.760 0.087 8.216 0.224 44.002 41.850
25.800 -20.772 -0.030 -20.814 -0.027 -21.011 -0.024 -21.144 -0.019 -21.217 -0.020 -21.272 -0.021 -21.317 -0.024 -21.379 -0.035 6.745 0.087 8.239 0.224 44.000 41.850
26.200 -20.765 -0.029 -20.807 -0.027 -21.006 -0.023 -21.141 -0.018 -21.214 -0.020 -21.269 -0.021 -21.314 -0.024 -21.376 -0.035 6.729 0.086 8.263 0.224 43.999 41.850
26.600 -20.757 -0.029 -20.800 -0.027 -21.001 -0.023 -21.138 -0.018 -21.211 -0.019 -21.266 -0.021 -21.311 -0.023 -21.374 -0.035 6.714 0.085 8.287 0.224 43.998 41.849
27.000 -20.750 -0.029 -20.793 -0.026 -20.996 -0.022 -21.134 -0.018 -21.208 -0.019 -21.262 -0.021 -21.307 -0.023 -21.371 -0.035 6.698 0.084 8.312 0.223 43.996 41.849
27.400 -20.742 -0.028 -20.786 -0.026 -20.992 -0.022 -21.131 -0.017 -21.204 -0.019 -21.259 -0.021 -21.304 -0.023 -21.369 -0.035 6.683 0.083 8.337 0.223 43.995 41.849
27.800 -20.735 -0.028 -20.778 -0.026 -20.987 -0.021 -21.128 -0.017 -21.201 -0.019 -21.256 -0.021 -21.301 -0.023 -21.366 -0.035 6.667 0.082 8.363 0.222 43.993 41.848
28.200 -20.727 -0.028 -20.771 -0.026 -20.983 -0.020 -21.125 -0.017 -21.198 -0.019 -21.252 -0.021 -21.298 -0.023 -21.363 -0.035 6.652 0.081 8.390 0.220 43.992 41.848
28.600 -20.720 -0.028 -20.764 -0.025 -20.978 -0.020 -21.122 -0.017 -21.195 -0.019 -21.249 -0.020 -21.295 -0.023 -21.361 -0.035 6.636 0.080 8.418 0.219 43.991 41.848
29.000 -20.712 -0.027 -20.757 -0.025 -20.974 -0.019 -21.119 -0.017 -21.192 -0.019 -21.246 -0.020 -21.291 -0.023 -21.358 -0.035 6.621 0.079 8.446 0.218 43.990 41.850
29.400 -20.704 -0.027 -20.749 -0.025 -20.969 -0.019 -21.117 -0.017 -21.189 -0.019 -21.242 -0.020 -21.288 -0.023 -21.355 -0.035 6.605 0.078 8.476 0.217 43.989 41.852
29.800 -20.696 -0.027 -20.742 -0.024 -20.965 -0.018 -21.114 -0.018 -21.186 -0.019 -21.239 -0.020 -21.285 -0.022 -21.352 -0.035 6.589 0.077 8.505 0.218 43.988 41.858
30.200 -20.688 -0.027 -20.734 -0.024 -20.960 -0.017 -21.112 -0.018 -21.183 -0.019 -21.236 -0.020 -21.282 -0.022 -21.349 -0.035 6.574 0.077 8.535 0.219 43.987 41.865
30.600 -20.681 -0.027 -20.727 -0.024 -20.956 -0.017 -21.109 -0.018 -21.180 -0.019 -21.232 -0.020 -21.278 -0.022 -21.346 -0.035 6.559 0.077 8.565 0.222 43.985 41.876
31.000 -20.673 -0.027 -20.719 -0.024 -20.951 -0.016 -21.107 -0.019 -21.177 -0.020 -21.229 -0.020 -21.275 -0.022 -21.343 -0.035 6.543 0.078 8.594 0.227 43.984 41.889
31.400 -20.665 -0.027 -20.712 -0.024 -20.947 -0.016 -21.104 -0.019 -21.174 -0.020 -21.226 -0.020 -21.272 -0.022 -21.340 -0.035 6.528 0.079 8.624 0.232 43.983 41.904
31.800 -20.657 -0.027 -20.704 -0.024 -20.943 -0.015 -21.102 -0.020 -21.171 -0.020 -21.222 -0.020 -21.268 -0.022 -21.337 -0.035 6.513 0.081 8.653 0.239 43.982 41.920
32.200 -20.648 -0.027 -20.696 -0.024 -20.938 -0.015 -21.100 -0.021 -21.168 -0.020 -21.219 -0.020 -21.265 -0.022 -21.334 -0.036 6.498 0.083 8.681 0.247 43.981 41.938
32.600 -20.640 -0.027 -20.689 -0.024 -20.934 -0.015 -21.097 -0.021 -21.165 -0.020 -21.215 -0.020 -21.262 -0.022 -21.330 -0.036 6.484 0.085 8.710 0.256 43.980 41.956
33.000 -20.632 -0.027 -20.681 -0.024 -20.929 -0.014 -21.094 -0.022 -21.162 -0.021 -21.212 -0.020 -21.258 -0.022 -21.327 -0.036 6.469 0.087 8.737 0.265 43.979 41.974
33.400 -20.624 -0.027 -20.673 -0.024 -20.924 -0.014 -21.092 -0.022 -21.158 -0.021 -21.208 -0.020 -21.254 -0.022 -21.324 -0.036 6.455 0.089 8.764 0.274 43.978 41.992
33.800 -20.616 -0.027 -20.665 -0.024 -20.919 -0.014 -21.089 -0.023 -21.155 -0.021 -21.204 -0.020 -21.250 -0.022 -21.320 -0.036 6.440 0.092 8.790 0.284 43.976 42.009
34.200 -20.607 -0.027 -20.657 -0.024 -20.915 -0.014 -21.086 -0.024 -21.152 -0.022 -21.200 -0.020 -21.247 -0.022 -21.316 -0.036 6.426 0.094 8.816 0.293 43.975 42.025
34.600 -20.599 -0.027 -20.649 -0.024 -20.909 -0.014 -21.083 -0.024 -21.148 -0.022 -21.196 -0.020 -21.243 -0.022 -21.312 -0.036 6.412 0.096 8.841 0.303 43.974 42.040
35.000 -20.590 -0.027 -20.641 -0.024 -20.904 -0.014 -21.080 -0.025 -21.145 -0.022 -21.192 -0.020 -21.239 -0.022 -21.309 -0.037 6.398 0.098 8.866 0.311 43.972 42.054
35.400 -20.582 -0.028 -20.633 -0.024 -20.899 -0.014 -21.077 -0.025 -21.141 -0.022 -21.188 -0.020 -21.234 -0.022 -21.305 -0.037 6.383 0.100 8.890 0.319 43.971 42.066
35.800 -20.573 -0.028 -20.625 -0.025 -20.893 -0.014 -21.073 -0.026 -21.137 -0.023 -21.184 -0.020 -21.230 -0.022 -21.300 -0.037 6.369 0.102 8.914 0.327 43.969 42.077
36.200 -20.565 -0.028 -20.616 -0.025 -20.887 -0.014 -21.070 -0.027 -21.133 -0.023 -21.180 -0.021 -21.226 -0.022 -21.296 -0.037 6.355 0.103 8.937 0.333 43.968 42.086
36.600 -20.556 -0.029 -20.608 -0.025 -20.881 -0.014 -21.066 -0.027 -21.129 -0.023 -21.175 -0.021 -21.221 -0.023 -21.292 -0.037 6.340 0.104 8.961 0.339 43.966 42.094
37.000 -20.547 -0.029 -20.599 -0.026 -20.874 -0.014 -21.062 -0.028 -21.125 -0.024 -21.170 -0.021 -21.216 -0.023 -21.287 -0.038 6.326 0.105 8.984 0.344 43.964 42.101
37.400 -20.538 -0.029 -20.591 -0.026 -20.868 -0.015 -21.058 -0.028 -21.120 -0.024 -21.166 -0.021 -21.211 -0.023 -21.283 -0.038 6.311 0.105 9.006 0.348 43.962 42.106
37.800 -20.529 -0.030 -20.582 -0.026 -20.861 -0.015 -21.053 -0.029 -21.116 -0.024 -21.161 -0.021 -21.206 -0.024 -21.278 -0.038 6.296 0.105 9.029 0.350 43.960 42.109
38.200 -20.520 -0.030 -20.573 -0.027 -20.853 -0.015 -21.048 -0.029 -21.111 -0.025 -21.156 -0.021 -21.201 -0.024 -21.273 -0.038 6.281 0.105 9.051 0.351 43.958 42.110
38.600 -20.511 -0.031 -20.564 -0.027 -20.846 -0.016 -21.044 -0.030 -21.106 -0.025 -21.151 -0.022 -21.196 -0.024 -21.268 -0.038 6.266 0.104 9.073 0.351 43.956 42.110
39.000 -20.502 -0.031 -20.555 -0.027 -20.838 -0.016 -21.038 -0.030 -21.101 -0.025 -21.145 -0.022 -21.190 -0.025 -21.263 -0.039 6.250 0.103 9.096 0.350 43.954 42.108
39.400 -20.493 -0.032 -20.546 -0.028 -20.830 -0.017 -21.033 -0.031 -21.095 -0.026 -21.140 -0.022 -21.184 -0.025 -21.258 -0.039 6.235 0.102 9.119 0.347 43.952 42.104
39.800 -20.484 -0.032 -20.537 -0.028 -20.821 -0.017 -21.027 -0.031 -21.090 -0.026 -21.134 -0.022 -21.179 -0.025 -21.252 -0.039 6.219 0.100 9.141 0.343 43.950 42.098
40.200 -20.474 -0.033 -20.527 -0.029 -20.812 -0.018 -21.021 -0.032 -21.084 -0.026 -21.128 -0.023 -21.173 -0.026 -21.246 -0.039 6.203 0.098 9.163 0.339 43.947 42.091
40.600 -20.465 -0.033 -20.518 -0.030 -20.803 -0.019 -21.015 -0.032 -21.078 -0.027 -21.122 -0.023 -21.166 -0.026 -21.241 -0.040 6.187 0.096 9.184 0.333 43.945 42.083
41.000 -20.455 -0.034 -20.508 -0.030 -20.793 -0.019 -21.009 -0.033 -21.072 -0.027 -21.115 -0.023 -21.160 -0.027 -21.235 -0.040 6.172 0.094 9.203 0.328 43.942 42.075
41.400 -20.445 -0.034 -20.499 -0.031 -20.784 -0.020 -21.002 -0.033 -21.065 -0.027 -21.109 -0.024 -21.153 -0.027 -21.229 -0.040 6.156 0.092 9.220 0.322 43.940 42.065
41.800 -20.435 -0.035 -20.489 -0.031 -20.774 -0.021 -20.995 -0.034 -21.059 -0.028 -21.102 -0.024 -21.147 -0.027 -21.222 -0.040 6.142 0.090 9.236 0.316 43.937 42.055
42.200 -20.425 -0.036 -20.479 -0.032 -20.763 -0.022 -20.988 -0.034 -21.052 -0.028 -21.095 -0.025 -21.140 -0.028 -21.216 -0.041 6.128 0.087 9.250 0.310 43.934 42.045
42.600 -20.415 -0.037 -20.469 -0.033 -20.753 -0.023 -20.980 -0.035 -21.044 -0.029 -21.088 -0.025 -21.133 -0.028 -21.209 -0.041 6.114 0.085 9.261 0.304 43.931 42.034
43.000 -20.405 -0.037 -20.458 -0.033 -20.743 -0.024 -20.973 -0.035 -21.037 -0.029 -21.081 -0.025 -21.125 -0.028 -21.203 -0.042 6.099 0.083 9.276 0.298 43.929 42.024
43.400 -20.395 -0.038 -20.448 -0.034 -20.732 -0.025 -20.965 -0.036 -21.029 -0.030 -21.073 -0.026 -21.118 -0.029 -21.196 -0.042 6.086 0.081 9.283 0.291 43.926 42.012
43.800 -20.385 -0.039 -20.438 -0.035 -20.721 -0.026 -20.956 -0.036 -21.021 -0.030 -21.065 -0.026 -21.110 -0.029 -21.189 -0.042 6.074 0.079 9.286 0.285 43.922 42.001
44.200 -20.374 -0.040 -20.427 -0.036 -20.710 -0.027 -20.948 -0.037 -21.013 -0.031 -21.057 -0.027 -21.102 -0.029 -21.181 -0.043 6.063 0.078 9.288 0.279 43.919 41.989
44.600 -20.364 -0.040 -20.416 -0.036 -20.699 -0.028 -20.939 -0.037 -21.005 -0.031 -21.049 -0.027 -21.094 -0.030 -21.174 -0.043 6.052 0.076 9.287 0.274 43.916 41.977
45.000 -20.353 -0.041 -20.406 -0.037 -20.687 -0.029 -20.930 -0.038 -20.996 -0.032 -21.041 -0.028 -21.086 -0.030 -21.166 -0.044 6.041 0.074 9.284 0.268 43.913 41.965
45.400 -20.342 -0.042 -20.395 -0.038 -20.676 -0.030 -20.920 -0.038 -20.987 -0.032 -21.032 -0.028 -21.078 -0.030 -21.159 -0.044 6.031 0.072 9.279 0.262 43.909 41.953
45.800 -20.331 -0.043 -20.384 -0.039 -20.664 -0.031 -20.911 -0.039 -20.978 -0.033 -21.023 -0.029 -21.069 -0.031 -21.151 -0.045 6.022 0.071 9.271 0.256 43.906 41.940
46.200 -20.321 -0.044 -20.373 -0.040 -20.652 -0.032 -20.901 -0.040 -20.969 -0.033 -21.014 -0.029 -21.060 -0.031 -21.143 -0.046 6.013 0.069 9.261 0.249 43.902 41.926
46.600 -20.310 -0.045 -20.361 -0.041 -20.640 -0.033 -20.891 -0.040 -20.959 -0.034 -21.004 -0.029 -21.051 -0.031 -21.135 -0.046 6.004 0.067 9.250 0.243 43.899 41.913
47.000 -20.299 -0.046 -20.350 -0.042 -20.628 -0.034 -20.881 -0.041 -20.949 -0.034 -20.995 -0.030 -21.041 -0.031 -21.126 -0.047 5.995 0.065 9.236 0.237 43.895 41.898
47.400 -20.287 -0.047 -20.339 -0.043 -20.615 -0.034 -20.870 -0.041 -20.939 -0.035 -20.985 -0.030 -21.032 -0.032 -21.118 -0.048 5.988 0.063 9.220 0.230 43.891 41.883
47.800 -20.276 -0.047 -20.327 -0.043 -20.603 -0.035 -20.859 -0.042 -20.929 -0.036 -20.975 -0.031 -21.022 -0.032 -21.109 -0.049 5.980 0.062 9.203 0.224 43.887 41.868
48.200 -20.265 -0.048 -20.316 -0.044 -20.590 -0.036 -20.848 -0.042 -20.919 -0.036 -20.965 -0.031 -21.012 -0.032 -21.100 -0.049 5.973 0.060 9.183 0.217 43.884 41.851
48.600 -20.253 -0.049 -20.304 -0.045 -20.578 -0.037 -20.837 -0.043 -20.908 -0.037 -20.955 -0.032 -21.002 -0.032 -21.091 -0.050 5.966 0.058 9.162 0.210 43.879 41.833
49.000 -20.242 -0.050 -20.292 -0.046 -20.565 -0.038 -20.825 -0.044 -20.897 -0.037 -20.944 -0.032 -20.992 -0.033 -21.082 -0.051 5.960 0.056 9.138 0.202 43.875 41.815
49.400 -20.230 -0.051 -20.281 -0.047 -20.552 -0.039 -20.814 -0.044 -20.886 -0.038 -20.933 -0.033 -20.981 -0.033 -21.073 -0.052 5.953 0.054 9.113 0.195 43.871 41.795
49.800 -20.219 -0.052 -20.269 -0.048 -20.539 -0.039 -20.802 -0.045 -20.874 -0.039 -20.922 -0.033 -20.970 -0.033 -21.063 -0.053 5.948 0.052 9.086 0.187 43.867 41.775
50.200 -20.207 -0.053 -20.257 -0.049 -20.526 -0.040 -20.790 -0.045 -20.863 -0.039 -20.911 -0.034 -20.959 -0.033 -21.053 -0.054 5.942 0.050 9.057 0.179 43.863 41.753
50.600 -20.195 -0.054 -20.245 -0.050 -20.513 -0.041 -20.777 -0.046 -20.851 -0.040 -20.899 -0.034 -20.948 -0.033 -21.044 -0.056 5.937 0.048 9.026 0.171 43.858 41.729
51.000 -20.183 -0.055 -20.232 -0.051 -20.499 -0.041 -20.765 -0.046 -20.839 -0.040 -20.887 -0.035 -20.937 -0.034 -21.034 -0.057 5.932 0.045 8.994 0.162 43.854 41.704
51.400 -20.171 -0.056 -20.220 -0.052 -20.486 -0.042 -20.752 -0.047 -20.827 -0.041 -20.876 -0.035 -20.925 -0.034 -21.024 -0.058 5.928 0.043 8.960 0.154 43.849 41.678
51.800 -20.159 -0.057 -20.208 -0.052 -20.472 -0.043 -20.739 -0.047 -20.814 -0.041 -20.864 -0.036 -20.913 -0.034 -21.014 -0.059 5.924 0.041 8.924 0.145 43.844 41.649
52.200 -20.147 -0.058 -20.195 -0.053 -20.458 -0.043 -20.726 -0.048 -20.802 -0.042 -20.851 -0.036 -20.901 -0.034 -21.003 -0.060 5.920 0.038 8.887 0.136 43.840 41.619
52.600 -20.135 -0.059 -20.183 -0.054 -20.445 -0.044 -20.713 -0.049 -20.789 -0.043 -20.839 -0.037 -20.889 -0.034 -20.993 -0.061 5.917 0.036 8.847 0.127 43.835 41.587
53.000 -20.122 -0.060 -20.170 -0.055 -20.431 -0.044 -20.700 -0.049 -20.776 -0.043 -20.826 -0.037 -20.877 -0.034 -20.982 -0.063 5.914 0.034 8.807 0.118 43.830 41.551
53.400 -20.110 -0.060 -20.158 -0.056 -20.417 -0.045 -20.686 -0.050 -20.763 -0.044 -20.813 -0.037 -20.865 -0.035 -20.972 -0.064 5.911 0.031 8.765 0.109 43.825 41.514
53.800 -20.098 -0.061 -20.145 -0.057 -20.403 -0.045 -20.672 -0.050 -20.750 -0.044 -20.800 -0.038 -20.852 -0.035 -20.961 -0.065 5.909 0.029 8.721 0.100 43.820 41.473
54.200 -20.085 -0.062 -20.132 -0.057 -20.389 -0.045 -20.658 -0.051 -20.736 -0.045 -20.787 -0.038 -20.839 -0.035 -20.950 -0.066 5.907 0.026 8.676 0.091 43.815 41.428
54.600 -20.073 -0.063 -20.120 -0.058 -20.375 -0.046 -20.644 -0.051 -20.722 -0.045 -20.774 -0.039 -20.826 -0.035 -20.939 -0.067 5.905 0.024 8.629 0.082 43.810 41.379
55.000 -20.060 -0.064 -20.107 -0.059 -20.360 -0.046 -20.630 -0.051 -20.709 -0.046 -20.760 -0.039 -20.813 -0.035 -20.928 -0.069 5.903 0.021 8.582 0.073 43.804 41.326
55.400 -20.047 -0.065 -20.094 -0.059 -20.346 -0.046 -20.616 -0.052 -20.695 -0.046 -20.747 -0.039 -20.800 -0.036 -20.916 -0.070 5.902 0.019 8.532 0.064 43.799 41.266
55.800 -20.035 -0.065 -20.081 -0.060 -20.332 -0.047 -20.601 -0.052 -20.681 -0.047 -20.733 -0.040 -20.786 -0.036 -20.905 -0.071 5.901 0.016 8.482 0.056 43.794 41.201
56.200 -20.022 -0.066 -20.068 -0.061 -20.317 -0.047 -20.587 -0.053 -20.666 -0.047 -20.719 -0.040 -20.773 -0.036 -20.894 -0.072 5.901 0.014 8.430 0.047 43.788 41.129
56.600 -20.009 -0.067 -20.055 -0.061 -20.303 -0.047 -20.572 -0.053 -20.652 -0.048 -20.705 -0.041 -20.759 -0.036 -20.882 -0.074 5.900 0.012 8.378 0.040 43.783 41.052
57.000 -19.996 -0.067 -20.041 -0.062 -20.288 -0.047 -20.557 -0.054 -20.638 -0.048 -20.691 -0.041 -20.745 -0.037 -20.870 -0.075 5.900 0.010 8.324 0.034 43.777 40.974
57.400 -19.983 -0.068 -20.028 -0.063 -20.273 -0.047 -20.543 -0.054 -20.623 -0.049 -20.676 -0.041 -20.731 -0.037 -20.859 -0.076 5.901 0.009 8.269 0.029 43.771 40.910
57.800 -19.970 -0.069 -20.015 -0.063 -20.259 -0.047 -20.528 -0.054 -20.608 -0.049 -20.662 -0.042 -20.717 -0.037 -20.847 -0.077 5.901 0.008 8.214 0.027 43.766 40.880
58.200 -19.957 -0.070 -20.002 -0.064 -20.244 -0.047 -20.513 -0.055 -20.594 -0.050 -20.647 -0.042 -20.703 -0.037 -20.835 -0.079 5.902 0.009 8.157 0.029 43.760 40.899
58.600 -19.944 -0.070 -19.988 -0.064 -20.229 -0.047 -20.497 -0.055 -20.579 -0.050 -20.633 -0.043 -20.689 -0.038 -20.823 -0.080 5.903 0.010 8.100 0.033 43.754 40.954
59.000 -19.931 -0.071 -19.975 -0.065 -20.214 -0.048 -20.482 -0.055 -20.564 -0.050 -20.618 -0.043 -20.674 -0.038 -20.811 -0.081 5.905 0.012 8.042 0.039 43.748 41.022
59.400 -19.918 -0.071 -19.962 -0.066 -20.199 -0.048 -20.467 -0.056 -20.549 -0.051 -20.603 -0.044 -20.660 -0.039 -20.799 -0.082 5.906 0.014 7.984 0.046 43.742 41.090
59.800 -19.905 -0.072 -19.948 -0.066 -20.185 -0.048 -20.451 -0.056 -20.533 -0.051 -20.588 -0.044 -20.645 -0.039 -20.786 -0.084 5.908 0.017 7.925 0.053 43.737 41.153
60.200 -19.892 -0.073 -19.935 -0.067 -20.170 -0.048 -20.436 -0.056 -20.518 -0.052 -20.573 -0.044 -20.630 -0.039 -20.774 -0.085 5.910 0.019 7.866 0.061 43.731 41.210
60.600 -19.879 -0.073 -19.921 -0.067 -20.155 -0.048 -20.420 -0.057 -20.503 -0.052 -20.558 -0.045 -20.616 -0.040 -20.762 -0.086 5.912 0.022 7.806 0.069 43.725 41.261
61.000 -19.865 -0.074 -19.908 -0.067 -20.140 -0.048 -20.405 -0.057 -20.487 -0.053 -20.543 -0.045 -20.601 -0.040 -20.749 -0.087 5.914 0.025 7.747 0.077 43.719 41.307
61.400 -19.852 -0.074 -19.894 -0.068 -20.125 -0.048 -20.389 -0.057 -20.472 -0.053 -20.527 -0.046 -20.586 -0.041 -20.737 -0.088 5.916 0.027 7.687 0.085 43.712 41.347
61.800 -19.839 -0.075 -19.881 -0.068 -20.109 -0.048 -20.373 -0.058 -20.456 -0.053 -20.512 -0.046 -20.571 -0.041 -20.724 -0.090 5.919 0.030 7.626 0.093 43.706 41.384
62.200 -19.826 -0.075 -19.867 -0.069 -20.094 -0.048 -20.358 -0.058 -20.441 -0.054 -20.497 -0.047 -20.556 -0.042 -20.712 -0.091 5.922 0.033 7.566 0.101 43.700 41.417
62.600 -19.812 -0.076 -19.854 -0.069 -20.079 -0.048 -20.342 -0.058 -20.425 -0.054 -20.481 -0.047 -20.541 -0.042 -20.699 -0.092 5.924 0.036 7.506 0.108 43.694 41.448
63.000 -19.799 -0.076 -19.840 -0.070 -20.064 -0.048 -20.326 -0.058 -20.409 -0.055 -20.466 -0.048 -20.526 -0.043 -20.687 -0.093 5.927 0.039 7.445 0.116 43.688 41.475
63.400 -19.786 -0.077 -19.826 -0.070 -20.049 -0.048 -20.310 -0.059 -20.394 -0.055 -20.450 -0.048 -20.511 -0.044 -20.674 -0.094 5.930 0.042 7.385 0.124 43.682 41.501
63.800 -19.772 -0.077 -19.813 -0.070 -20.034 -0.048 -20.294 -0.059 -20.378 -0.055 -20.435 -0.049 -20.496 -0.044 -20.661 -0.095 5.934 0.045 7.325 0.131 43.676 41.524
64.200 -19.759 -0.078 -19.799 -0.071 -20.019 -0.048 -20.278 -0.059 -20.362 -0.056 -20.420 -0.049 -20.481 -0.045 -20.649 -0.096 5.937 0.048 7.264 0.139 43.669 41.546
64.600 -19.746 -0.078 -19.786 -0.071 -20.004 -0.048 -20.262 -0.060 -20.347 -0.056 -20.404 -0.050 -20.466 -0.045 -20.636 -0.098 5.940 0.051 7.204 0.146 43.663 41.565
65.000 -19.732 -0.079 -19.772 -0.072 -19.989 -0.048 -20.247 -0.060 -20.331 -0.056 -20.388 -0.050 -20.451 -0.046 -20.623 -0.099 5.944 0.054 7.144 0.153 43.657 41.584
65.400 -19.719 -0.079 -19.758 -0.072 -19.974 -0.048 -20.231 -0.060 -20.315 -0.057 -20.373 -0.050 -20.436 -0.047 -20.610 -0.100 5.948 0.057 7.085 0.160 43.651 41.601
65.800 -19.706 -0.080 -19.745 -0.072 -19.958 -0.048 -20.215 -0.060 -20.299 -0.057 -20.357 -0.051 -20.421 -0.047 -20.598 -0.101 5.951 0.060 7.025 0.167 43.645 41.616
66.200 -19.693 -0.080 -19.731 -0.073 -19.943 -0.048 -20.199 -0.061 -20.284 -0.058 -20.342 -0.051 -20.406 -0.048 -20.585 -0.102 5.955 0.062 6.966 0.174 43.638 41.631
66.600 -19.679 -0.081 -19.718 -0.073 -19.928 -0.048 -20.183 -0.061 -20.268 -0.058 -20.326 -0.052 -20.391 -0.048 -20.572 -0.103 5.959 0.065 6.907 0.181 43.632 41.644
67.000 -19.666 -0.081 -19.704 -0.073 -19.913 -0.048 -20.167 -0.061 -20.252 -0.058 -20.311 -0.052 -20.376 -0.049 -20.559 -0.104 5.963 0.068 6.849 0.187 43.626 41.657
67.400 -19.653 -0.081 -19.690 -0.074 -19.898 -0.048 -20.151 -0.061 -20.236 -0.059 -20.295 -0.053 -20.361 -0.049 -20.546 -0.105 5.967 0.071 6.791 0.193 43.620 41.669
67.800 -19.640 -0.082 -19.677 -0.074 -19.883 -0.048 -20.135 -0.062 -20.221 -0.059 -20.280 -0.053 -20.346 -0.050 -20.534 -0.106 5.971 0.074 6.733 0.200 43.613 41.679
68.200 -19.626 -0.082 -19.663 -0.074 -19.868 -0.048 -20.120 -0.062 -20.205 -0.059 -20.265 -0.054 -20.331 -0.051 -20.521 -0.107 5.975 0.077 6.676 0.205 43.607 41.689
68.600 -19.613 -0.082 -19.650 -0.075 -19.853 -0.048 -20.104 -0.062 -20.189 -0.060 -20.249 -0.054 -20.316 -0.051 -20.508 -0.108 5.979 0.080 6.619 0.211 43.601 41.699
69.000 -19.600 -0.083 -19.637 -0.075 -19.839 -0.048 -20.088 -0.062 -20.174 -0.060 -20.234 -0.055 -20.301 -0.052 -20.495 -0.109 5.983 0.083 6.563 0.217 43.595 41.707
69.400 -19.587 -0.083 -19.623 -0.075 -19.824 -0.048 -20.073 -0.062 -20.158 -0.060 -20.219 -0.055 -20.286 -0.052 -20.482 -0.110 5.988 0.086 6.507 0.223 43.589 41.716
69.800 -19.574 -0.084 -19.610 -0.076 -19.809 -0.048 -20.057 -0.063 -20.143 -0.061 -20.203 -0.055 -20.271 -0.053 -20.470 -0.111 5.992 0.089 6.452 0.228 43.583 41.723
70.200 -19.561 -0.084 -19.596 -0.076 -19.794 -0.048 -20.041 -0.063 -20.127 -0.061 -20.188 -0.056 -20.256 -0.053 -20.457 -0.112 5.996 0.092 6.398 0.233 43.576 41.730
70.600 -19.548 -0.084 -19.583 -0.076 -19.779 -0.049 -20.026 -0.063 -20.112 -0.061 -20.173 -0.056 -20.241 -0.054 -20.444 -0.113 6.000 0.095 6.344 0.238 43.570 41.736
71.000 -19.535 -0.085 -19.570 -0.077 -19.765 -0.049 -20.010 -0.063 -20.097 -0.062 -20.158 -0.057 -20.227 -0.054 -20.432 -0.114 6.005 0.098 6.291 0.243 43.564 41.742
71.400 -19.522 -0.085 -19.557 -0.077 -19.750 -0.049 -19.995 -0.064 -20.081 -0.062 -20.143 -0.057 -20.212 -0.055 -20.419 -0.115 6.009 0.100 6.238 0.248 43.558 41.748
71.800 -19.509 -0.085 -19.544 -0.077 -19.735 -0.049 -19.980 -0.064 -20.066 -0.062 -20.128 -0.057 -20.198 -0.055 -20.407 -0.116 6.013 0.103 6.186 0.252 43.552 41.753
72.200 -19.496 -0.086 -19.530 -0.077 -19.721 -0.049 -19.965 -0.064 -20.051 -0.063 -20.113 -0.058 -20.183 -0.056 -20.394 -0.117 6.017 0.106 6.134 0.257 43.546 41.757
72.600 -19.484 -0.086 -19.517 -0.078 -19.706 -0.049 -19.949 -0.064 -20.036 -0.063 -20.098 -0.058 -20.169 -0.056 -20.382 -0.118 6.022 0.109 6.084 0.261 43.540 41.761
73.000 -19.471 -0.086 -19.504 -0.078 -19.692 -0.049 -19.934 -0.064 -20.021 -0.063 -20.083 -0.058 -20.154 -0.057 -20.369 -0.118 6.026 0.111 6.033 0.265 43.534 41.765
73.400 -19.458 -0.086 -19.492 -0.078 -19.678 -0.049 -19.919 -0.064 -20.006 -0.063 -20.069 -0.059 -20.140 -0.057 -20.357 -0.119 6.030 0.114 5.984 0.269 43.528 41.768
73.800 -19.446 -0.087 -19.479 -0.078 -19.664 -0.049 -19.905 -0.065 -19.992 -0.064 -20.054 -0.059 -20.126 -0.057 -20.344 -0.120 6.034 0.117 5.935 0.273 43.522 41.772
74.200 -19.433 -0.087 -19.466 -0.079 -19.649 -0.049 -19.890 -0.065 -19.977 -0.064 -20.040 -0.059 -20.112 -0.058 -20.332 -0.121 6.038 0.119 5.887 0.276 43.516 41.774
74.600 -19.421 -0.087 -19.453 -0.079 -19.635 -0.049 -19.875 -0.065 -19.962 -0.064 -20.025 -0.060 -20.098 -0.058 -20.320 -0.122 6.043 0.122 5.840 0.280 43.511 41.777
75.000 -19.408 -0.088 -19.441 -0.079 -19.621 -0.050 -19.860 -0.065 -19.948 -0.064 -20.011 -0.060 -20.084 -0.059 -20.308 -0.123 6.047 0.125 5.793 0.283 43.505 41.779
75.400 -19.396 -0.088 -19.428 -0.079 -19.608 -0.050 -19.846 -0.065 -19.934 -0.065 -19.997 -0.060 -20.070 -0.059 -20.296 -0.124 6.051 0.127 5.747 0.286 43.499 41.781
75.800 -19.384 -0.088 -19.416 -0.079 -19.594 -0.049 -19.832 -0.065 -19.919 -0.065 -19.983 -0.061 -20.056 -0.059 -20.284 -0.124 6.055 0.130 5.702 0.289 43.493 41.783
76.200 -19.372 -0.088 -19.403 -0.080 -19.580 -0.049 -19.817 -0.066 -19.905 -0.065 -19.969 -0.061 -20.043 -0.060 -20.272 -0.125 6.059 0.132 5.658 0.292 43.488 41.784
76.600 -19.360 -0.088 -19.391 -0.080 -19.567 -0.049 -19.803 -0.066 -19.891 -0.065 -19.955 -0.061 -20.029 -0.060 -20.260 -0.126 6.062 0.134 5.614 0.295 43.482 41.785
77.000 -19.348 -0.089 -19.379 -0.080 -19.553 -0.049 -19.789 -0.066 -19.877 -0.065 -19.942 -0.061 -20.016 -0.060 -20.248 -0.127 6.066 0.137 5.571 0.297 43.476 41.787
77.400 -19.336 -0.089 -19.367 -0.080 -19.540 -0.049 -19.775 -0.066 -19.863 -0.066 -19.928 -0.062 -20.003 -0.061 -20.236 -0.127 6.070 0.139 5.529 0.300 43.471 41.787
77.800 -19.324 -0.089 -19.355 -0.080 -19.526 -0.049 -19.762 -0.066 -19.850 -0.066 -19.915 -0.062 -19.989 -0.061 -20.225 -0.128 6.074 0.141 5.488 0.302 43.465 41.788
78.200 -19.313 -0.089 -19.343 -0.080 -19.513 -0.049 -19.748 -0.066 -19.836 -0.066 -19.901 -0.062 -19.976 -0.061 -20.213 -0.129 6.077 0.143 5.447 0.304 43.460 41.789
78.600 -19.301 -0.089 -19.331 -0.080 -19.500 -0.049 -19.734 -0.066 -19.823 -0.066 -19.888 -0.062 -19.963 -0.062 -20.201 -0.130 6.081 0.145 5.407 0.306 43.455 41.789
79.000 -19.290 -0.090 -19.319 -0.081 -19.488 -0.049 -19.721 -0.066 -19.810 -0.066 -19.875 -0.063 -19.951 -0.062 -20.190 -0.131 6.084 0.148 5.368 0.308 43.449 41.790
79.400 -19.278 -0.090 -19.308 -0.081 -19.475 -0.048 -19.708 -0.067 -19.796 -0.067 -19.862 -0.063 -19.938 -0.062 -20.179 -0.131 6.087 0.150 5.330 0.310 43.444 41.790
79.800 -19.267 -0.090 -19.296 -0.081 -19.462 -0.048 -19.695 -0.067 -19.783 -0.067 -19.849 -0.063 -19.926 -0.063 -20.167 -0.132 6.091 0.152 5.292 0.312 43.439 41.790
80.200 -19.256 -0.090 -19.285 -0.081 -19.450 -0.048 -19.682 -0.067 -19.771 -0.067 -19.837 -0.063 -19.913 -0.063 -20.156 -0.133 6.094 0.154 5.255 0.314 43.434 41.790
80.600 -19.245 -0.090 -19.274 -0.081 -19.437 -0.048 -19.669 -0.067 -19.758 -0.067 -19.824 -0.064 -19.901 -0.063 -20.145 -0.133 6.097 0.155 5.219 0.315 43.428 41.790
81.000 -19.234 -0.090 -19.262 -0.081 -19.425 -0.048 -19.656 -0.067 -19.745 -0.067 -19.812 -0.064 -19.889 -0.064 -20.134 -0.134 6.100 0.157 5.183 0.317 43.423 41.790
81.400 -19.223 -0.091 -19.251 -0.081 -19.413 -0.047 -19.644 -0.067 -19.733 -0.068 -19.799 -0.064 -19.877 -0.064 -20.123 -0.135 6.104 0.159 5.148 0.318 43.418 41.789
81.800 -19.212 -0.091 -19.241 -0.081 -19.401 -0.047 -19.631 -0.067 -19.721 -0.068 -19.787 -0.065 -19.865 -0.064 -20.112 -0.136 6.107 0.161 5.113 0.319 43.413 41.789
82.200 -19.202 -0.091 -19.230 -0.081 -19.390 -0.047 -19.619 -0.067 -19.709 -0.068 -19.775 -0.065 -19.853 -0.065 -20.101 -0.136 6.110 0.163 5.080 0.320 43.409 41.788
82.600 -19.191 -0.091 -19.219 -0.081 -19.378 -0.047 -19.607 -0.068 -19.697 -0.068 -19.764 -0.065 -19.842 -0.065 -20.091 -0.137 6.113 0.164 5.046 0.321 43.404 41.788
83.000 -19.181 -0.091 -19.209 -0.082 -19.367 -0.047 -19.595 -0.068 -19.685 -0.069 -19.752 -0.065 -19.830 -0.065 -20.080 -0.138 6.116 0.166 5.014 0.322 43.399 41.787
83.400 -19.171 -0.091 -19.198 -0.082 -19.355 -0.046 -19.583 -0.068 -19.673 -0.069 -19.740 -0.066 -19.819 -0.066 -20.070 -0.138 6.119 0.167 4.982 0.323 43.394 41.786
83.800 -19.160 -0.092 -19.188 -0.082 -19.344 -0.046 -19.572 -0.068 -19.662 -0.069 -19.729 -0.066 -19.808 -0.066 -20.059 -0.139 6.122 0.169 4.950 0.324 43.390 41.785
84.200 -19.150 -0.092 -19.178 -0.082 -19.333 -0.046 -19.560 -0.068 -19.650 -0.069 -19.718 -0.066 -19.797 -0.066 -20.049 -0.140 6.125 0.171 4.919 0.325 43.385 41.784
84.600 -19.140 -0.092 -19.168 -0.082 -19.323 -0.046 -19.549 -0.068 -19.639 -0.070 -19.707 -0.067 -19.786 -0.067 -20.039 -0.141 6.128 0.172 4.889 0.325 43.381 41.783
85.000 -19.131 -0.092 -19.158 -0.082 -19.312 -0.046 -19.538 -0.068 -19.628 -0.070 -19.696 -0.067 -19.776 -0.067 -20.029 -0.141 6.131 0.173 4.859 0.326 43.376 41.781
85.400 -19.121 -0.092 -19.148 -0.082 -19.302 -0.046 -19.527 -0.069 -19.617 -0.070 -19.685 -0.067 -19.765 -0.068 -20.019 -0.142 6.134 0.175 4.829 0.326 43.372 41.780
85.800 -19.112 -0.092 -19.138 -0.083 -19.291 -0.046 -19.516 -0.069 -19.606 -0.070 -19.675 -0.068 -19.755 -0.068 -20.009 -0.143 6.138 0.176 4.800 0.327 43.367 41.779
86.200 -19.102 -0.093 -19.129 -0.083 -19.281 -0.046 -19.505 -0.069 -19.596 -0.071 -19.664 -0.068 -19.744 -0.069 -19.999 -0.143 6.141 0.178 4.772 0.327 43.363 41.777
86.600 -19.093 -0.093 -19.119 -0.083 -19.271 -0.046 -19.494 -0.069 -19.585 -0.071 -19.654 -0.068 -19.734 -0.069 -19.990 -0.144 6.144 0.179 4.744 0.327 43.359 41.775
87.000 -19.084 -0.093 -19.110 -0.083 -19.261 -0.046 -19.484 -0.069 -19.575 -0.071 -19.644 -0.069 -19.724 -0.070 -19.980 -0.145 6.147 0.180 4.716 0.328 43.355 41.774
87.400 -19.075 -0.093 -19.101 -0.083 -19.251 -0.046 -19.474 -0.070 -19.565 -0.072 -19.634 -0.069 -19.714 -0.070 -19.970 -0.145 6.150 0.182 4.689 0.328 43.351 41.772
87.800 -19.066 -0.094 -19.092 -0.084 -19.242 -0.047 -19.464 -0.070 -19.555 -0.072 -19.624 -0.070 -19.705 -0.071 -19.961 -0.146 6.153 0.183 4.663 0.328 43.347 41.770
88.200 -19.057 -0.094 -19.083 -0.084 -19.232 -0.047 -19.454 -0.070 -19.545 -0.072 -19.614 -0.070 -19.695 -0.071 -19.952 -0.146 6.156 0.184 4.637 0.328 43.343 41.768
88.600 -19.048 -0.094 -19.074 -0.084 -19.223 -0.047 -19.444 -0.070 -19.535 -0.072 -19.605 -0.070 -19.686 -0.072 -19.943 -0.147 6.160 0.185 4.611 0.328 43.339 41.766
89.000 -19.040 -0.094 -19.065 -0.084 -19.214 -0.047 -19.434 -0.071 -19.526 -0.073 -19.595 -0.071 -19.677 -0.072 -19.933 -0.148 6.163 0.186 4.586 0.328 43.335 41.764
89.400 -19.031 -0.095 -19.057 -0.085 -19.204 -0.048 -19.425 -0.071 -19.516 -0.073 -19.586 -0.071 -19.667 -0.073 -19.924 -0.148 6.165 0.188 4.562 0.328 43.331 41.762
89.800 -19.023 -0.095 -19.048 -0.085 -19.195 -0.048 -19.416 -0.071 -19.507 -0.073 -19.577 -0.072 -19.658 -0.073 -19.916 -0.149 6.168 0.189 4.538 0.328 43.327 41.760
90.200 -19.015 -0.095 -19.040 -0.085 -19.186 -0.048 -19.407 -0.071 -19.498 -0.074 -19.568 -0.072 -19.650 -0.074 -19.907 -0.150 6.171 0.190 4.515 0.328 43.324 41.758
90.600 -19.007 -0.096 -19.032 -0.086 -19.178 -0.049 -19.398 -0.072 -19.489 -0.074 -19.559 -0.073 -19.641 -0.074 -19.898 -0.150 6.174 0.191 4.492 0.328 43.320 41.756
91.000 -18.999 -0.096 -19.024 -0.086 -19.169 -0.049 -19.389 -0.072 -19.480 -0.074 -19.550 -0.073 -19.632 -0.075 -19.890 -0.151 6.177 0.192 4.469 0.328 43.316 41.754
91.400 -18.991 -0.096 -19.016 -0.086 -19.161 -0.050 -19.380 -0.072 -19.472 -0.075 -19.542 -0.073 -19.624 -0.075 -19.881 -0.152 6.180 0.193 4.447 0.328 43.313 41.752
91.800 -18.983 -0.097 -19.008 -0.087 -19.152 -0.050 -19.372 -0.073 -19.463 -0.075 -19.533 -0.074 -19.616 -0.076 -19.873 -0.152 6.183 0.194 4.426 0.328 43.310 41.750
92.200 -18.976 -0.097 -19.000 -0.087 -19.144 -0.051 -19.363 -0.073 -19.455 -0.075 -19.525 -0.074 -19.607 -0.076 -19.864 -0.153 6.186 0.195 4.404 0.327 43.306 41.747
92.600 -18.968 -0.097 -18.993 -0.087 -19.136 -0.051 -19.355 -0.073 -19.447 -0.076 -19.517 -0.075 -19.599 -0.077 -19.856 -0.154 6.189 0.196 4.383 0.327 43.303 41.745
93.000 -18.961 -0.098 -18.985 -0.088 -19.128 -0.052 -19.347 -0.073 -19.439 -0.076 -19.509 -0.075 -19.591 -0.078 -19.848 -0.154 6.192 0.197 4.363 0.327 43.300 41.742
93.400 -18.954 -0.098 -18.978 -0.088 -19.120 -0.053 -19.339 -0.074 -19.431 -0.077 -19.501 -0.076 -19.584 -0.078 -19.840 -0.155 6.195 0.198 4.343 0.326 43.296 41.739
93.800 -18.946 -0.098 -18.971 -0.088 -19.113 -0.053 -19.331 -0.074 -19.423 -0.077 -19.494 -0.076 -19.576 -0.079 -19.832 -0.155 6.198 0.198 4.323 0.325 43.293 41.737
94.200 -18.940 -0.099 -18.964 -0.089 -19.105 -0.054 -19.324 -0.074 -19.416 -0.077 -19.486 -0.076 -19.568 -0.079 -19.824 -0.156 6.201 0.199 4.303 0.325 43.290 41.734
94.600 -18.933 -0.099 -18.957 -0.089 -19.098 -0.054 -19.316 -0.075 -19.408 -0.078 -19.479 -0.077 -19.561 -0.080 -19.816 -0.157 6.204 0.200 4.284 0.324 43.287 41.731
95.000 -18.926 -0.099 -18.950 -0.089 -19.091 -0.055 -19.309 -0.075 -19.401 -0.078 -19.471 -0.077 -19.554 -0.080 -19.809 -0.157 6.207 0.200 4.265 0.323 43.284 41.728
95.400 -18.919 -0.100 -18.944 -0.090 -19.084 -0.055 -19.302 -0.075 -19.394 -0.078 -19.464 -0.078 -19.547 -0.081 -19.801 -0.158 6.210 0.201 4.247 0.322 43.281 41.725
95.800 -18.913 -0.100 -18.937 -0.090 -19.077 -0.056 -19.294 -0.076 -19.387 -0.079 -19.457 -0.078 -19.539 -0.081 -19.794 -0.158 6.213 0.201 4.229 0.321 43.278 41.722
96.200 -18.907 -0.100 -18.931 -0.091 -19.071 -0.056 -19.288 -0.076 -19.380 -0.079 -19.450 -0.079 -19.533 -0.082 -19.786 -0.159 6.216 0.202 4.211 0.320 43.276 41.719
96.600 -18.900 -0.101 -18.924 -0.091 -19.064 -0.057 -19.281 -0.076 -19.373 -0.079 -19.444 -0.079 -19.526 -0.082 -19.779 -0.160 6.219 0.202 4.194 0.319 43.273 41.716
97.000 -18.894 -0.101 -18.918 -0.091 -19.058 -0.057 -19.274 -0.076 -19.366 -0.080 -19.437 -0.079 -19.519 -0.083 -19.772 -0.160 6.222 0.202 4.176 0.318 43.270 41.713
97.400 -18.888 -0.101 -18.912 -0.092 -19.051 -0.058 -19.268 -0.077 -19.360 -0.080 -19.430 -0.080 -19.512 -0.083 -19.765 -0.161 6.225 0.203 4.160 0.317 43.267 41.709
97.800 -18.882 -0.102 -18.906 -0.092 -19.045 -0.058 -19.261 -0.077 -19.353 -0.080 -19.424 -0.080 -19.506 -0.084 -19.758 -0.161 6.228 0.203 4.143 0.316 43.265 41.706
98.200 -18.877 -0.102 -18.900 -0.092 -19.039 -0.059 -19.255 -0.077 -19.347 -0.081 -19.418 -0.081 -19.500 -0.084 -19.751 -0.162 6.231 0.203 4.127 0.315 43.262 41.703
98.600 -18.871 -0.103 -18.895 -0.093 -19.033 -0.059 -19.249 -0.077 -19.341 -0.081 -19.411 -0.081 -19.493 -0.085 -19.744 -0.163 6.234 0.203 4.110 0.313 43.260 41.699
99.000 -18.866 -0.103 -18.889 -0.093 -19.028 -0.059 -19.243 -0.078 -19.335 -0.081 -19.405 -0.081 -19.487 -0.085 -19.737 -0.163 6.237 0.203 4.095 0.312 43.257 41.696
99.400 -18.860 -0.103 -18.884 -0.093 -19.022 -0.060 -19.237 -0.078 -19.329 -0.081 -19.399 -0.082 -19.481 -0.086 -19.731 -0.164 6.240 0.203 4.079 0.310 43.255 41.693
99.800 -18.855 -0.103 -18.878 -0.094 -19.016 -0.060 -19.231 -0.078 -19.323 -0.082 -19.394 -0.082 -19.475 -0.086 -19.724 -0.164 6.243 0.203 4.064 0.309 43.252 41.689
100.200 -18.850 -0.104 -18.873 -0.094 -19.011 -0.060 -19.226 -0.078 -19.317 -0.082 -19.388 -0.082 -19.469 -0.086 -19.717 -0.165 6.246 0.203 4.049 0.308 43.250 41.685
100.600 -18.845 -0.104 -18.868 -0.094 -19.006 -0.061 -19.220 -0.079 -19.312 -0.082 -19.382 -0.083 -19.464 -0.087 -19.711 -0.166 6.250 0.203 4.034 0.306 43.248 41.682
101.000 -18.840 -0.104 -18.863 -0.095 -19.001 -0.061 -19.215 -0.079 -19.306 -0.082 -19.377 -0.083 -19.458 -0.087 -19.705 -0.166 6.253 0.203 4.019 0.304 43.245 41.678
101.400 -18.835 -0.105 -18.858 -0.095 -18.996 -0.061 -19.210 -0.079 -19.301 -0.083 -19.371 -0.083 -19.452 -0.088 -19.698 -0.167 6.256 0.203 4.004 0.303 43.243 41.675
101.800 -18.830 -0.105 -18.854 -0.095 -18.991 -0.061 -19.205 -0.079 -19.296 -0.083 -19.366 -0.084 -19.447 -0.088 -19.692 -0.167 6.259 0.203 3.990 0.301 43.241 41.671
102.200 -18.825 -0.105 -18.849 -0.095 -18.986 -0.062 -19.199 -0.079 -19.291 -0.083 -19.361 -0.084 -19.441 -0.088 -19.686 -0.168 6.263 0.203 3.976 0.299 43.239 41.667
102.600 -18.821 -0.106 -18.844 -0.096 -18.982 -0.062 -19.195 -0.079 -19.286 -0.083 -19.355 -0.084 -19.436 -0.089 -19.680 -0.169 6.266 0.202 3.962 0.298 43.237 41.663
103.000 -18.816 -0.106 -18.840 -0.096 -18.977 -0.062 -19.190 -0.080 -19.281 -0.084 -19.350 -0.085 -19.431 -0.089 -19.674 -0.169 6.270 0.202 3.948 0.296 43.235 41.659
103.400 -18.812 -0.106 -18.836 -0.096 -18.973 -0.062 -19.185 -0.080 -19.276 -0.084 -19.345 -0.085 -19.426 -0.090 -19.668 -0.170 6.273 0.202 3.934 0.294 43.233 41.656
103.800 -18.808 -0.106 -18.831 -0.096 -18.968 -0.062 -19.180 -0.080 -19.271 -0.084 -19.341 -0.085 -19.421 -0.090 -19.662 -0.170 6.277 0.201 3.921 0.292 43.231 41.652
104.200 -18.804 -0.107 -18.827 -0.097 -18.964 -0.062 -19.176 -0.080 -19.266 -0.084 -19.336 -0.085 -19.416 -0.090 -19.656 -0.171 6.280 0.201 3.907 0.291 43.229 41.648
104.600 -18.800 -0.107 -18.823 -0.097 -18.960 -0.062 -19.172 -0.080 -19.262 -0.085 -19.331 -0.086 -19.411 -0.091 -19.651 -0.171 6.284 0.201 3.894 0.289 43.227 41.644
105.000 -18.796 -0.107 -18.819 -0.097 -18.956 -0.062 -19.167 -0.080 -19.257 -0.085 -19.326 -0.086 -19.406 -0.091 -19.645 -0.172 6.288 0.200 3.881 0.287 43.225 41.639
105.400 -18.792 -0.108 -18.815 -0.097 -18.952 -0.062 -19.163 -0.080 -19.253 -0.085 -19.322 -0.086 -19.401 -0.091 -19.639 -0.173 6.292 0.200 3.868 0.285 43.223 41.635
105.800 -18.788 -0.108 -18.812 -0.098 -18.949 -0.062 -19.159 -0.081 -19.249 -0.085 -19.317 -0.086 -19.397 -0.092 -19.634 -0.173 6.295 0.199 3.855 0.283 43.221 41.631
106.200 -18.784 -0.108 -18.808 -0.098 -18.945 -0.062 -19.155 -0.081 -19.244 -0.085 -19.313 -0.087 -19.392 -0.092 -19.628 -0.174 6.299 0.199 3.842 0.281 43.219 41.627
106.600 -18.781 -0.109 -18.805 -0.098 -18.941 -0.062 -19.151 -0.081 -19.240 -0.086 -19.309 -0.087 -19.387 -0.092 -19.623 -0.174 6.303 0.198 3.829 0.279 43.217 41.623
107.000 -18.777 -0.109 -18.801 -0.099 -18.938 -0.062 -19.147 -0.081 -19.236 -0.086 -19.304 -0.087 -19.383 -0.093 -19.618 -0.175 6.308 0.198 3.817 0.277 43.216 41.618
107.400 -18.774 -0.109 -18.798 -0.099 -18.935 -0.062 -19.143 -0.081 -19.232 -0.086 -19.300 -0.088 -19.379 -0.093 -19.612 -0.176 6.312 0.197 3.804 0.275 43.214 41.614
107.800 -18.771 -0.110 -18.794 -0.099 -18.931 -0.062 -19.140 -0.081 -19.228 -0.086 -19.296 -0.088 -19.374 -0.093 -19.607 -0.176 6.316 0.197 3.792 0.273 43.212 41.609
108.200 -18.767 -0.110 -18.791 -0.099 -18.928 -0.062 -19.136 -0.081 -19.224 -0.086 -19.292 -0.088 -19.370 -0.094 -19.602 -0.177 6.320 0.196 3.779 0.271 43.211 41.605
108.600 -18.764 -0.110 -18.788 -0.100 -18.925 -0.062 -19.133 -0.081 -19.221 -0.087 -19.288 -0.088 -19.366 -0.094 -19.597 -0.177 6.325 0.195 3.767 0.269 43.209 41.600
109.000 -18.761 -0.111 -18.785 -0.100 -18.922 -0.062 -19.129 -0.081 -19.217 -0.087 -19.284 -0.089 -19.362 -0.095 -19.592 -0.178 6.329 0.195 3.755 0.267 43.207 41.595
109.400 -18.758 -0.111 -18.782 -0.101 -18.919 -0.062 -19.126 -0.082 -19.213 -0.087 -19.280 -0.089 -19.357 -0.095 -19.587 -0.179 6.334 0.194 3.742 0.265 43.206 41.590
109.800 -18.755 -0.112 -18.779 -0.101 -18.917 -0.062 -19.122 -0.082 -19.210 -0.087 -19.277 -0.089 -19.353 -0.095 -19.582 -0.179 6.338 0.193 3.730 0.262 43.204 41.586
110.200 -18.752 -0.112 -18.776 -0.101 -18.914 -0.062 -19.119 -0.082 -19.206 -0.087 -19.273 -0.090 -19.349 -0.096 -19.577 -0.180 6.343 0.193 3.718 0.260 43.203 41.581
110.600 -18.749 -0.113 -18.773 -0.102 -18.911 -0.062 -19.116 -0.082 -19.203 -0.088 -19.269 -0.090 -19.345 -0.096 -19.572 -0.180 6.348 0.192 3.706 0.258 43.201 41.576
111.000 -18.746 -0.113 -18.770 -0.102 -18.909 -0.062 -19.113 -0.082 -19.199 -0.088 -19.265 -0.090 -19.341 -0.097 -19.567 -0.181 6.353 0.191 3.694 0.256 43.200 41.571
111.400 -18.744 -0.114 -18.768 -0.103 -18.906 -0.063 -19.110 -0.082 -19.196 -0.088 -19.262 -0.090 -19.338 -0.097 -19.562 -0.182 6.358 0.191 3.682 0.254 43.198 41.565
111.800 -18.741 -0.114 -18.765 -0.103 -18.904 -0.063 -19.107 -0.083 -19.192 -0.088 -19.258 -0.091 -19.334 -0.097 -19.558 -0.182 6.363 0.190 3.671 0.252 43.197 41.560
112.200 -18.738 -0.115 -18.762 -0.104 -18.901 -0.063 -19.104 -0.083 -19.189 -0.089 -19.255 -0.091 -19.330 -0.098 -19.553 -0.183 6.368 0.189 3.659 0.250 43.195 41.555
112.600 -18.736 -0.116 -18.760 -0.105 -18.899 -0.063 -19.101 -0.083 -19.186 -0.089 -19.251 -0.091 -19.326 -0.098 -19.548 -0.183 6.373 0.189 3.647 0.248 43.194 41.550
113.000 -18.733 -0.116 -18.757 -0.105 -18.897 -0.064 -19.098 -0.083 -19.183 -0.089 -19.248 -0.092 -19.323 -0.099 -19.544 -0.184 6.378 0.188 3.636 0.246 43.193 41.544
113.400 -18.731 -0.117 -18.755 -0.106 -18.894 -0.064 -19.095 -0.084 -19.180 -0.090 -19.244 -0.092 -19.319 -0.099 -19.539 -0.185 6.383 0.187 3.624 0.244 43.191 41.539
113.800 -18.728 -0.118 -18.753 -0.107 -18.892 -0.065 -19.092 -0.084 -19.176 -0.090 -19.241 -0.093 -19.315 -0.100 -19.535 -0.185 6.388 0.187 3.613 0.241 43.190 41.534
114.200 -18.726 -0.118 -18.750 -0.107 -18.890 -0.066 -19.089 -0.084 -19.173 -0.090 -19.238 -0.093 -19.312 -0.100 -19.530 -0.186 6.393 0.186 3.602 0.240 43.189 41.528
114.600 -18.723 -0.119 -18.748 -0.108 -18.888 -0.066 -19.087 -0.084 -19.170 -0.091 -19.234 -0.093 -19.308 -0.101 -19.526 -0.187 6.398 0.186 3.591 0.238 43.188 41.523
115.000 -18.721 -0.120 -18.745 -0.109 -18.886 -0.067 -19.084 -0.085 -19.167 -0.091 -19.231 -0.094 -19.305 -0.101 -19.521 -0.187 6.403 0.185 3.580 0.236 43.186 41.518
115.400 -18.718 -0.121 -18.743 -0.110 -18.883 -0.068 -19.081 -0.085 -19.164 -0.091 -19.228 -0.094 -19.301 -0.102 -19.517 -0.188 6.408 0.185 3.569 0.234 43.185 41.512
115.800 -18.716 -0.122 -18.741 -0.111 -18.881 -0.069 -19.079 -0.086 -19.161 -0.092 -19.225 -0.095 -19.298 -0.102 -19.513 -0.189 6.413 0.184 3.559 0.232 43.184 41.507
116.200 -18.714 -0.123 -18.739 -0.112 -18.879 -0.070 -19.076 -0.086 -19.158 -0.092 -19.222 -0.095 -19.294 -0.103 -19.508 -0.189 6.418 0.184 3.548 0.230 43.183 41.502
116.600 -18.712 -0.124 -18.736 -0.113 -18.877 -0.071 -19.073 -0.086 -19.156 -0.093 -19.218 -0.096 -19.291 -0.103 -19.504 -0.190 6.423 0.183 3.538 0.229 43.181 41.497
117.000 -18.709 -0.125 -18.734 -0.114 -18.875 -0.072 -19.071 -0.087 -19.153 -0.093 -19.215 -0.096 -19.287 -0.104 -19.500 -0.191 6.428 0.183 3.528 0.227 43.180 41.492
117.400 -18.707 -0.126 -18.732 -0.115 -18.873 -0.073 -19.068 -0.087 -19.150 -0.093 -19.212 -0.097 -19.284 -0.104 -19.496 -0.191 6.432 0.183 3.518 0.226 43.179 41.487
117.800 -18.705 -0.127 -18.730 -0.116 -18.871 -0.074 -19.066 -0.088 -19.147 -0.094 -19.209 -0.097 -19.281 -0.105 -19.492 -0.192 6.437 0.182 3.509 0.224 43.178 41.482
118.200 -18.703 -0.128 -18.727 -0.118 -18.868 -0.075 -19.063 -0.089 -19.144 -0.094 -19.206 -0.098 -19.277 -0.106 -19.488 -0.193 6.441 0.182 3.499 0.223 43.177 41.477
118.600 -18.700 -0.130 -18.725 -0.119 -18.866 -0.077 -19.061 -0.089 -19.141 -0.095 -19.203 -0.098 -19.274 -0.106 -19.484 -0.193 6.445 0.182 3.490 0.221 43.175 41.472
119.000 -18.698 -0.131 -18.723 -0.120 -18.864 -0.078 -19.058 -0.090 -19.139 -0.095 -19.200 -0.099 -19.271 -0.107 -19.480 -0.194 6.450 0.181 3.481 0.220 43.174 41.467
119.400 -18.696 -0.132 -18.721 -0.121 -18.862 -0.080 -19.056 -0.090 -19.136 -0.096 -19.197 -0.099 -19.267 -0.107 -19.475 -0.195 6.454 0.181 3.472 0.219 43.173 41.463
119.800 -18.694 -0.133 -18.719 -0.123 -18.860 -0.081 -19.053 -0.091 -19.133 -0.096 -19.194 -0.100 -19.264 -0.108 -19.472 -0.196 6.457 0.181 3.463 0.218 43.172 41.458
120.200 -18.692 -0.135 -18.717 -0.124 -18.858 -0.083 -19.051 -0.092 -19.130 -0.097 -19.191 -0.100 -19.261 -0.109 -19.468 -0.196 6.461 0.181 3.455 0.216 43.171 41.454
120.600 -18.689 -0.136 -18.715 -0.126 -18.855 -0.084 -19.048 -0.092 -19.128 -0.098 -19.188 -0.101 -19.258 -0.109 -19.464 -0.197 6.465 0.181 3.447 0.215 43.170 41.449
121.000 -18.687 -0.138 -18.712 -0.127 -18.853 -0.086 -19.046 -0.093 -19.125 -0.098 -19.185 -0.102 -19.254 -0.110 -19.460 -0.198 6.468 0.181 3.439 0.214 43.169 41.445
121.400 -18.685 -0.139 -18.710 -0.128 -18.851 -0.087 -19.043 -0.094 -19.122 -0.099 -19.182 -0.102 -19.251 -0.111 -19.456 -0.199 6.472 0.180 3.431 0.213 43.168 41.441
121.800 -18.683 -0.141 -18.708 -0.130 -18.849 -0.089 -19.041 -0.095 -19.119 -0.099 -19.179 -0.103 -19.248 -0.111 -19.452 -0.199 6.475 0.180 3.423 0.212 43.167 41.437
122.200 -18.681 -0.142 -18.706 -0.132 -18.847 -0.091 -19.038 -0.095 -19.117 -0.100 -19.176 -0.103 -19.245 -0.112 -19.448 -0.200 6.478 0.180 3.415 0.211 43.165 41.433
122.600 -18.679 -0.144 -18.704 -0.133 -18.844 -0.092 -19.036 -0.096 -19.114 -0.101 -19.174 -0.104 -19.242 -0.113 -19.444 -0.201 6.481 0.180 3.408 0.210 43.164 41.429
123.000 -18.676 -0.145 -18.702 -0.135 -18.842 -0.094 -19.033 -0.097 -19.111 -0.101 -19.171 -0.105 -19.239 -0.113 -19.441 -0.202 6.484 0.180 3.401 0.209 43.163 41.425
123.400 -18.674 -0.147 -18.699 -0.136 -18.840 -0.096 -19.031 -0.098 -19.109 -0.102 -19.168 -0.105 -19.236 -0.114 -19.437 -0.202 6.487 0.180 3.394 0.209 43.162 41.421
123.800 -18.672 -0.148 -18.697 -0.138 -18.838 -0.098 -19.029 -0.099 -19.106 -0.103 -19.165 -0.106 -19.232 -0.115 -19.433 -0.203 6.489 0.180 3.387 0.208 43.161 41.417
124.200 -18.670 -0.150 -18.695 -0.140 -18.835 -0.100 -19.026 -0.100 -19.103 -0.103 -19.162 -0.107 -19.229 -0.115 -19.430 -0.204 6.492 0.180 3.380 0.207 43.160 41.414
124.600 -18.668 -0.152 -18.693 -0.141 -18.833 -0.101 -19.024 -0.101 -19.101 -0.104 -19.159 -0.107 -19.226 -0.116 -19.426 -0.205 6.494 0.180 3.373 0.206 43.159 41.410
125.000 -18.666 -0.153 -18.691 -0.143 -18.831 -0.103 -19.021 -0.101 -19.098 -0.105 -19.157 -0.108 -19.223 -0.117 -19.422 -0.205 6.497 0.180 3.367 0.205 43.158 41.407
125.400 -18.663 -0.155 -18.688 -0.145 -18.829 -0.105 -19.019 -0.102 -19.096 -0.106 -19.154 -0.109 -19.220 -0.117 -19.419 -0.206 6.499 0.180 3.361 0.205 43.157 41.403
125.800 -18.661 -0.157 -18.686 -0.147 -18.826 -0.107 -19.016 -0.103 -19.093 -0.106 -19.151 -0.109 -19.217 -0.118 -19.415 -0.207 6.501 0.180 3.354 0.204 43.156 41.400
126.200 -18.659 -0.158 -18.684 -0.148 -18.824 -0.109 -19.014 -0.104 -19.090 -0.107 -19.148 -0.110 -19.214 -0.119 -19.412 -0.208 6.503 0.180 3.348 0.203 43.155 41.397
126.600 -18.657 -0.160 -18.682 -0.150 -18.822 -0.111 -19.012 -0.105 -19.088 -0.108 -19.145 -0.111 -19.211 -0.119 -19.408 -0.209 6.505 0.180 3.342 0.203 43.154 41.393
127.000 -18.655 -0.162 -18.680 -0.152 -18.819 -0.112 -19.009 -0.106 -19.085 -0.109 -19.143 -0.111 -19.208 -0.120 -19.404 -0.209 6.507 0.180 3.336 0.202 43.153 41.390
127.400 -18.652 -0.163 -18.677 -0.154 -18.817 -0.114 -19.007 -0.107 -19.083 -0.109 -19.140 -0.112 -19.205 -0.121 -19.401 -0.210 6.508 0.180 3.331 0.201 43.152 41.387
127.800 -18.650 -0.165 -18.675 -0.156 -18.815 -0.116 -19.004 -0.108 -19.080 -0.110 -19.137 -0.113 -19.202 -0.122 -19.397 -0.211 6.510 0.180 3.325 0.201 43.151 41.384
128.200 -18.648 -0.167 -18.673 -0.157 -18.812 -0.118 -19.002 -0.109 -19.077 -0.111 -19.134 -0.113 -19.200 -0.122 -19.394 -0.212 6.512 0.180 3.319 0.200 43.150 41.381
128.600 -18.646 -0.169 -18.671 -0.159 -18.810 -0.120 -18.999 -0.110 -19.075 -0.112 -19.132 -0.114 -19.197 -0.123 -19.391 -0.213 6.513 0.180 3.314 0.200 43.149 41.378
129.000 -18.644 -0.171 -18.668 -0.161 -18.808 -0.122 -18.997 -0.111 -19.072 -0.112 -19.129 -0.115 -19.194 -0.124 -19.387 -0.214 6.515 0.180 3.308 0.199 43.148 41.375
129.400 -18.641 -0.172 -18.666 -0.163 -18.805 -0.124 -18.994 -0.112 -19.070 -0.113 -19.126 -0.116 -19.191 -0.124 -19.384 -0.214 6.516 0.180 3.303 0.199 43.147 41.372
129.800 -18.639 -0.174 -18.664 -0.165 -18.803 -0.125 -18.992 -0.113 -19.067 -0.114 -19.124 -0.116 -19.188 -0.125 -19.380 -0.215 6.517 0.180 3.298 0.198 43.146 41.370
130.200 -18.637 -0.176 -18.662 -0.166 -18.801 -0.127 -18.989 -0.114 -19.065 -0.115 -19.121 -0.117 -19.185 -0.126 -19.377 -0.216 6.518 0.180 3.293 0.198 43.145 41.367
130.600 -18.635 -0.178 -18.659 -0.168 -18.798 -0.129 -18.987 -0.115 -19.062 -0.116 -19.118 -0.118 -19.182 -0.127 -19.374 -0.217 6.519 0.180 3.288 0.197 43.144 41.364
131.000 -18.632 -0.179 -18.657 -0.170 -18.796 -0.131 -18.985 -0.116 -19.059 -0.116 -19.115 -0.119 -19.179 -0.127 -19.370 -0.218 6.521 0.180 3.283 0.197 43.142 41.362
131.400 -18.630 -0.181 -18.655 -0.172 -18.793 -0.133 -18.982 -0.117 -19.057 -0.117 -19.113 -0.119 -19.177 -0.128 -19.367 -0.219 6.522 0.180 3.278 0.196 43.141 41.359
131.800 -18.628 -0.183 -18.652 -0.174 -18.791 -0.135 -18.980 -0.118 -19.054 -0.118 -19.110 -0.120 -19.174 -0.129 -19.364 -0.220 6.522 0.180 3.273 0.196 43.140 41.357
132.200 -18.625 -0.185 -18.650 -0.176 -18.789 -0.136 -18.977 -0.119 -19.052 -0.119 -19.107 -0.121 -19.171 -0.129 -19.360 -0.220 6.523 0.180 3.269 0.195 43.139 41.354
132.600 -18.623 -0.187 -18.648 -0.177 -18.786 -0.138 -18.975 -0.120 -19.049 -0.120 -19.105 -0.121 -19.168 -0.130 -19.357 -0.221 6.524 0.179 3.264 0.195 43.138 41.352
133.000 -18.621 -0.188 -18.645 -0.179 -18.784 -0.140 -18.972 -0.122 -19.047 -0.120 -19.102 -0.122 -19.166 -0.131 -19.354 -0.222 6.525 0.179 3.259 0.194 43.137 41.350
133.400 -18.618 -0.190 -18.643 -0.181 -18.781 -0.142 -18.970 -0.123 -19.044 -0.121 -19.100 -0.123 -19.163 -0.132 -19.351 -0.223 6.525 0.179 3.255 0.194 43.136 41.347
133.800 -18.616 -0.192 -18.641 -0.183 -18.779 -0.143 -18.967 -0.124 -19.042 -0.122 -19.097 -0.124 -19.160 -0.132 -19.347 -0.224 6.526 0.179 3.250 0.193 43.135 41.345
134.200 -18.614 -0.194 -18.638 -0.184 -18.776 -0.145 -18.965 -0.125 -19.039 -0.123 -19.094 -0.124 -19.157 -0.133 -19.344 -0.225 6.527 0.179 3.246 0.193 43.134 41.343
134.600 -18.611 -0.195 -18.636 -0.186 -18.774 -0.147 -18.962 -0.126 -19.036 -0.124 -19.092 -0.125 -19.155 -0.134 -19.341 -0.226 6.527 0.179 3.242 0.193 43.133 41.341
135.000 -18.609 -0.197 -18.634 -0.188 -18.772 -0.148 -18.960 -0.127 -19.034 -0.124 -19.089 -0.126 -19.152 -0.135 -19.338 -0.227 6.528 0.179 3.238 0.192 43.132 41.338
135.400 -18.607 -0.199 -18.631 -0.190 -18.769 -0.150 -18.957 -0.128 -19.031 -0.125 -19.087 -0.127 -19.149 -0.136 -19.335 -0.228 6.528 0.179 3.233 0.192 43.131 41.336
135.800 -18.604 -0.200 -18.629 -0.191 -18.767 -0.152 -18.955 -0.128 -19.029 -0.126 -19.084 -0.127 -19.147 -0.136 -19.331 -0.229 6.528 0.179 3.229 0.191 43.130 41.334
136.200 -18.602 -0.202 -18.626 -0.193 -18.764 -0.153 -18.952 -0.129 -19.026 -0.127 -19.081 -0.128 -19.144 -0.137 -19.328 -0.230 6.529 0.179 3.225 0.191 43.129 41.332
136.600 -18.599 -0.204 -18.624 -0.195 -18.762 -0.155 -18.950 -0.130 -19.024 -0.128 -19.079 -0.129 -19.141 -0.138 -19.325 -0.230 6.529 0.179 3.221 0.191 43.128 41.330
137.000 -18.597 -0.206 -18.622 -0.197 -18.759 -0.157 -18.947 -0.131 -19.021 -0.128 -19.076 -0.130 -19.139 -0.139 -19.322 -0.231 6.529 0.179 3.217 0.190 43.127 41.328
137.400 -18.595 -0.207 -18.619 -0.198 -18.756 -0.158 -18.945 -0.132 -19.019 -0.129 -19.074 -0.130 -19.136 -0.139 -19.319 -0.232 6.529 0.179 3.213 0.190 43.126 41.326
137.800 -18.592 -0.209 -18.617 -0.200 -18.754 -0.160 -18.942 -0.133 -19.016 -0.130 -19.071 -0.131 -19.133 -0.140 -19.316 -0.233 6.530 0.179 3.209 0.190 43.125 41.324
138.200 -18.590 -0.211 -18.614 -0.202 -18.751 -0.161 -18.939 -0.134 -19.014 -0.131 -19.069 -0.132 -19.131 -0.141 -19.313 -0.234 6.530 0.179 3.205 0.189 43.124 41.323
138.600 -18.587 -0.212 -18.612 -0.203 -18.749 -0.163 -18.937 -0.135 -19.011 -0.131 -19.066 -0.133 -19.128 -0.142 -19.310 -0.235 6.530 0.179 3.201 0.189 43.123 41.321
139.000 -18.585 -0.214 -18.609 -0.205 -18.746 -0.164 -18.934 -0.136 -19.008 -0.132 -19.063 -0.133 -19.126 -0.143 -19.307 -0.236 6.530 0.179 3.198 0.188 43.122 41.319
139.400 -18.582 -0.215 -18.607 -0.206 -18.744 -0.166 -18.932 -0.137 -19.006 -0.133 -19.061 -0.134 -19.123 -0.143 -19.303 -0.237 6.530 0.179 3.194 0.188 43.121 41.317
139.800 -18.580 -0.217 -18.604 -0.208 -18.741 -0.167 -18.929 -0.138 -19.003 -0.133 -19.058 -0.135 -19.120 -0.144 -19.300 -0.238 6.530 0.179 3.190 0.188 43.120 41.315
140.200 -18.578 -0.218 -18.602 -0.209 -18.739 -0.168 -18.927 -0.138 -19.001 -0.134 -19.056 -0.135 -19.118 -0.145 -19.297 -0.239 6.530 0.179 3.186 0.187 43.119 41.313
140.600 -18.575 -0.220 -18.599 -0.211 -18.736 -0.170 -18.924 -0.139 -18.998 -0.135 -19.053 -0.136 -19.115 -0.146 -19.294 -0.240 6.530 0.178 3.182 0.187 43.118 41.312
141.000 -18.573 -0.222 -18.597 -0.213 -18.733 -0.171 -18.921 -0.140 -18.996 -0.136 -19.051 -0.137 -19.112 -0.147 -19.291 -0.241 6.530 0.178 3.179 0.187 43.117 41.310
141.400 -18.570 -0.223 -18.594 -0.214 -18.731 -0.172 -18.919 -0.141 -18.993 -0.136 -19.048 -0.138 -19.110 -0.147 -19.288 -0.242 6.530 0.178 3.175 0.186 43.116 41.308
141.800 -18.568 -0.225 -18.592 -0.216 -18.728 -0.174 -18.916 -0.142 -18.990 -0.137 -19.045 -0.138 -19.107 -0.148 -19.285 -0.243 6.530 0.178 3.171 0.186 43.115 41.306
142.200 -18.565 -0.226 -18.589 -0.217 -18.725 -0.175 -18.914 -0.142 -18.988 -0.137 -19.043 -0.139 -19.105 -0.149 -19.282 -0.244 6.530 0.178 3.167 0.186 43.114 41.305
142.600 -18.562 -0.227 -18.587 -0.218 -18.723 -0.176 -18.911 -0.143 -18.985 -0.138 -19.040 -0.139 -19.102 -0.150 -19.279 -0.245 6.530 0.178 3.164 0.185 43.113 41.303
143.000 -18.560 -0.229 -18.584 -0.220 -18.720 -0.177 -18.908 -0.144 -18.983 -0.139 -19.038 -0.140 -19.099 -0.150 -19.276 -0.246 6.530 0.178 3.160 0.185 43.112 41.301
143.400 -18.557 -0.230 -18.582 -0.221 -18.717 -0.179 -18.906 -0.144 -18.980 -0.139 -19.035 -0.141 -19.097 -0.151 -19.273 -0.247 6.530 0.178 3.156 0.185 43.111 41.299
143.800 -18.555 -0.232 -18.579 -0.223 -18.715 -0.180 -18.903 -0.145 -18.978 -0.140 -19.033 -0.141 -19.094 -0.152 -19.270 -0.248 6.529 0.178 3.152 0.184 43.110 41.298
144.200 -18.552 -0.233 -18.576 -0.224 -18.712 -0.181 -18.900 -0.146 -18.975 -0.140 -19.030 -0.142 -19.092 -0.152 -19.267 -0.249 6.529 0.178 3.149 0.184 43.109 41.296
144.600 -18.550 -0.234 -18.574 -0.225 -18.709 -0.182 -18.898 -0.146 -18.972 -0.141 -19.027 -0.143 -19.089 -0.153 -19.264 -0.250 6.529 0.178 3.145 0.184 43.107 41.294
145.000 -18.547 -0.236 -18.571 -0.227 -18.707 -0.183 -18.895 -0.147 -18.970 -0.141 -19.025 -0.143 -19.086 -0.154 -19.261 -0.251 6.529 0.178 3.141 0.183 43.106 41.292
145.400 -18.544 -0.237 -18.569 -0.228 -18.704 -0.184 -18.892 -0.147 -18.967 -0.142 -19.022 -0.144 -19.084 -0.155 -19.258 -0.252 6.529 0.178 3.137 0.183 43.105 41.291
145.800 -18.542 -0.238 -18.566 -0.229 -18.701 -0.185 -18.890 -0.148 -18.964 -0.142 -19.019 -0.144 -19.081 -0.155 -19.255 -0.253 6.529 0.178 3.133 0.183 43.104 41.289
146.200 -18.539 -0.240 -18.563 -0.230 -18.699 -0.186 -18.887 -0.148 -18.962 -0.143 -19.017 -0.145 -19.078 -0.156 -19.252 -0.254 6.529 0.177 3.129 0.182 43.103 41.287
146.600 -18.537 -0.241 -18.561 -0.232 -18.696 -0.187 -18.884 -0.149 -18.959 -0.143 -19.014 -0.145 -19.076 -0.157 -19.249 -0.255 6.529 0.177 3.125 0.182 43.102 41.286
147.000 -18.534 -0.242 -18.558 -0.233 -18.693 -0.188 -18.881 -0.149 -18.956 -0.144 -19.012 -0.146 -19.073 -0.157 -19.246 -0.256 6.529 0.177 3.121 0.182 43.101 41.284
147.400 -18.531 -0.243 -18.555 -0.234 -18.690 -0.189 -18.879 -0.150 -18.954 -0.144 -19.009 -0.146 -19.070 -0.158 -19.243 -0.257 6.529 0.177 3.117 0.182 43.100 41.282
147.800 -18.529 -0.245 -18.553 -0.235 -18.687 -0.190 -18.876 -0.150 -18.951 -0.145 -19.006 -0.147 -19.068 -0.158 -19.240 -0.258 6.529 0.177 3.113 0.181 43.099 41.280
148.200 -18.526 -0.246 -18.550 -0.236 -18.685 -0.191 -18.873 -0.151 -18.948 -0.145 -19.003 -0.147 -19.065 -0.159 -19.237 -0.259 6.530 0.177 3.109 0.181 43.098 41.279
148.600 -18.523 -0.247 -18.547 -0.237 -18.682 -0.192 -18.870 -0.151 -18.945 -0.145 -19.001 -0.148 -19.062 -0.160 -19.234 -0.260 6.530 0.177 3.105 0.181 43.097 41.277
149.000 -18.521 -0.248 -18.545 -0.239 -18.679 -0.192 -18.868 -0.151 -18.943 -0.146 -18.998 -0.148 -19.060 -0.160 -19.231 -0.261 6.530 0.177 3.101 0.180 43.095 41.275
149.400 -18.518 -0.249 -18.542 -0.240 -18.676 -0.193 -18.865 -0.152 -18.940 -0.146 -18.995 -0.148 -19.057 -0.161 -19.227 -0.262 6.530 0.177 3.097 0.180 43.094 41.274
149.800 -18.515 -0.250 -18.539 -0.241 -18.673 -0.194 -18.862 -0.152 -18.937 -0.146 -18.992 -0.149 -19.054 -0.161 -19.224 -0.263 6.530 0.177 3.092 0.180 43.093 41.272
150.200 -18.513 -0.251 -18.536 -0.242 -18.671 -0.195 -18.859 -0.152 -18.934 -0.146 -18.990 -0.149 -19.051 -0.162 -19.221 -0.264 6.531 0.177 3.088 0.180 43.092 41.270
150.600 -18.510 -0.252 -18.534 -0.243 -18.668 -0.195 -18.856 -0.152 -18.931 -0.147 -18.987 -0.149 -19.048 -0.162 -19.218 -0.265 6.531 0.177 3.084 0.179 43.091 41.268
151.000 -18.507 -0.253 -18.531 -0.244 -18.665 -0.196 -18.853 -0.153 -18.929 -0.147 -18.984 -0.150 -19.046 -0.163 -19.215 -0.266 6.531 0.177 3.079 0.179 43.090 41.267
151.400 -18.504 -0.254 -18.528 -0.245 -18.662 -0.196 -18.850 -0.153 -18.926 -0.147 -18.981 -0.150 -19.043 -0.164 -19.212 -0.267 6.532 0.177 3.075 0.179 43.088 41.265
151.800 -18.502 -0.255 -18.525 -0.245 -18.659 -0.197 -18.848 -0.153 -18.923 -0.147 -18.978 -0.150 -19.040 -0.164 -19.209 -0.268 6.532 0.177 3.070 0.178 43.087 41.263
152.200 -18.499 -0.256 -18.522 -0.246 -18.656 -0.198 -18.845 -0.153 -18.920 -0.147 -18.976 -0.151 -19.037 -0.165 -19.206 -0.269 6.532 0.177 3.065 0.178 43.086 41.262
152.600 -18.496 -0.257 -18.520 -0.247 -18.653 -0.198 -18.842 -0.153 -18.917 -0.148 -18.973 -0.151 -19.034 -0.165 -19.203 -0.270 6.533 0.177 3.061 0.178 43.085 41.260
153.000 -18.493 -0.258 -18.517 -0.248 -18.650 -0.199 -18.839 -0.153 -18.914 -0.148 -18.970 -0.151 -19.031 -0.166 -19.200 -0.271 6.534 0.178 3.056 0.178 43.084 41.258
153.400 -18.490 -0.259 -18.514 -0.249 -18.647 -0.199 -18.836 -0.153 -18.911 -0.148 -18.967 -0.151 -19.028 -0.166 -19.196 -0.273 6.534 0.178 3.051 0.178 43.083 41.256
153.800 -18.488 -0.260 -18.511 -0.250 -18.644 -0.200 -18.833 -0.153 -18.908 -0.148 -18.964 -0.152 -19.025 -0.167 -19.193 -0.274 6.535 0.178 3.046 0.177 43.081 41.254
154.200 -18.485 -0.260 -18.508 -0.250 -18.641 -0.200 -18.830 -0.153 -18.905 -0.148 -18.961 -0.152 -19.023 -0.167 -19.190 -0.275 6.536 0.178 3.041 0.177 43.080 41.253
154.600 -18.482 -0.261 -18.506 -0.251 -18.638 -0.200 -18.827 -0.153 -18.902 -0.148 -18.958 -0.152 -19.020 -0.167 -19.187 -0.276 6.536 0.178 3.036 0.177 43.079 41.251
155.000 -18.479 -0.262 -18.503 -0.252 -18.636 -0.201 -18.824 -0.153 -18.899 -0.148 -18.955 -0.152 -19.017 -0.168 -19.184 -0.277 6.537 0.178 3.031 0.177 43.078 41.249
155.400 -18.476 -0.263 -18.500 -0.253 -18.633 -0.201 -18.821 -0.153 -18.896 -0.148 -18.952 -0.152 -19.014 -0.168 -19.181 -0.278 6.538 0.178 3.026 0.176 43.076 41.247
155.800 -18.474 -0.264 -18.497 -0.253 -18.630 -0.201 -18.818 -0.153 -18.893 -0.148 -18.949 -0.152 -19.011 -0.169 -19.177 -0.279 6.539 0.178 3.021 0.176 43.075 41.245
156.200 -18.471 -0.264 -18.494 -0.254 -18.627 -0.202 -18.815 -0.153 -18.890 -0.148 -18.946 -0.153 -19.007 -0.169 -19.174 -0.280 6.540 0.179 3.015 0.176 43.074 41.244
156.600 -18.468 -0.265 -18.491 -0.255 -18.623 -0.202 -18.811 -0.152 -18.887 -0.147 -18.943 -0.153 -19.004 -0.170 -19.171 -0.281 6.541 0.179 3.010 0.176 43.072 41.242
157.000 -18.465 -0.266 -18.488 -0.255 -18.620 -0.202 -18.808 -0.152 -18.884 -0.147 -18.940 -0.153 -19.001 -0.170 -19.168 -0.282 6.542 0.179 3.004 0.176 43.071 41.240
157.400 -18.462 -0.266 -18.485 -0.256 -18.617 -0.202 -18.805 -0.152 -18.881 -0.147 -18.937 -0.153 -18.998 -0.170 -19.165 -0.283 6.544 0.179 2.999 0.175 43.070 41.238
157.800 -18.459 -0.267 -18.482 -0.256 -18.614 -0.202 -18.802 -0.152 -18.878 -0.147 -18.933 -0.153 -18.995 -0.171 -19.161 -0.284 6.545 0.179 2.993 0.175 43.069 41.236
158.200 -18.456 -0.268 -18.479 -0.257 -18.611 -0.203 -18.799 -0.151 -18.874 -0.147 -18.930 -0.153 -18.992 -0.171 -19.158 -0.285 6.546 0.180 2.987 0.175 43.067 41.234
158.600 -18.453 -0.268 -18.477 -0.258 -18.608 -0.203 -18.796 -0.151 -18.871 -0.147 -18.927 -0.153 -18.989 -0.172 -19.155 -0.286 6.547 0.180 2.981 0.175 43.066 41.232
159.000 -18.450 -0.269 -18.474 -0.258 -18.605 -0.203 -18.793 -0.150 -18.868 -0.146 -18.924 -0.153 -18.985 -0.172 -19.152 -0.287 6.549 0.180 2.976 0.175 43.065 41.230
159.400 -18.448 -0.269 -18.471 -0.259 -18.602 -0.203 -18.789 -0.150 -18.865 -0.146 -18.921 -0.153 -18.982 -0.172 -19.148 -0.288 6.550 0.180 2.970 0.174 43.063 41.228
159.800 -18.445 -0.270 -18.468 -0.259 -18.599 -0.203 -18.786 -0.149 -18.862 -0.146 -18.917 -0.153 -18.979 -0.173 -19.145 -0.289 6.552 0.181 2.964 0.174 43.062 41.226
160.200 -18.442 -0.270 -18.465 -0.259 -18.596 -0.203 -18.783 -0.149 -18.858 -0.145 -18.914 -0.153 -18.976 -0.173 -19.142 -0.290 6.554 0.181 2.958 0.174 43.061 41.224
160.600 -18.439 -0.271 -18.462 -0.260 -18.593 -0.203 -18.780 -0.148 -18.855 -0.145 -18.911 -0.153 -18.972 -0.173 -19.138 -0.291 6.555 0.181 2.951 0.174 43.059 41.222
161.000 -18.436 -0.271 -18.459 -0.260 -18.590 -0.203 -18.776 -0.148 -18.852 -0.145 -18.908 -0.153 -18.969 -0.174 -19.135 -0.292 6.557 0.181 2.945 0.174 43.058 41.220
161.400 -18.433 -0.272 -18.456 -0.261 -18.586 -0.203 -18.773 -0.147 -18.849 -0.144 -18.904 -0.153 -18.966 -0.174 -19.132 -0.293 6.559 0.182 2.939 0.173 43.056 41.218
161.800 -18.430 -0.272 -18.453 -0.261 -18.583 -0.202 -18.770 -0.147 -18.845 -0.144 -18.901 -0.153 -18.962 -0.174 -19.128 -0.294 6.560 0.182 2.933 0.173 43.055 41.216
162.200 -18.427 -0.273 -18.450 -0.261 -18.580 -0.202 -18.767 -0.146 -18.842 -0.143 -18.898 -0.152 -18.959 -0.175 -19.125 -0.295 6.562 0.182 2.926 0.173 43.054 41.214
162.600 -18.424 -0.273 -18.447 -0.262 -18.577 -0.202 -18.763 -0.145 -18.839 -0.143 -18.894 -0.152 -18.956 -0.175 -19.121 -0.296 6.564 0.183 2.920 0.173 43.052 41.212
163.000 -18.421 -0.273 -18.444 -0.262 -18.574 -0.202 -18.760 -0.145 -18.835 -0.142 -18.891 -0.152 -18.952 -0.175 -19.118 -0.297 6.566 0.183 2.913 0.173 43.051 41.209
163.400 -18.418 -0.274 -18.441 -0.262 -18.570 -0.202 -18.757 -0.144 -18.832 -0.142 -18.887 -0.152 -18.949 -0.175 -19.115 -0.298 6.568 0.183 2.907 0.173 43.049 41.207
163.800 -18.415 -0.274 -18.438 -0.263 -18.567 -0.201 -18.753 -0.143 -18.828 -0.141 -18.884 -0.152 -18.945 -0.176 -19.111 -0.299 6.570 0.184 2.900 0.172 43.048 41.205
164.200 -18.412 -0.275 -18.435 -0.263 -18.564 -0.201 -18.750 -0.142 -18.825 -0.141 -18.881 -0.152 -18.942 -0.176 -19.108 -0.300 6.572 0.184 2.894 0.172 43.047 41.203
164.600 -18.409 -0.275 -18.432 -0.263 -18.561 -0.201 -18.746 -0.141 -18.822 -0.140 -18.877 -0.151 -18.939 -0.176 -19.104 -0.301 6.574 0.184 2.887 0.172 43.045 41.200
165.000 -18.406 -0.275 -18.428 -0.263 -18.558 -0.201 -18.743 -0.140 -18.818 -0.139 -18.874 -0.151 -18.935 -0.176 -19.101 -0.302 6.576 0.185 2.880 0.172 43.044 41.198
165.400 -18.403 -0.275 -18.425 -0.264 -18.554 -0.200 -18.740 -0.139 -18.815 -0.139 -18.870 -0.151 -18.932 -0.177 -19.097 -0.303 6.578 0.185 2.874 0.172 43.042 41.196
165.800 -18.400 -0.276 -18.422 -0.264 -18.551 -0.200 -18.736 -0.138 -18.811 -0.138 -18.867 -0.150 -18.928 -0.177 -19.094 -0.304 6.580 0.186 2.867 0.172 43.041 41.193
166.200 -18.397 -0.276 -18.419 -0.264 -18.548 -0.200 -18.733 -0.137 -18.808 -0.137 -18.863 -0.150 -18.925 -0.177 -19.090 -0.305 6.583 0.186 2.860 0.172 43.039 41.191
166.600 -18.394 -0.276 -18.416 -0.264 -18.545 -0.199 -18.729 -0.136 -18.804 -0.136 -18.860 -0.150 -18.921 -0.177 -19.087 -0.306 6.585 0.187 2.853 0.171 43.038 41.188
167.000 -18.390 -0.277 -18.413 -0.264 -18.541 -0.199 -18.726 -0.135 -18.801 -0.136 -18.856 -0.150 -18.918 -0.177 -19.083 -0.307 6.587 0.187 2.847 0.171 43.036 41.186
167.400 -18.387 -0.277 -18.410 -0.264 -18.538 -0.198 -18.722 -0.134 -18.797 -0.135 -18.853 -0.149 -18.914 -0.178 -19.080 -0.308 6.589 0.188 2.840 0.171 43.035 41.183
167.800 -18.384 -0.277 -18.407 -0.265 -18.535 -0.198 -18.719 -0.133 -18.794 -0.134 -18.849 -0.149 -18.910 -0.178 -19.076 -0.309 6.592 0.188 2.833 0.171 43.033 41.180
168.200 -18.381 -0.277 -18.404 -0.265 -18.531 -0.197 -18.715 -0.132 -18.790 -0.133 -18.846 -0.148 -18.907 -0.178 -19.073 -0.310 6.594 0.188 2.826 0.171 43.032 41.178
168.600 -18.378 -0.277 -18.401 -0.265 -18.528 -0.197 -18.712 -0.131 -18.787 -0.132 -18.842 -0.148 -18.903 -0.178 -19.069 -0.311 6.597 0.189 2.819 0.171 43.030 41.175
169.000 -18.375 -0.278 -18.397 -0.265 -18.525 -0.196 -18.708 -0.130 -18.783 -0.131 -18.838 -0.148 -18.900 -0.178 -19.066 -0.312 6.599 0.189 2.812 0.171 43.029 41.172
169.400 -18.372 -0.278 -18.394 -0.265 -18.522 -0.196 -18.705 -0.128 -18.780 -0.131 -18.835 -0.147 -18.896 -0.178 -19.062 -0.313 6.601 0.190 2.805 0.171 43.027 41.170
169.800 -18.369 -0.278 -18.391 -0.265 -18.518 -0.195 -18.701 -0.127 -18.776 -0.130 -18.831 -0.147 -18.893 -0.178 -19.059 -0.314 6.604 0.190 2.798 0.171 43.026 41.167
170.200 -18.366 -0.278 -18.388 -0.265 -18.515 -0.195 -18.698 -0.126 -18.772 -0.129 -18.828 -0.146 -18.889 -0.178 -19.055 -0.315 6.606 0.191 2.791 0.171 43.024 41.164
170.600 -18.363 -0.278 -18.385 -0.265 -18.512 -0.194 -18.694 -0.124 -18.769 -0.128 -18.824 -0.146 -18.885 -0.179 -19.051 -0.316 6.609 0.192 2.784 0.170 43.023 41.161
171.000 -18.359 -0.278 -18.382 -0.265 -18.508 -0.194 -18.691 -0.123 -18.765 -0.127 -18.820 -0.145 -18.882 -0.179 -19.048 -0.317 6.611 0.192 2.777 0.170 43.021 41.158
171.400 -18.356 -0.278 -18.379 -0.265 -18.505 -0.193 -18.687 -0.121 -18.762 -0.126 -18.817 -0.145 -18.878 -0.179 -19.044 -0.318 6.614 0.193 2.770 0.170 43.020 41.155
171.800 -18.353 -0.279 -18.375 -0.265 -18.502 -0.192 -18.684 -0.120 -18.758 -0.125 -18.813 -0.145 -18.874 -0.179 -19.040 -0.319 6.616 0.193 2.763 0.170 43.018 41.152
172.200 -18.350 -0.279 -18.372 -0.265 -18.498 -0.192 -18.680 -0.119 -18.754 -0.124 -18.810 -0.144 -18.871 -0.179 -19.037 -0.320 6.619 0.194 2.756 0.170 43.016 41.148
172.600 -18.347 -0.279 -18.369 -0.265 -18.495 -0.191 -18.677 -0.117 -18.751 -0.123 -18.806 -0.144 -18.867 -0.179 -19.033 -0.321 6.621 0.194 2.749 0.170 43.015 41.145
173.000 -18.344 -0.279 -18.366 -0.265 -18.492 -0.191 -18.673 -0.116 -18.747 -0.121 -18.802 -0.143 -18.863 -0.179 -19.030 -0.322 6.624 0.195 2.742 0.170 43.013 41.142
173.400 -18.341 -0.279 -18.363 -0.265 -18.488 -0.190 -18.669 -0.114 -18.744 -0.120 -18.799 -0.143 -18.860 -0.179 -19.026 -0.323 6.626 0.196 2.735 0.170 43.012 41.139
173.800 -18.338 -0.279 -18.360 -0.265 -18.485 -0.189 -18.666 -0.112 -18.740 -0.119 -18.795 -0.142 -18.856 -0.179 -19.022 -0.324 6.629 0.196 2.728 0.170 43.010 41.135
174.200 -18.334 -0.279 -18.356 -0.265 -18.481 -0.189 -18.662 -0.111 -18.736 -0.118 -18.791 -0.142 -18.852 -0.179 -19.019 -0.325 6.631 0.197 2.721 0.170 43.009 41.132
174.600 -18.331 -0.279 -18.353 -0.265 -18.478 -0.188 -18.659 -0.109 -18.733 -0.117 -18.788 -0.141 -18.849 -0.180 -19.015 -0.326 6.634 0.198 2.714 0.170 43.007 41.128
175.000 -18.328 -0.279 -18.350 -0.265 -18.475 -0.187 -18.655 -0.107 -18.729 -0.116 -18.784 -0.141 -18.845 -0.180 -19.011 -0.327 6.636 0.198 2.707 0.170 43.005 41.125
175.400 -18.325 -0.280 -18.347 -0.266 -18.471 -0.187 -18.651 -0.106 -18.725 -0.115 -18.780 -0.140 -18.841 -0.180 -19.008 -0.328 6.639 0.199 2.700 0.170 43.004 41.121
175.800 -18.322 -0.280 -18.344 -0.266 -18.468 -0.186 -18.648 -0.104 -18.722 -0.114 -18.777 -0.140 -18.838 -0.180 -19.004 -0.329 6.641 0.200 2.693 0.170 43.002 41.117
176.200 -18.319 -0.280 -18.340 -0.266 -18.465 -0.185 -18.644 -0.102 -18.718 -0.112 -18.773 -0.139 -18.834 -0.180 -19.000 -0.330 6.644 0.200 2.686 0.170 43.001 41.114
176.600 -18.315 -0.280 -18.337 -0.266 -18.461 -0.185 -18.641 -0.101 -18.714 -0.111 -18.769 -0.139 -18.830 -0.180 -18.996 -0.331 6.646 0.201 2.679 0.170 42.999 41.110
177.000 -18.312 -0.280 -18.334 -0.266 -18.458 -0.184 -18.637 -0.099 -18.711 -0.110 -18.765 -0.138 -18.827 -0.180 -18.993 -0.332 6.648 0.202 2.672 0.170 42.997 41.106
177.400 -18.309 -0.280 -18.331 -0.266 -18.455 -0.183 -18.633 -0.097 -18.707 -0.109 -18.762 -0.138 -18.823 -0.180 -18.989 -0.333 6.651 0.203 2.665 0.170 42.996 41.102
177.800 -18.306 -0.280 -18.328 -0.266 -18.451 -0.183 -18.630 -0.095 -18.703 -0.108 -18.758 -0.137 -18.819 -0.180 -18.985 -0.334 6.653 0.204 2.659 0.170 42.994 41.098
178.200 -18.303 -0.280 -18.324 -0.266 -18.448 -0.182 -18.626 -0.093 -18.700 -0.107 -18.754 -0.137 -18.815 -0.180 -18.981 -0.334 6.655 0.204 2.652 0.170 42.993 41.094
178.600 -18.299 -0.280 -18.321 -0.266 -18.444 -0.182 -18.623 -0.092 -18.696 -0.105 -18.751 -0.136 -18.812 -0.181 -18.978 -0.335 6.658 0.205 2.645 0.171 42.991 41.090
179.000 -18.296 -0.280 -18.318 -0.266 -18.441 -0.181 -18.619 -0.090 -18.692 -0.104 -18.747 -0.136 -18.808 -0.181 -18.974 -0.336 6.660 0.206 2.638 0.171 42.989 41.085
179.400 -18.293 -0.280 -18.315 -0.266 -18.438 -0.180 -18.615 -0.088 -18.689 -0.103 -18.743 -0.135 -18.804 -0.181 -18.970 -0.337 6.662 0.207 2.632 0.171 42.988 41.081
179.800 -18.290 -0.281 -18.311 -0.266 -18.434 -0.180 -18.612 -0.086 -18.685 -0.102 -18.740 -0.135 -18.800 -0.181 -18.967 -0.338 6.664 0.208 2.625 0.171 42.986 41.077
180.200 -18.287 -0.281 -18.308 -0.266 -18.431 -0.179 -18.608 -0.084 -18.681 -0.101 -18.736 -0.134 -18.797 -0.181 -18.963 -0.339 6.667 0.208 2.618 0.171 42.985 41.072
180.600 -18.284 -0.281 -18.305 -0.266 -18.427 -0.179 -18.605 -0.082 -18.678 -0.100 -18.732 -0.134 -18.793 -0.181 -18.959 -0.340 6.669 0.209 2.612 0.171 42.983 41.068
181.000 -18.280 -0.281 -18.302 -0.266 -18.424 -0.178 -18.601 -0.081 -18.674 -0.099 -18.729 -0.134 -18.789 -0.182 -18.955 -0.341 6.671 0.210 2.605 0.171 42.981 41.063
181.400 -18.277 -0.281 -18.299 -0.266 -18.421 -0.178 -18.597 -0.079 -18.670 -0.098 -18.725 -0.133 -18.786 -0.182 -18.951 -0.342 6.673 0.211 2.599 0.172 42.980 41.059
181.800 -18.274 -0.281 -18.295 -0.266 -18.417 -0.177 -18.594 -0.077 -18.667 -0.097 -18.721 -0.133 -18.782 -0.182 -18.948 -0.343 6.675 0.212 2.592 0.172 42.978 41.054
182.200 -18.271 -0.281 -18.292 -0.266 -18.414 -0.177 -18.590 -0.075 -18.663 -0.096 -18.717 -0.133 -18.778 -0.182 -18.944 -0.344 6.677 0.213 2.586 0.172 42.976 41.049
182.600 -18.268 -0.282 -18.289 -0.266 -18.411 -0.176 -18.587 -0.073 -18.659 -0.095 -18.714 -0.132 -18.774 -0.182 -18.940 -0.345 6.679 0.214 2.580 0.172 42.975 41.044
183.000 -18.264 -0.282 -18.286 -0.266 -18.407 -0.176 -18.583 -0.071 -18.656 -0.094 -18.710 -0.132 -18.771 -0.183 -18.936 -0.346 6.680 0.215 2.574 0.172 42.973 41.039
183.400 -18.261 -0.282 -18.282 -0.266 -18.404 -0.175 -18.579 -0.070 -18.652 -0.093 -18.706 -0.132 -18.767 -0.183 -18.932 -0.347 6.682 0.216 2.567 0.173 42.971 41.034
183.800 -18.258 -0.282 -18.279 -0.266 -18.400 -0.175 -18.576 -0.068 -18.648 -0.092 -18.703 -0.132 -18.763 -0.183 -18.929 -0.348 6.684 0.217 2.561 0.173 42.970 41.029
184.200 -18.255 -0.282 -18.276 -0.267 -18.397 -0.174 -18.572 -0.066 -18.645 -0.091 -18.699 -0.132 -18.759 -0.183 -18.925 -0.348 6.686 0.217 2.555 0.173 42.968 41.024
184.600 -18.251 -0.283 -18.273 -0.267 -18.394 -0.174 -18.569 -0.065 -18.641 -0.091 -18.695 -0.131 -18.756 -0.184 -18.921 -0.349 6.687 0.218 2.549 0.173 42.967 41.019
185.000 -18.248 -0.283 -18.269 -0.267 -18.390 -0.174 -18.565 -0.063 -18.638 -0.090 -18.692 -0.131 -18.752 -0.184 -18.917 -0.350 6.689 0.219 2.543 0.174 42.965 41.014
185.400 -18.245 -0.283 -18.266 -0.267 -18.387 -0.174 -18.562 -0.062 -18.634 -0.089 -18.688 -0.131 -18.748 -0.184 -18.913 -0.351 6.691 0.220 2.537 0.174 42.963 41.009
185.800 -18.242 -0.283 -18.263 -0.267 -18.384 -0.173 -18.558 -0.060 -18.630 -0.089 -18.684 -0.131 -18.745 -0.185 -18.910 -0.352 6.692 0.221 2.531 0.174 42.962 41.004
186.200 -18.239 -0.284 -18.260 -0.267 -18.380 -0.173 -18.554 -0.059 -18.627 -0.088 -18.681 -0.131 -18.741 -0.185 -18.906 -0.353 6.694 0.222 2.525 0.174 42.960 40.999
186.600 -18.235 -0.284 -18.257 -0.268 -18.377 -0.173 -18.551 -0.057 -18.623 -0.088 -18.677 -0.131 -18.737 -0.185 -18.902 -0.354 6.695 0.222 2.520 0.174 42.959 40.994
187.000 -18.232 -0.284 -18.253 -0.268 -18.374 -0.173 -18.547 -0.056 -18.620 -0.087 -18.673 -0.131 -18.733 -0.186 -18.898 -0.355 6.697 0.223 2.514 0.174 42.957 40.988
187.400 -18.229 -0.284 -18.250 -0.268 -18.370 -0.173 -18.544 -0.055 -18.616 -0.087 -18.670 -0.132 -18.730 -0.186 -18.894 -0.356 6.699 0.223 2.508 0.174 42.955 40.984
187.800 -18.226 -0.285 -18.247 -0.268 -18.367 -0.172 -18.540 -0.054 -18.612 -0.087 -18.666 -0.132 -18.726 -0.187 -18.890 -0.357 6.701 0.224 2.502 0.174 42.954 40.979
188.200 -18.222 -0.285 -18.244 -0.269 -18.363 -0.172 -18.537 -0.053 -18.609 -0.087 -18.662 -0.132 -18.722 -0.187 -18.887 -0.358 6.703 0.224 2.496 0.174 42.952 40.974
188.600 -18.219 -0.285 -18.240 -0.269 -18.360 -0.172 -18.533 -0.053 -18.605 -0.086 -18.659 -0.132 -18.718 -0.188 -18.883 -0.359 6.705 0.225 2.490 0.173 42.951 40.969
189.000 -18.216 -0.286 -18.237 -0.269 -18.357 -0.172 -18.530 -0.052 -18.602 -0.086 -18.655 -0.132 -18.715 -0.188 -18.879 -0.360 6.707 0.225 2.484 0.173 42.949 40.965
189.400 -18.213 -0.286 -18.234 -0.270 -18.353 -0.172 -18.527 -0.051 -18.598 -0.086 -18.651 -0.133 -18.711 -0.189 -18.875 -0.361 6.709 0.225 2.479 0.173 42.948 40.961
189.800 -18.210 -0.287 -18.230 -0.270 -18.350 -0.172 -18.523 -0.051 -18.594 -0.086 -18.648 -0.133 -18.707 -0.189 -18.871 -0.362 6.711 0.225 2.473 0.172 42.946 40.957
190.200 -18.206 -0.287 -18.227 -0.270 -18.347 -0.173 -18.520 -0.051 -18.591 -0.087 -18.644 -0.133 -18.704 -0.190 -18.867 -0.363 6.714 0.225 2.467 0.172 42.945 40.954
190.600 -18.203 -0.287 -18.224 -0.271 -18.343 -0.173 -18.516 -0.051 -18.587 -0.087 -18.641 -0.134 -18.700 -0.190 -18.863 -0.363 6.716 0.225 2.461 0.171 42.944 40.950
191.000 -18.200 -0.288 -18.221 -0.271 -18.340 -0.173 -18.513 -0.051 -18.584 -0.087 -18.637 -0.134 -18.696 -0.191 -18.860 -0.364 6.719 0.225 2.455 0.170 42.942 40.947
191.400 -18.197 -0.288 -18.217 -0.272 -18.337 -0.173 -18.509 -0.051 -18.580 -0.088 -18.633 -0.135 -18.692 -0.192 -18.856 -0.365 6.722 0.224 2.449 0.170 42.941 40.945
191.800 -18.193 -0.289 -18.214 -0.272 -18.333 -0.173 -18.506 -0.051 -18.577 -0.088 -18.630 -0.135 -18.689 -0.192 -18.852 -0.366 6.725 0.224 2.443 0.169 42.939 40.942
192.200 -18.190 -0.289 -18.211 -0.273 -18.330 -0.174 -18.502 -0.052 -18.573 -0.089 -18.626 -0.136 -18.685 -0.193 -18.848 -0.367 6.728 0.223 2.437 0.168 42.938 40.940
192.600 -18.187 -0.290 -18.208 -0.273 -18.327 -0.174 -18.499 -0.052 -18.570 -0.089 -18.622 -0.136 -18.681 -0.194 -18.844 -0.368 6.731 0.223 2.431 0.167 42.937 40.938
193.000 -18.183 -0.290 -18.204 -0.274 -18.323 -0.175 -18.496 -0.053 -18.566 -0.090 -18.619 -0.137 -18.677 -0.195 -18.840 -0.369 6.734 0.222 2.425 0.166 42.935 40.937
193.400 -18.180 -0.291 -18.201 -0.274 -18.320 -0.175 -18.492 -0.054 -18.563 -0.090 -18.615 -0.138 -18.674 -0.195 -18.836 -0.370 6.737 0.222 2.419 0.165 42.934 40.936
193.800 -18.177 -0.291 -18.198 -0.275 -18.317 -0.175 -18.489 -0.055 -18.559 -0.091 -18.611 -0.139 -18.670 -0.196 -18.832 -0.371 6.740 0.221 2.413 0.164 42.932 40.935
194.200 -18.174 -0.292 -18.194 -0.275 -18.313 -0.176 -18.485 -0.056 -18.555 -0.092 -18.608 -0.139 -18.666 -0.197 -18.828 -0.372 6.743 0.220 2.407 0.163 42.931 40.935
194.600 -18.170 -0.293 -18.191 -0.276 -18.310 -0.176 -18.482 -0.057 -18.552 -0.093 -18.604 -0.140 -18.662 -0.198 -18.825 -0.373 6.747 0.220 2.400 0.162 42.930 40.935
195.000 -18.167 -0.293 -18.188 -0.276 -18.306 -0.177 -18.478 -0.059 -18.548 -0.094 -18.600 -0.141 -18.659 -0.198 -18.821 -0.374 6.750 0.219 2.395 0.161 42.928 40.935
195.400 -18.164 -0.294 -18.185 -0.277 -18.303 -0.178 -18.475 -0.060 -18.545 -0.095 -18.597 -0.142 -18.655 -0.199 -18.817 -0.375 6.753 0.218 2.389 0.159 42.927 40.935
195.800 -18.161 -0.295 -18.181 -0.278 -18.300 -0.178 -18.471 -0.061 -18.541 -0.096 -18.593 -0.143 -18.651 -0.200 -18.813 -0.376 6.757 0.217 2.383 0.158 42.926 40.936
196.200 -18.157 -0.295 -18.178 -0.278 -18.296 -0.179 -18.468 -0.063 -18.538 -0.098 -18.589 -0.144 -18.647 -0.201 -18.809 -0.377 6.760 0.216 2.377 0.157 42.925 40.937
196.600 -18.154 -0.296 -18.175 -0.279 -18.293 -0.180 -18.464 -0.065 -18.534 -0.099 -18.586 -0.145 -18.644 -0.202 -18.805 -0.378 6.763 0.215 2.371 0.156 42.923 40.938
197.000 -18.151 -0.297 -18.171 -0.280 -18.289 -0.181 -18.461 -0.067 -18.530 -0.100 -18.582 -0.146 -18.640 -0.203 -18.801 -0.379 6.766 0.215 2.365 0.155 42.922 40.939
197.400 -18.147 -0.297 -18.168 -0.281 -18.286 -0.182 -18.457 -0.068 -18.527 -0.102 -18.578 -0.147 -18.636 -0.204 -18.797 -0.380 6.770 0.214 2.359 0.154 42.921 40.940
197.800 -18.144 -0.298 -18.165 -0.281 -18.283 -0.182 -18.454 -0.070 -18.523 -0.103 -18.575 -0.148 -18.632 -0.205 -18.793 -0.381 6.773 0.213 2.354 0.153 42.919 40.942
198.200 -18.141 -0.299 -18.161 -0.282 -18.279 -0.183 -18.450 -0.072 -18.520 -0.104 -18.571 -0.149 -18.629 -0.206 -18.789 -0.382 6.776 0.212 2.348 0.152 42.918 40.943
198.600 -18.137 -0.300 -18.158 -0.283 -18.276 -0.184 -18.447 -0.075 -18.516 -0.106 -18.567 -0.151 -18.625 -0.207 -18.785 -0.383 6.779 0.211 2.342 0.151 42.917 40.945
199.000 -18.134 -0.301 -18.155 -0.284 -18.272 -0.185 -18.443 -0.077 -18.512 -0.108 -18.564 -0.152 -18.621 -0.208 -18.781 -0.384 6.782 0.211 2.337 0.150 42.915 40.946
199.400 -18.131 -0.301 -18.151 -0.285 -18.269 -0.186 -18.440 -0.079 -18.509 -0.109 -18.560 -0.153 -18.617 -0.209 -18.777 -0.385 6.785 0.210 2.331 0.149 42.914 40.948
199.800 -18.127 -0.302 -18.148 -0.286 -18.265 -0.187 -18.436 -0.081 -18.505 -0.111 -18.556 -0.154 -18.613 -0.210 -18.773 -0.386 6.788 0.209 2.326 0.148 42.913 40.950
200.200 -18.124 -0.303 -18.145 -0.286 -18.262 -0.188 -18.432 -0.084 -18.501 -0.113 -18.552 -0.156 -18.610 -0.211 -18.769 -0.387 6.791 0.208 2.320 0.147 42.912 40.952
200.600 -18.121 -0.304 -18.141 -0.287 -18.259 -0.190 -18.429 -0.086 -18.498 -0.115 -18.549 -0.157 -18.606 -0.213 -18.766 -0.388 6.793 0.208 2.315 0.146 42.910 40.953
201.000 -18.117 -0.305 -18.138 -0.288 -18.255 -0.191 -18.425 -0.088 -18.494 -0.116 -18.545 -0.159 -18.602 -0.214 -18.762 -0.388 6.796 0.207 2.310 0.145 42.909 40.955
201.400 -18.114 -0.306 -18.134 -0.289 -18.252 -0.192 -18.422 -0.091 -18.490 -0.118 -18.541 -0.160 -18.598 -0.215 -18.758 -0.389 6.799 0.206 2.304 0.144 42.908 40.957
201.800 -18.111 -0.307 -18.131 -0.290 -18.248 -0.193 -18.418 -0.093 -18.487 -0.120 -18.537 -0.162 -18.594 -0.216 -18.754 -0.390 6.801 0.206 2.299 0.143 42.906 40.958
202.200 -18.107 -0.308 -18.128 -0.291 -18.245 -0.195 -18.414 -0.096 -18.483 -0.122 -18.534 -0.163 -18.591 -0.217 -18.750 -0.391 6.804 0.205 2.294 0.143 42.905 40.960
202.600 -18.104 -0.309 -18.124 -0.292 -18.241 -0.196 -18.411 -0.098 -18.479 -0.124 -18.530 -0.165 -18.587 -0.219 -18.746 -0.392 6.807 0.205 2.289 0.142 42.904 40.961
203.000 -18.101 -0.310 -18.121 -0.293 -18.238 -0.197 -18.407 -0.101 -18.475 -0.126 -18.526 -0.166 -18.583 -0.220 -18.742 -0.393 6.809 0.204 2.283 0.141 42.902 40.963
203.400 -18.097 -0.311 -18.118 -0.294 -18.234 -0.199 -18.403 -0.104 -18.472 -0.128 -18.522 -0.168 -18.579 -0.221 -18.738 -0.394 6.811 0.204 2.278 0.140 42.901 40.964
203.800 -18.094 -0.312 -18.114 -0.295 -18.231 -0.200 -18.400 -0.106 -18.468 -0.131 -18.519 -0.170 -18.575 -0.223 -18.734 -0.395 6.814 0.203 2.273 0.140 42.900 40.966
204.200 -18.090 -0.313 -18.111 -0.296 -18.227 -0.201 -18.396 -0.109 -18.464 -0.133 -18.515 -0.171 -18.571 -0.224 -18.730 -0.396 6.816 0.203 2.268 0.139 42.898 40.967
204.600 -18.087 -0.314 -18.107 -0.297 -18.224 -0.203 -18.392 -0.111 -18.460 -0.135 -18.511 -0.173 -18.567 -0.225 -18.726 -0.397 6.818 0.202 2.263 0.139 42.897 40.968
205.000 -18.084 -0.315 -18.104 -0.299 -18.220 -0.204 -18.389 -0.114 -18.457 -0.137 -18.507 -0.175 -18.564 -0.227 -18.722 -0.398 6.821 0.202 2.258 0.138 42.896 40.970
205.400 -18.080 -0.316 -18.100 -0.300 -18.217 -0.206 -18.385 -0.117 -18.453 -0.139 -18.503 -0.176 -18.560 -0.228 -18.718 -0.399 6.823 0.202 2.253 0.137 42.894 40.971
205.800 -18.077 -0.317 -18.097 -0.301 -18.213 -0.207 -18.381 -0.119 -18.449 -0.141 -18.499 -0.178 -18.556 -0.229 -18.714 -0.400 6.825 0.201 2.248 0.137 42.893 40.972
206.200 -18.073 -0.318 -18.093 -0.302 -18.209 -0.209 -18.377 -0.122 -18.445 -0.144 -18.496 -0.180 -18.552 -0.231 -18.710 -0.401 6.827 0.201 2.243 0.136 42.891 40.973
206.600 -18.070 -0.319 -18.090 -0.303 -18.206 -0.211 -18.374 -0.125 -18.441 -0.146 -18.492 -0.182 -18.548 -0.232 -18.706 -0.402 6.829 0.201 2.238 0.136 42.890 40.974
207.000 -18.066 -0.321 -18.087 -0.304 -18.202 -0.212 -18.370 -0.127 -18.438 -0.148 -18.488 -0.184 -18.544 -0.234 -18.702 -0.403 6.831 0.201 2.233 0.135 42.889 40.975
207.400 -18.063 -0.322 -18.083 -0.306 -18.199 -0.214 -18.366 -0.130 -18.434 -0.150 -18.484 -0.185 -18.540 -0.235 -18.698 -0.404 6.833 0.200 2.228 0.135 42.887 40.976
207.800 -18.059 -0.323 -18.080 -0.307 -18.195 -0.216 -18.362 -0.133 -18.430 -0.153 -18.480 -0.187 -18.536 -0.237 -18.694 -0.405 6.835 0.200 2.223 0.134 42.886 40.977
208.200 -18.056 -0.324 -18.076 -0.308 -18.191 -0.217 -18.359 -0.135 -18.426 -0.155 -18.476 -0.189 -18.532 -0.238 -18.690 -0.406 6.837 0.200 2.218 0.134 42.884 40.978
208.600 -18.052 -0.325 -18.073 -0.309 -18.188 -0.219 -18.355 -0.138 -18.422 -0.157 -18.472 -0.191 -18.528 -0.240 -18.686 -0.407 6.839 0.200 2.213 0.133 42.883 40.979
209.000 -18.049 -0.327 -18.069 -0.311 -18.184 -0.221 -18.351 -0.141 -18.418 -0.160 -18.468 -0.193 -18.524 -0.241 -18.681 -0.408 6.841 0.200 2.209 0.133 42.882 40.980
209.400 -18.046 -0.328 -18.066 -0.312 -18.181 -0.222 -18.347 -0.143 -18.415 -0.162 -18.465 -0.195 -18.520 -0.243 -18.677 -0.409 6.843 0.200 2.204 0.133 42.880 40.980
209.800 -18.042 -0.329 -18.062 -0.313 -18.177 -0.224 -18.343 -0.146 -18.411 -0.164 -18.461 -0.197 -18.516 -0.244 -18.673 -0.410 6.845 0.199 2.199 0.132 42.879 40.981
210.200 -18.039 -0.330 -18.059 -0.314 -18.173 -0.226 -18.340 -0.149 -18.407 -0.167 -18.457 -0.199 -18.512 -0.246 -18.669 -0.411 6.847 0.199 2.194 0.132 42.877 40.982
210.600 -18.035 -0.332 -18.055 -0.316 -18.170 -0.228 -18.336 -0.152 -18.403 -0.169 -18.453 -0.200 -18.509 -0.247 -18.665 -0.412 6.849 0.199 2.189 0.132 42.876 40.982
211.000 -18.031 -0.333 -18.051 -0.317 -18.166 -0.229 -18.332 -0.154 -18.399 -0.171 -18.449 -0.202 -18.505 -0.249 -18.661 -0.413 6.851 0.199 2.184 0.131 42.874 40.983
211.400 -18.028 -0.334 -18.048 -0.318 -18.162 -0.231 -18.328 -0.157 -18.395 -0.174 -18.445 -0.204 -18.501 -0.250 -18.657 -0.414 6.852 0.199 2.180 0.131 42.873 40.983
211.800 -18.024 -0.335 -18.044 -0.320 -18.159 -0.233 -18.324 -0.159 -18.391 -0.176 -18.441 -0.206 -18.497 -0.252 -18.653 -0.415 6.854 0.199 2.175 0.131 42.872 40.984
212.200 -18.021 -0.337 -18.041 -0.321 -18.155 -0.235 -18.320 -0.162 -18.387 -0.178 -18.437 -0.208 -18.493 -0.253 -18.649 -0.416 6.856 0.199 2.170 0.130 42.870 40.984
212.600 -18.017 -0.338 -18.037 -0.322 -18.151 -0.237 -18.316 -0.165 -18.383 -0.181 -18.433 -0.210 -18.489 -0.255 -18.645 -0.417 6.858 0.199 2.165 0.130 42.869 40.985
213.000 -18.014 -0.339 -18.034 -0.324 -18.148 -0.239 -18.313 -0.167 -18.379 -0.183 -18.429 -0.212 -18.485 -0.257 -18.641 -0.418 6.859 0.199 2.161 0.130 42.867 40.985
213.400 -18.010 -0.341 -18.030 -0.325 -18.144 -0.240 -18.309 -0.170 -18.375 -0.185 -18.425 -0.214 -18.481 -0.258 -18.637 -0.419 6.861 0.199 2.156 0.129 42.866 40.985
213.800 -18.007 -0.342 -18.027 -0.327 -18.140 -0.242 -18.305 -0.173 -18.372 -0.188 -18.421 -0.216 -18.477 -0.260 -18.633 -0.420 6.863 0.199 2.151 0.129 42.864 40.985
214.200 -18.003 -0.343 -18.023 -0.328 -18.136 -0.244 -18.301 -0.175 -18.368 -0.190 -18.417 -0.218 -18.472 -0.261 -18.628 -0.421 6.864 0.199 2.147 0.129 42.863 40.986
214.600 -18.000 -0.345 -18.019 -0.329 -18.133 -0.246 -18.297 -0.178 -18.364 -0.192 -18.413 -0.220 -18.468 -0.263 -18.624 -0.422 6.866 0.199 2.142 0.128 42.861 40.986
215.000 -17.996 -0.346 -18.016 -0.331 -18.129 -0.248 -18.293 -0.180 -18.360 -0.195 -18.409 -0.222 -18.464 -0.264 -18.620 -0.423 6.868 0.199 2.137 0.128 42.860 40.986
215.400 -17.992 -0.347 -18.012 -0.332 -18.125 -0.250 -18.289 -0.183 -18.356 -0.197 -18.405 -0.224 -18.460 -0.266 -18.616 -0.424 6.869 0.199 2.133 0.128 42.858 40.986
215.800 -17.989 -0.349 -18.008 -0.334 -18.122 -0.252 -18.285 -0.185 -18.352 -0.199 -18.401 -0.226 -18.456 -0.268 -18.612 -0.425 6.871 0.200 2.128 0.128 42.857 40.986
216.200 -17.985 -0.350 -18.005 -0.335 -18.118 -0.253 -18.281 -0.188 -18.348 -0.201 -18.397 -0.228 -18.452 -0.269 -18.608 -0.426 6.873 0.200 2.123 0.127 42.855 40.986
216.600 -17.982 -0.351 -18.001 -0.336 -18.114 -0.255 -18.277 -0.190 -18.344 -0.204 -18.393 -0.230 -18.448 -0.271 -18.604 -0.427 6.874 0.200 2.119 0.127 42.854 40.986
217.000 -17.978 -0.353 -17.998 -0.338 -18.110 -0.257 -18.273 -0.193 -18.340 -0.206 -18.389 -0.231 -18.444 -0.272 -18.600 -0.428 6.876 0.200 2.114 0.127 42.852 40.986
217.400 -17.974 -0.354 -17.994 -0.339 -18.106 -0.259 -18.269 -0.195 -18.336 -0.208 -18.385 -0.233 -18.440 -0.274 -18.596 -0.429 6.877 0.200 2.109 0.127 42.851 40.986
217.800 -17.971 -0.355 -17.990 -0.341 -18.103 -0.261 -18.266 -0.198 -18.332 -0.210 -18.381 -0.235 -18.436 -0.275 -18.591 -0.430 6.879 0.200 2.105 0.127 42.849 40.986
218.200 -17.967 -0.357 -17.987 -0.342 -18.099 -0.263 -18.262 -0.200 -18.328 -0.212 -18.377 -0.237 -18.432 -0.277 -18.587 -0.431 6.880 0.200 2.100 0.126 42.848 40.986
218.600 -17.963 -0.358 -17.983 -0.343 -18.095 -0.265 -18.258 -0.202 -18.324 -0.215 -18.373 -0.239 -18.428 -0.278 -18.583 -0.432 6.882 0.200 2.096 0.126 42.846 40.986
219.000 -17.960 -0.359 -17.979 -0.345 -18.091 -0.267 -18.254 -0.205 -18.320 -0.217 -18.369 -0.241 -18.424 -0.280 -18.579 -0.433 6.883 0.201 2.091 0.126 42.845 40.986
219.400 -17.956 -0.361 -17.976 -0.346 -18.087 -0.268 -18.250 -0.207 -18.316 -0.219 -18.365 -0.243 -18.420 -0.281 -18.575 -0.433 6.885 0.201 2.086 0.126 42.843 40.986
219.800 -17.952 -0.362 -17.972 -0.348 -18.084 -0.270 -18.246 -0.209 -18.311 -0.221 -18.361 -0.245 -18.415 -0.283 -18.571 -0.434 6.886 0.201 2.082 0.125 42.842 40.986
220.200 -17.949 -0.364 -17.968 -0.349 -18.080 -0.272 -18.242 -0.212 -18.307 -0.223 -18.356 -0.246 -18.411 -0.285 -18.567 -0.435 6.888 0.201 2.077 0.125 42.840 40.985
220.600 -17.945 -0.365 -17.964 -0.351 -18.076 -0.274 -18.238 -0.214 -18.303 -0.225 -18.352 -0.248 -18.407 -0.286 -18.562 -0.436 6.889 0.201 2.073 0.125 42.839 40.985
221.000 -17.941 -0.366 -17.961 -0.352 -18.072 -0.276 -18.234 -0.216 -18.299 -0.227 -18.348 -0.250 -18.403 -0.288 -18.558 -0.437 6.891 0.201 2.068 0.125 42.837 40.985
221.400 -17.938 -0.368 -17.957 -0.353 -18.068 -0.278 -18.230 -0.219 -18.295 -0.229 -18.344 -0.252 -18.399 -0.289 -18.554 -0.438 6.892 0.202 2.064 0.125 42.836 40.985
221.800 -17.934 -0.369 -17.953 -0.355 -18.064 -0.279 -18.226 -0.221 -18.291 -0.231 -18.340 -0.254 -18.395 -0.290 -18.550 -0.439 6.894 0.202 2.059 0.125 42.834 40.984
222.200 -17.930 -0.370 -17.950 -0.356 -18.061 -0.281 -18.222 -0.223 -18.287 -0.233 -18.336 -0.255 -18.391 -0.292 -18.546 -0.440 6.895 0.202 2.055 0.124 42.832 40.984
222.600 -17.927 -0.372 -17.946 -0.358 -18.057 -0.283 -18.217 -0.225 -18.283 -0.235 -18.332 -0.257 -18.387 -0.293 -18.541 -0.440 6.896 0.202 2.050 0.124 42.831 40.984
223.000 -17.923 -0.373 -17.942 -0.359 -18.053 -0.285 -18.213 -0.227 -18.279 -0.237 -18.328 -0.259 -18.382 -0.295 -18.537 -0.441 6.898 0.202 2.046 0.124 42.829 40.983
223.400 -17.919 -0.374 -17.938 -0.360 -18.049 -0.286 -18.209 -0.230 -18.275 -0.239 -18.324 -0.261 -18.378 -0.296 -18.533 -0.442 6.899 0.203 2.041 0.124 42.828 40.983
223.800 -17.915 -0.376 -17.935 -0.362 -18.045 -0.288 -18.205 -0.232 -18.271 -0.241 -18.319 -0.262 -18.374 -0.298 -18.529 -0.443 6.901 0.203 2.037 0.124 42.826 40.982
224.200 -17.912 -0.377 -17.931 -0.363 -18.041 -0.290 -18.201 -0.234 -18.267 -0.243 -18.315 -0.264 -18.370 -0.299 -18.525 -0.444 6.902 0.203 2.032 0.123 42.825 40.982
224.600 -17.908 -0.378 -17.927 -0.364 -18.037 -0.292 -18.197 -0.236 -18.262 -0.245 -18.311 -0.266 -18.366 -0.300 -18.521 -0.445 6.903 0.203 2.028 0.123 42.823 40.981
225.000 -17.904 -0.380 -17.923 -0.366 -18.033 -0.293 -18.193 -0.238 -18.258 -0.247 -18.307 -0.267 -18.362 -0.302 -18.516 -0.445 6.905 0.203 2.023 0.123 42.821 40.981
225.400 -17.900 -0.381 -17.920 -0.367 -18.029 -0.295 -18.189 -0.240 -18.254 -0.249 -18.303 -0.269 -18.357 -0.303 -18.512 -0.446 6.906 0.204 2.019 0.123 42.820 40.980
225.800 -17.897 -0.382 -17.916 -0.369 -18.025 -0.297 -18.185 -0.242 -18.250 -0.251 -18.299 -0.271 -18.353 -0.305 -18.508 -0.447 6.907 0.204 2.014 0.123 42.818 40.980
226.200 -17.893 -0.384 -17.912 -0.370 -18.022 -0.298 -18.181 -0.244 -18.246 -0.253 -18.295 -0.272 -18.349 -0.306 -18.504 -0.448 6.909 0.204 2.010 0.123 42.817 40.979
226.600 -17.889 -0.385 -17.908 -0.371 -18.018 -0.300 -18.177 -0.246 -18.242 -0.254 -18.290 -0.274 -18.345 -0.307 -18.500 -0.448 6.910 0.204 2.005 0.122 42.815 40.979
227.000 -17.885 -0.386 -17.904 -0.373 -18.014 -0.302 -18.173 -0.248 -18.238 -0.256 -18.286 -0.275 -18.341 -0.309 -18.495 -0.449 6.911 0.205 2.001 0.122 42.814 40.978
227.400 -17.881 -0.387 -17.901 -0.374 -18.010 -0.303 -18.169 -0.250 -18.234 -0.258 -18.282 -0.277 -18.336 -0.310 -18.491 -0.450 6.913 0.205 1.997 0.122 42.812 40.977
227.800 -17.878 -0.389 -17.897 -0.375 -18.006 -0.305 -18.165 -0.252 -18.229 -0.260 -18.278 -0.278 -18.332 -0.311 -18.487 -0.451 6.914 0.205 1.992 0.122 42.810 40.977
228.200 -17.874 -0.390 -17.893 -0.376 -18.002 -0.307 -18.160 -0.253 -18.225 -0.261 -18.274 -0.280 -18.328 -0.312 -18.483 -0.451 6.915 0.205 1.988 0.122 42.809 40.976
228.600 -17.870 -0.391 -17.889 -0.378 -17.998 -0.308 -18.156 -0.255 -18.221 -0.263 -18.269 -0.281 -18.324 -0.314 -18.478 -0.452 6.917 0.206 1.983 0.122 42.807 40.975
229.000 -17.866 -0.392 -17.885 -0.379 -17.994 -0.310 -18.152 -0.257 -18.217 -0.265 -18.265 -0.283 -18.320 -0.315 -18.474 -0.453 6.918 0.206 1.979 0.121 42.806 40.975
229.400 -17.862 -0.394 -17.881 -0.380 -17.990 -0.311 -18.148 -0.259 -18.213 -0.266 -18.261 -0.284 -18.315 -0.316 -18.470 -0.453 6.919 0.206 1.975 0.121 42.804 40.974
229.800 -17.859 -0.395 -17.878 -0.381 -17.986 -0.313 -18.144 -0.260 -18.209 -0.268 -18.257 -0.286 -18.311 -0.317 -18.466 -0.454 6.920 0.206 1.970 0.121 42.802 40.973
230.200 -17.855 -0.396 -17.874 -0.383 -17.982 -0.314 -18.140 -0.262 -18.204 -0.269 -18.253 -0.287 -18.307 -0.318 -18.461 -0.455 6.922 0.207 1.966 0.121 42.801 40.972
230.600 -17.851 -0.397 -17.870 -0.384 -17.978 -0.316 -18.136 -0.264 -18.200 -0.271 -18.248 -0.288 -18.303 -0.319 -18.457 -0.455 6.923 0.207 1.962 0.121 42.799 40.972
231.000 -17.847 -0.398 -17.866 -0.385 -17.974 -0.317 -18.131 -0.265 -18.196 -0.272 -18.244 -0.290 -18.298 -0.321 -18.453 -0.456 6.924 0.207 1.957 0.121 42.798 40.971
231.400 -17.843 -0.399 -17.862 -0.386 -17.970 -0.319 -18.127 -0.267 -18.192 -0.274 -18.240 -0.291 -18.294 -0.322 -18.449 -0.456 6.925 0.207 1.953 0.121 42.796 40.970
231.800 -17.839 -0.401 -17.858 -0.388 -17.966 -0.320 -18.123 -0.269 -18.188 -0.275 -18.236 -0.292 -18.290 -0.323 -18.444 -0.457 6.927 0.208 1.949 0.120 42.794 40.969
232.200 -17.836 -0.402 -17.854 -0.389 -17.962 -0.321 -18.119 -0.270 -18.183 -0.277 -18.232 -0.294 -18.286 -0.324 -18.440 -0.458 6.928 0.208 1.944 0.120 42.793 40.968
232.600 -17.832 -0.403 -17.851 -0.390 -17.958 -0.323 -18.115 -0.272 -18.179 -0.278 -18.227 -0.295 -18.281 -0.325 -18.436 -0.458 6.929 0.208 1.940 0.120 42.791 40.968
233.000 -17.828 -0.404 -17.847 -0.391 -17.954 -0.324 -18.111 -0.273 -18.175 -0.280 -18.223 -0.296 -18.277 -0.326 -18.432 -0.459 6.930 0.209 1.936 0.120 42.789 40.967
233.400 -17.824 -0.405 -17.843 -0.392 -17.950 -0.326 -18.107 -0.275 -18.171 -0.281 -18.219 -0.297 -18.273 -0.327 -18.427 -0.459 6.931 0.209 1.931 0.120 42.788 40.966
233.800 -17.820 -0.406 -17.839 -0.393 -17.946 -0.327 -18.102 -0.276 -18.167 -0.282 -18.215 -0.298 -18.269 -0.328 -18.423 -0.460 6.933 0.209 1.927 0.120 42.786 40.965
234.200 -17.816 -0.407 -17.835 -0.394 -17.942 -0.328 -18.098 -0.278 -18.162 -0.283 -18.210 -0.300 -18.264 -0.329 -18.419 -0.460 6.934 0.209 1.923 0.120 42.785 40.964
234.600 -17.812 -0.408 -17.831 -0.395 -17.938 -0.329 -18.094 -0.279 -18.158 -0.285 -18.206 -0.301 -18.260 -0.330 -18.415 -0.461 6.935 0.210 1.918 0.119 42.783 40.963
235.000 -17.809 -0.409 -17.827 -0.396 -17.934 -0.331 -18.090 -0.280 -18.154 -0.286 -18.202 -0.302 -18.256 -0.330 -18.410 -0.461 6.936 0.210 1.914 0.119 42.781 40.962
235.400 -17.805 -0.410 -17.823 -0.397 -17.930 -0.332 -18.086 -0.282 -18.150 -0.287 -18.198 -0.303 -18.252 -0.331 -18.406 -0.462 6.937 0.210 1.910 0.119 42.780 40.961
235.800 -17.801 -0.411 -17.819 -0.399 -17.926 -0.333 -18.081 -0.283 -18.145 -0.288 -18.193 -0.304 -18.247 -0.332 -18.402 -0.462 6.938 0.211 1.906 0.119 42.778 40.960
236.200 -17.797 -0.412 -17.815 -0.400 -17.922 -0.334 -18.077 -0.284 -18.141 -0.289 -18.189 -0.305 -18.243 -0.333 -18.398 -0.462 6.940 0.211 1.901 0.119 42.776 40.959
236.600 -17.793 -0.413 -17.811 -0.401 -17.918 -0.335 -18.073 -0.285 -18.137 -0.291 -18.185 -0.306 -18.239 -0.334 -18.393 -0.463 6.941 0.211 1.897 0.119 42.775 40.958
237.000 -17.789 -0.414 -17.808 -0.401 -17.914 -0.337 -18.069 -0.287 -18.133 -0.292 -18.181 -0.307 -18.234 -0.335 -18.389 -0.463 6.942 0.211 1.893 0.119 42.773 40.957
237.400 -17.785 -0.415 -17.804 -0.402 -17.910 -0.338 -18.065 -0.288 -18.128 -0.293 -18.176 -0.308 -18.230 -0.335 -18.385 -0.464 6.943 0.212 1.889 0.118 42.771 40.956
237.800 -17.781 -0.416 -17.800 -0.403 -17.905 -0.339 -18.060 -0.289 -18.124 -0.294 -18.172 -0.309 -18.226 -0.336 -18.381 -0.464 6.944 0.212 1.885 0.118 42.770 40.955
238.200 -17.777 -0.417 -17.796 -0.404 -17.901 -0.340 -18.056 -0.290 -18.120 -0.295 -18.168 -0.309 -18.222 -0.337 -18.376 -0.464 6.945 0.212 1.880 0.118 42.768 40.954
238.600 -17.773 -0.418 -17.792 -0.405 -17.897 -0.341 -18.052 -0.291 -18.116 -0.296 -18.163 -0.310 -18.217 -0.337 -18.372 -0.465 6.947 0.213 1.876 0.118 42.766 40.953
239.000 -17.769 -0.419 -17.788 -0.406 -17.893 -0.342 -18.048 -0.292 -18.111 -0.297 -18.159 -0.311 -18.213 -0.338 -18.368 -0.465 6.948 0.213 1.872 0.118 42.765 40.952
239.400 -17.765 -0.419 -17.784 -0.407 -17.889 -0.343 -18.044 -0.293 -18.107 -0.297 -18.155 -0.312 -18.209 -0.339 -18.363 -0.465 6.949 0.213 1.868 0.118 42.763 40.951
239.800 -17.762 -0.420 -17.780 -0.408 -17.885 -0.344 -18.039 -0.294 -18.103 -0.298 -18.151 -0.313 -18.204 -0.339 -18.359 -0.465 6.950 0.214 1.864 0.118 42.761 40.950
240.200 -17.758 -0.421 -17.776 -0.409 -17.881 -0.345 -18.035 -0.295 -18.099 -0.299 -18.146 -0.313 -18.200 -0.340 -18.355 -0.466 6.951 0.214 1.860 0.118 42.760 40.949
240.600 -17.754 -0.422 -17.772 -0.409 -17.877 -0.346 -18.031 -0.296 -18.094 -0.300 -18.142 -0.314 -18.196 -0.340 -18.351 -0.466 6.952 0.214 1.855 0.117 42.758 40.948
241.000 -17.750 -0.423 -17.768 -0.410 -17.873 -0.347 -18.027 -0.297 -18.090 -0.301 -18.138 -0.315 -18.192 -0.341 -18.346 -0.466 6.953 0.214 1.851 0.117 42.756 40.947
241.400 -17.746 -0.423 -17.764 -0.411 -17.869 -0.347 -18.022 -0.298 -18.086 -0.301 -18.133 -0.315 -18.187 -0.341 -18.342 -0.466 6.954 0.215 1.847 0.117 42.755 40.946
241.800 -17.742 -0.424 -17.760 -0.412 -17.865 -0.348 -18.018 -0.298 -18.081 -0.302 -18.129 -0.316 -18.183 -0.342 -18.338 -0.467 6.955 0.215 1.843 0.117 42.753 40.944
242.200 -17.738 -0.425 -17.756 -0.413 -17.860 -0.349 -18.014 -0.299 -18.077 -0.303 -18.125 -0.316 -18.179 -0.342 -18.333 -0.467 6.956 0.215 1.839 0.117 42.751 40.943
242.600 -17.734 -0.426 -17.752 -0.413 -17.856 -0.350 -18.010 -0.300 -18.073 -0.303 -18.120 -0.317 -18.174 -0.343 -18.329 -0.467 6.957 0.216 1.835 0.117 42.750 40.942
243.000 -17.730 -0.426 -17.748 -0.414 -17.852 -0.351 -18.005 -0.301 -18.069 -0.304 -18.116 -0.317 -18.170 -0.343 -18.325 -0.467 6.959 0.216 1.831 0.117 42.748 40.941
243.400 -17.726 -0.427 -17.744 -0.415 -17.848 -0.351 -18.001 -0.301 -18.064 -0.305 -18.112 -0.318 -18.166 -0.343 -18.321 -0.467 6.960 0.216 1.827 0.116 42.746 40.940
243.800 -17.722 -0.428 -17.740 -0.415 -17.844 -0.352 -17.997 -0.302 -18.060 -0.305 -18.108 -0.318 -18.161 -0.344 -18.316 -0.467 6.961 0.217 1.822 0.116 42.745 40.939
244.200 -17.718 -0.428 -17.736 -0.416 -17.840 -0.353 -17.993 -0.303 -18.056 -0.306 -18.103 -0.319 -18.157 -0.344 -18.312 -0.467 6.962 0.217 1.818 0.116 42.743 40.937
244.600 -17.714 -0.429 -17.732 -0.417 -17.836 -0.353 -17.988 -0.303 -18.051 -0.306 -18.099 -0.319 -18.153 -0.344 -18.308 -0.467 6.963 0.217 1.814 0.116 42.741 40.936
245.000 -17.710 -0.429 -17.728 -0.417 -17.832 -0.354 -17.984 -0.304 -18.047 -0.307 -18.095 -0.319 -18.148 -0.344 -18.303 -0.467 6.964 0.218 1.810 0.116 42.740 40.935
245.400 -17.706 -0.430 -17.724 -0.418 -17.828 -0.355 -17.980 -0.304 -18.043 -0.307 -18.090 -0.320 -18.144 -0.345 -18.299 -0.467 6.965 0.218 1.806 0.116 42.738 40.934
245.800 -17.702 -0.430 -17.720 -0.418 -17.823 -0.355 -17.976 -0.305 -18.039 -0.307 -18.086 -0.320 -18.140 -0.345 -18.295 -0.467 6.966 0.218 1.802 0.116 42.736 40.933
246.200 -17.698 -0.431 -17.716 -0.419 -17.819 -0.356 -17.971 -0.305 -18.034 -0.308 -18.082 -0.320 -18.135 -0.345 -18.290 -0.467 6.967 0.219 1.798 0.116 42.735 40.931
246.600 -17.694 -0.431 -17.712 -0.419 -17.815 -0.356 -17.967 -0.305 -18.030 -0.308 -18.077 -0.320 -18.131 -0.345 -18.286 -0.467 6.968 0.219 1.794 0.115 42.733 40.930
247.000 -17.690 -0.432 -17.708 -0.420 -17.811 -0.357 -17.963 -0.306 -18.026 -0.308 -18.073 -0.321 -18.127 -0.345 -18.282 -0.467 6.969 0.219 1.790 0.115 42.731 40.929
247.400 -17.686 -0.432 -17.704 -0.420 -17.807 -0.357 -17.958 -0.306 -18.021 -0.308 -18.069 -0.321 -18.122 -0.345 -18.278 -0.467 6.970 0.220 1.786 0.115 42.730 40.927
247.800 -17.682 -0.433 -17.700 -0.421 -17.803 -0.358 -17.954 -0.306 -18.017 -0.309 -18.064 -0.321 -18.118 -0.345 -18.273 -0.467 6.971 0.220 1.782 0.115 42.728 40.926
248.200 -17.678 -0.433 -17.696 -0.421 -17.798 -0.358 -17.950 -0.307 -18.013 -0.309 -18.060 -0.321 -18.114 -0.345 -18.269 -0.467 6.972 0.220 1.778 0.115 42.726 40.925
248.600 -17.674 -0.434 -17.692 -0.422 -17.794 -0.359 -17.946 -0.307 -18.008 -0.309 -18.056 -0.321 -18.109 -0.345 -18.265 -0.467 6.973 0.221 1.774 0.115 42.724 40.924
249.000 -17.670 -0.434 -17.688 -0.422 -17.790 -0.359 -17.941 -0.307 -18.004 -0.309 -18.051 -0.321 -18.105 -0.345 -18.260 -0.467 6.974 0.221 1.770 0.115 42.723 40.922
249.400 -17.666 -0.434 -17.684 -0.422 -17.786 -0.359 -17.937 -0.307 -18.000 -0.309 -18.047 -0.321 -18.101 -0.345 -18.256 -0.466 6.975 0.221 1.766 0.115 42.721 40.921
249.800 -17.662 -0.435 -17.680 -0.423 -17.782 -0.360 -17.933 -0.307 -17.995 -0.309 -18.043 -0.321 -18.096 -0.345 -18.252 -0.466 6.976 0.222 1.762 0.114 42.719 40.920
250.200 -17.658 -0.435 -17.676 -0.423 -17.778 -0.360 -17.928 -0.308 -17.991 -0.309 -18.038 -0.321 -18.092 -0.345 -18.247 -0.466 6.977 0.222 1.758 0.114 42.718 40.918
250.600 -17.654 -0.435 -17.672 -0.423 -17.774 -0.360 -17.924 -0.308 -17.987 -0.309 -18.034 -0.321 -18.088 -0.345 -18.243 -0.466 6.978 0.222 1.755 0.114 42.716 40.917
251.000 -17.650 -0.436 -17.667 -0.424 -17.769 -0.360 -17.920 -0.308 -17.982 -0.309 -18.030 -0.321 -18.083 -0.345 -18.239 -0.465 6.978 0.223 1.751 0.114 42.714 40.916
251.400 -17.646 -0.436 -17.663 -0.424 -17.765 -0.360 -17.916 -0.308 -17.978 -0.309 -18.025 -0.320 -18.079 -0.344 -18.235 -0.465 6.979 0.223 1.747 0.114 42.713 40.914
251.800 -17.642 -0.436 -17.659 -0.424 -17.761 -0.361 -17.911 -0.308 -17.974 -0.309 -18.021 -0.320 -18.075 -0.344 -18.230 -0.465 6.980 0.223 1.743 0.114 42.711 40.913
252.200 -17.638 -0.436 -17.655 -0.424 -17.757 -0.361 -17.907 -0.308 -17.970 -0.309 -18.017 -0.320 -18.070 -0.344 -18.226 -0.465 6.981 0.224 1.739 0.114 42.709 40.911
252.600 -17.634 -0.437 -17.651 -0.424 -17.753 -0.361 -17.903 -0.307 -17.965 -0.308 -18.012 -0.320 -18.066 -0.343 -18.222 -0.464 6.982 0.224 1.735 0.114 42.707 40.910
253.000 -17.630 -0.437 -17.647 -0.425 -17.748 -0.361 -17.898 -0.307 -17.961 -0.308 -18.008 -0.319 -18.062 -0.343 -18.217 -0.464 6.983 0.224 1.731 0.114 42.706 40.909
253.400 -17.626 -0.437 -17.643 -0.425 -17.744 -0.361 -17.894 -0.307 -17.957 -0.308 -18.004 -0.319 -18.057 -0.343 -18.213 -0.463 6.984 0.225 1.727 0.113 42.704 40.907
253.800 -17.622 -0.437 -17.639 -0.425 -17.740 -0.361 -17.890 -0.307 -17.952 -0.307 -17.999 -0.319 -18.053 -0.342 -18.209 -0.463 6.985 0.225 1.724 0.113 42.702 40.906
254.200 -17.617 -0.437 -17.635 -0.425 -17.736 -0.361 -17.886 -0.307 -17.948 -0.307 -17.995 -0.318 -18.049 -0.342 -18.205 -0.463 6.986 0.226 1.720 0.113 42.701 40.904
254.600 -17.613 -0.437 -17.631 -0.425 -17.732 -0.361 -17.881 -0.306 -17.944 -0.307 -17.991 -0.318 -18.044 -0.341 -18.200 -0.462 6.987 0.226 1.716 0.113 42.699 40.903
255.000 -17.609 -0.437 -17.627 -0.425 -17.728 -0.361 -17.877 -0.306 -17.939 -0.306 -17.986 -0.317 -18.040 -0.341 -18.196 -0.462 6.987 0.226 1.712 0.113 42.697 40.901
255.400 -17.605 -0.438 -17.623 -0.425 -17.723 -0.361 -17.873 -0.306 -17.935 -0.306 -17.982 -0.317 -18.036 -0.340 -18.192 -0.461 6.988 0.227 1.708 0.113 42.695 40.900
255.800 -17.601 -0.438 -17.619 -0.425 -17.719 -0.361 -17.868 -0.305 -17.931 -0.305 -17.978 -0.316 -18.031 -0.340 -18.187 -0.461 6.989 0.227 1.705 0.113 42.694 40.898
256.200 -17.597 -0.438 -17.615 -0.425 -17.715 -0.361 -17.864 -0.305 -17.926 -0.305 -17.973 -0.316 -18.027 -0.339 -18.183 -0.460 6.990 0.227 1.701 0.113 42.692 40.897
256.600 -17.593 -0.438 -17.610 -0.425 -17.711 -0.360 -17.860 -0.304 -17.922 -0.304 -17.969 -0.315 -18.022 -0.338 -18.179 -0.460 6.991 0.228 1.697 0.113 42.690 40.895
257.000 -17.589 -0.438 -17.606 -0.425 -17.707 -0.360 -17.855 -0.304 -17.918 -0.304 -17.965 -0.314 -18.018 -0.338 -18.175 -0.459 6.992 0.228 1.693 0.112 42.689 40.894
257.400 -17.585 -0.438 -17.602 -0.425 -17.702 -0.360 -17.851 -0.303 -17.913 -0.303 -17.960 -0.314 -18.014 -0.337 -18.170 -0.459 6.992 0.229 1.689 0.112 42.687 40.892
257.800 -17.581 -0.437 -17.598 -0.425 -17.698 -0.360 -17.847 -0.303 -17.909 -0.302 -17.956 -0.313 -18.009 -0.336 -18.166 -0.458 6.993 0.229 1.686 0.112 42.685 40.891
258.200 -17.577 -0.437 -17.594 -0.425 -17.694 -0.360 -17.842 -0.302 -17.905 -0.302 -17.952 -0.312 -18.005 -0.336 -18.162 -0.457 6.994 0.229 1.682 0.112 42.683 40.889
258.600 -17.573 -0.437 -17.590 -0.425 -17.690 -0.359 -17.838 -0.302 -17.900 -0.301 -17.947 -0.311 -18.001 -0.335 -18.157 -0.457 6.995 0.230 1.678 0.112 42.682 40.888
259.000 -17.569 -0.437 -17.586 -0.425 -17.686 -0.359 -17.834 -0.301 -17.896 -0.300 -17.943 -0.311 -17.996 -0.334 -18.153 -0.456 6.996 0.230 1.675 0.112 42.680 40.886
259.400 -17.565 -0.437 -17.582 -0.424 -17.681 -0.359 -17.830 -0.300 -17.892 -0.299 -17.939 -0.310 -17.992 -0.333 -18.149 -0.455 6.996 0.230 1.671 0.112 42.678 40.884
259.800 -17.561 -0.437 -17.578 -0.424 -17.677 -0.358 -17.825 -0.299 -17.887 -0.298 -17.934 -0.309 -17.988 -0.332 -18.145 -0.455 6.997 0.231 1.667 0.112 42.676 40.883
260.200 -17.556 -0.437 -17.574 -0.424 -17.673 -0.358 -17.821 -0.299 -17.883 -0.298 -17.930 -0.308 -17.983 -0.331 -18.140 -0.454 6.998 0.231 1.663 0.112 42.675 40.881
260.600 -17.552 -0.436 -17.570 -0.424 -17.669 -0.357 -17.817 -0.298 -17.879 -0.297 -17.926 -0.307 -17.979 -0.330 -18.136 -0.453 6.999 0.232 1.660 0.111 42.673 40.880
261.000 -17.548 -0.436 -17.565 -0.424 -17.665 -0.357 -17.812 -0.297 -17.874 -0.296 -17.921 -0.306 -17.975 -0.329 -18.132 -0.453 6.999 0.232 1.656 0.111 42.671 40.878
261.400 -17.544 -0.436 -17.561 -0.423 -17.660 -0.357 -17.808 -0.296 -17.870 -0.295 -17.917 -0.305 -17.970 -0.328 -18.127 -0.452 7.000 0.232 1.653 0.111 42.670 40.876
261.800 -17.540 -0.436 -17.557 -0.423 -17.656 -0.356 -17.804 -0.295 -17.866 -0.294 -17.913 -0.304 -17.966 -0.327 -18.123 -0.451 7.001 0.233 1.649 0.111 42.668 40.875
262.200 -17.536 -0.436 -17.553 -0.423 -17.652 -0.355 -17.799 -0.294 -17.861 -0.293 -17.908 -0.303 -17.962 -0.326 -18.119 -0.450 7.002 0.233 1.645 0.111 42.666 40.873
262.600 -17.532 -0.435 -17.549 -0.422 -17.648 -0.355 -17.795 -0.293 -17.857 -0.292 -17.904 -0.302 -17.957 -0.325 -18.115 -0.449 7.002 0.234 1.642 0.111 42.664 40.871
263.000 -17.528 -0.435 -17.545 -0.422 -17.644 -0.354 -17.791 -0.292 -17.853 -0.290 -17.900 -0.301 -17.953 -0.324 -18.110 -0.449 7.003 0.234 1.638 0.111 42.663 40.870
263.400 -17.524 -0.435 -17.541 -0.422 -17.639 -0.354 -17.786 -0.291 -17.848 -0.289 -17.895 -0.299 -17.949 -0.323 -18.106 -0.448 7.004 0.234 1.634 0.111 42.661 40.868
263.800 -17.520 -0.434 -17.537 -0.421 -17.635 -0.353 -17.782 -0.290 -17.844 -0.288 -17.891 -0.298 -17.944 -0.322 -18.102 -0.447 7.004 0.235 1.631 0.111 42.659 40.866
264.200 -17.516 -0.434 -17.533 -0.421 -17.631 -0.353 -17.778 -0.289 -17.840 -0.287 -17.887 -0.297 -17.940 -0.321 -18.098 -0.446 7.005 0.235 1.627 0.111 42.657 40.864
264.600 -17.512 -0.434 -17.529 -0.421 -17.627 -0.352 -17.774 -0.288 -17.835 -0.286 -17.882 -0.296 -17.936 -0.319 -18.093 -0.445 7.006 0.236 1.624 0.110 42.656 40.863
265.000 -17.508 -0.433 -17.524 -0.420 -17.623 -0.351 -17.769 -0.287 -17.831 -0.284 -17.878 -0.294 -17.931 -0.318 -18.089 -0.444 7.006 0.236 1.620 0.110 42.654 40.861
265.400 -17.503 -0.433 -17.520 -0.420 -17.618 -0.350 -17.765 -0.286 -17.827 -0.283 -17.874 -0.293 -17.927 -0.317 -18.085 -0.443 7.007 0.236 1.617 0.110 42.652 40.859
265.800 -17.499 -0.432 -17.516 -0.419 -17.614 -0.350 -17.761 -0.284 -17.822 -0.282 -17.869 -0.292 -17.923 -0.315 -18.081 -0.442 7.008 0.237 1.613 0.110 42.650 40.857
266.200 -17.495 -0.432 -17.512 -0.419 -17.610 -0.349 -17.756 -0.283 -17.818 -0.280 -17.865 -0.290 -17.918 -0.314 -18.076 -0.441 7.008 0.237 1.610 0.110 42.649 40.855
266.600 -17.491 -0.431 -17.508 -0.418 -17.606 -0.348 -17.752 -0.282 -17.814 -0.279 -17.861 -0.289 -17.914 -0.313 -18.072 -0.440 7.009 0.238 1.606 0.110 42.647 40.854
267.000 -17.487 -0.431 -17.504 -0.418 -17.602 -0.347 -17.748 -0.280 -17.809 -0.277 -17.856 -0.287 -17.910 -0.311 -18.068 -0.439 7.009 0.238 1.603 0.110 42.645 40.852
267.400 -17.483 -0.430 -17.500 -0.417 -17.597 -0.346 -17.743 -0.279 -17.805 -0.276 -17.852 -0.286 -17.906 -0.310 -18.064 -0.438 7.010 0.239 1.599 0.110 42.644 40.850
267.800 -17.479 -0.430 -17.496 -0.417 -17.593 -0.346 -17.739 -0.278 -17.801 -0.274 -17.848 -0.284 -17.901 -0.308 -18.059 -0.437 7.011 0.239 1.596 0.110 42.642 40.848
268.200 -17.475 -0.429 -17.492 -0.416 -17.589 -0.345 -17.735 -0.276 -17.796 -0.273 -17.843 -0.283 -17.897 -0.307 -18.055 -0.436 7.011 0.239 1.592 0.110 42.640 40.846
268.600 -17.471 -0.429 -17.487 -0.416 -17.585 -0.344 -17.731 -0.275 -17.792 -0.271 -17.839 -0.281 -17.893 -0.305 -18.051 -0.435 7.012 0.240 1.589 0.110 42.638 40.844
269.000 -17.467 -0.428 -17.483 -0.415 -17.580 -0.343 -17.726 -0.273 -17.788 -0.269 -17.835 -0.279 -17.888 -0.304 -18.047 -0.434 7.012 0.240 1.585 0.109 42.637 40.842
269.400 -17.463 -0.428 -17.479 -0.414 -17.576 -0.342 -17.722 -0.272 -17.783 -0.268 -17.830 -0.278 -17.884 -0.302 -18.043 -0.433 7.013 0.241 1.582 0.109 42.635 40.840
269.800 -17.458 -0.427 -17.475 -0.414 -17.572 -0.341 -17.718 -0.270 -17.779 -0.266 -17.826 -0.276 -17.880 -0.301 -18.038 -0.432 7.013 0.241 1.579 0.109 42.633 40.838
270.200 -17.454 -0.427 -17.471 -0.413 -17.568 -0.340 -17.713 -0.268 -17.775 -0.264 -17.822 -0.274 -17.875 -0.299 -18.034 -0.431 7.014 0.242 1.575 0.109 42.631 40.836
270.600 -17.450 -0.426 -17.467 -0.412 -17.564 -0.339 -17.709 -0.267 -17.771 -0.262 -17.817 -0.272 -17.871 -0.297 -18.030 -0.430 7.014 0.242 1.572 0.109 42.630 40.834
271.000 -17.446 -0.425 -17.463 -0.412 -17.559 -0.338 -17.705 -0.265 -17.766 -0.260 -17.813 -0.271 -17.867 -0.296 -18.026 -0.429 7.015 0.243 1.568 0.109 42.628 40.832
271.400 -17.442 -0.425 -17.459 -0.411 -17.555 -0.337 -17.700 -0.263 -17.762 -0.259 -17.809 -0.269 -17.862 -0.294 -18.022 -0.427 7.015 0.243 1.565 0.109 42.626 40.830
271.800 -17.438 -0.424 -17.455 -0.410 -17.551 -0.336 -17.696 -0.262 -17.758 -0.257 -17.804 -0.267 -17.858 -0.292 -18.017 -0.426 7.016 0.243 1.562 0.109 42.624 40.828
272.200 -17.434 -0.423 -17.451 -0.410 -17.547 -0.335 -17.692 -0.260 -17.753 -0.255 -17.800 -0.265 -17.854 -0.290 -18.013 -0.425 7.016 0.244 1.558 0.109 42.623 40.826
272.600 -17.430 -0.423 -17.446 -0.409 -17.543 -0.334 -17.688 -0.258 -17.749 -0.253 -17.796 -0.263 -17.850 -0.288 -18.009 -0.424 7.016 0.244 1.555 0.109 42.621 40.824
273.000 -17.426 -0.422 -17.442 -0.408 -17.538 -0.333 -17.683 -0.256 -17.745 -0.251 -17.792 -0.261 -17.845 -0.287 -18.005 -0.423 7.017 0.245 1.552 0.109 42.619 40.822
273.400 -17.422 -0.421 -17.438 -0.407 -17.534 -0.332 -17.679 -0.254 -17.740 -0.249 -17.787 -0.259 -17.841 -0.285 -18.001 -0.422 7.017 0.245 1.548 0.109 42.617 40.819
273.800 -17.418 -0.421 -17.434 -0.407 -17.530 -0.330 -17.675 -0.252 -17.736 -0.247 -17.783 -0.257 -17.837 -0.283 -17.996 -0.420 7.018 0.246 1.545 0.108 42.616 40.817
274.200 -17.413 -0.420 -17.430 -0.406 -17.526 -0.329 -17.670 -0.250 -17.732 -0.245 -17.779 -0.255 -17.832 -0.281 -17.992 -0.419 7.018 0.246 1.542 0.108 42.614 40.815
274.600 -17.409 -0.419 -17.426 -0.405 -17.522 -0.328 -17.666 -0.249 -17.728 -0.243 -17.774 -0.253 -17.828 -0.279 -17.988 -0.418 7.018 0.247 1.539 0.108 42.612 40.813
275.000 -17.405 -0.418 -17.422 -0.404 -17.517 -0.327 -17.662 -0.247 -17.723 -0.240 -17.770 -0.251 -17.824 -0.277 -17.984 -0.417 7.018 0.247 1.535 0.108 42.610 40.810
275.400 -17.401 -0.418 -17.418 -0.404 -17.513 -0.326 -17.658 -0.245 -17.719 -0.238 -17.766 -0.248 -17.820 -0.275 -17.980 -0.415 7.019 0.248 1.532 0.108 42.609 40.808
275.800 -17.397 -0.417 -17.414 -0.403 -17.509 -0.324 -17.653 -0.242 -17.715 -0.236 -17.762 -0.246 -17.815 -0.273 -17.976 -0.414 7.019 0.248 1.529 0.108 42.607 40.806
276.200 -17.393 -0.416 -17.409 -0.402 -17.505 -0.323 -17.649 -0.240 -17.710 -0.234 -17.757 -0.244 -17.811 -0.271 -17.971 -0.413 7.019 0.249 1.526 0.108 42.605 40.803
276.600 -17.389 -0.415 -17.405 -0.401 -17.501 -0.322 -17.645 -0.238 -17.706 -0.231 -17.753 -0.242 -17.807 -0.269 -17.967 -0.412 7.019 0.249 1.523 0.108 42.603 40.801
277.000 -17.385 -0.415 -17.401 -0.400 -17.497 -0.321 -17.641 -0.236 -17.702 -0.229 -17.749 -0.240 -17.803 -0.267 -17.963 -0.410 7.020 0.250 1.519 0.108 42.601 40.798
277.400 -17.381 -0.414 -17.397 -0.399 -17.492 -0.320 -17.636 -0.234 -17.698 -0.227 -17.744 -0.237 -17.798 -0.265 -17.959 -0.409 7.020 0.250 1.516 0.108 42.600 40.796
277.800 -17.377 -0.413 -17.393 -0.399 -17.488 -0.318 -17.632 -0.232 -17.693 -0.224 -17.740 -0.235 -17.794 -0.263 -17.955 -0.408 7.020 0.251 1.513 0.108 42.598 40.793
278.200 -17.373 -0.412 -17.389 -0.398 -17.484 -0.317 -17.628 -0.230 -17.689 -0.222 -17.736 -0.233 -17.790 -0.261 -17.951 -0.406 7.020 0.251 1.510 0.108 42.596 40.791
278.600 -17.369 -0.411 -17.385 -0.397 -17.480 -0.316 -17.624 -0.227 -17.685 -0.219 -17.732 -0.230 -17.786 -0.259 -17.946 -0.405 7.020 0.252 1.507 0.108 42.594 40.788
279.000 -17.365 -0.411 -17.381 -0.396 -17.476 -0.314 -17.619 -0.225 -17.681 -0.217 -17.727 -0.228 -17.781 -0.256 -17.942 -0.404 7.020 0.252 1.504 0.108 42.593 40.786
279.400 -17.360 -0.410 -17.377 -0.395 -17.471 -0.313 -17.615 -0.223 -17.676 -0.214 -17.723 -0.225 -17.777 -0.254 -17.938 -0.403 7.020 0.253 1.501 0.108 42.591 40.783
279.800 -17.356 -0.409 -17.373 -0.394 -17.467 -0.312 -17.611 -0.220 -17.672 -0.212 -17.719 -0.223 -17.773 -0.252 -17.934 -0.401 7.020 0.253 1.498 0.108 42.589 40.780
280.200 -17.352 -0.408 -17.369 -0.393 -17.463 -0.310 -17.607 -0.218 -17.668 -0.209 -17.715 -0.220 -17.769 -0.250 -17.930 -0.400 7.020 0.254 1.495 0.108 42.587 40.777
280.600 -17.348 -0.407 -17.364 -0.392 -17.459 -0.309 -17.602 -0.216 -17.664 -0.207 -17.710 -0.218 -17.764 -0.248 -17.926 -0.399 7.020 0.255 1.492 0.108 42.586 40.775
281.000 -17.344 -0.406 -17.360 -0.392 -17.455 -0.308 -17.598 -0.213 -17.659 -0.204 -17.706 -0.215 -17.760 -0.245 -17.922 -0.397 7.020 0.255 1.489 0.108 42.584 40.772
281.400 -17.340 -0.406 -17.356 -0.391 -17.451 -0.306 -17.594 -0.211 -17.655 -0.201 -17.702 -0.213 -17.756 -0.243 -17.918 -0.396 7.020 0.256 1.486 0.107 42.582 40.769
281.800 -17.336 -0.405 -17.352 -0.390 -17.446 -0.305 -17.590 -0.209 -17.651 -0.199 -17.698 -0.210 -17.752 -0.241 -17.914 -0.395 7.020 0.256 1.483 0.107 42.580 40.766
282.200 -17.332 -0.404 -17.348 -0.389 -17.442 -0.304 -17.585 -0.206 -17.647 -0.196 -17.694 -0.207 -17.748 -0.238 -17.909 -0.393 7.019 0.257 1.480 0.107 42.578 40.763
282.600 -17.328 -0.403 -17.344 -0.388 -17.438 -0.302 -17.581 -0.204 -17.642 -0.193 -17.689 -0.205 -17.743 -0.236 -17.905 -0.392 7.019 0.257 1.477 0.107 42.577 40.760
283.000 -17.324 -0.402 -17.340 -0.387 -17.434 -0.301 -17.577 -0.201 -17.638 -0.190 -17.685 -0.202 -17.739 -0.234 -17.901 -0.391 7.019 0.258 1.474 0.107 42.575 40.757
283.400 -17.320 -0.401 -17.336 -0.386 -17.430 -0.300 -17.573 -0.199 -17.634 -0.188 -17.681 -0.199 -17.735 -0.232 -17.897 -0.389 7.018 0.259 1.471 0.107 42.573 40.753
283.800 -17.316 -0.401 -17.332 -0.385 -17.426 -0.298 -17.568 -0.196 -17.630 -0.185 -17.677 -0.197 -17.731 -0.229 -17.893 -0.388 7.018 0.259 1.468 0.107 42.571 40.750
284.200 -17.312 -0.400 -17.328 -0.384 -17.421 -0.297 -17.564 -0.193 -17.625 -0.182 -17.672 -0.194 -17.727 -0.227 -17.889 -0.387 7.017 0.260 1.466 0.107 42.570 40.747
284.600 -17.308 -0.399 -17.324 -0.383 -17.417 -0.296 -17.560 -0.191 -17.621 -0.179 -17.668 -0.191 -17.722 -0.224 -17.885 -0.385 7.017 0.260 1.463 0.107 42.568 40.743
285.000 -17.304 -0.398 -17.320 -0.383 -17.413 -0.294 -17.556 -0.188 -17.617 -0.176 -17.664 -0.188 -17.718 -0.222 -17.881 -0.384 7.016 0.261 1.460 0.107 42.566 40.740
285.400 -17.300 -0.397 -17.316 -0.382 -17.409 -0.293 -17.552 -0.186 -17.613 -0.173 -17.660 -0.186 -17.714 -0.220 -17.877 -0.383 7.016 0.262 1.457 0.107 42.564 40.736
285.800 -17.295 -0.396 -17.311 -0.381 -17.405 -0.291 -17.547 -0.183 -17.609 -0.170 -17.656 -0.183 -17.710 -0.217 -17.873 -0.381 7.015 0.262 1.455 0.107 42.562 40.733
286.200 -17.291 -0.395 -17.307 -0.380 -17.401 -0.290 -17.543 -0.180 -17.604 -0.167 -17.651 -0.180 -17.706 -0.215 -17.869 -0.380 7.014 0.263 1.452 0.107 42.561 40.729
286.600 -17.287 -0.395 -17.303 -0.379 -17.397 -0.289 -17.539 -0.178 -17.600 -0.164 -17.647 -0.177 -17.702 -0.213 -17.865 -0.379 7.013 0.263 1.449 0.107 42.559 40.725
287.000 -17.283 -0.394 -17.299 -0.378 -17.392 -0.287 -17.535 -0.175 -17.596 -0.161 -17.643 -0.174 -17.697 -0.210 -17.861 -0.378 7.012 0.264 1.447 0.107 42.557 40.722
287.400 -17.279 -0.393 -17.295 -0.377 -17.388 -0.286 -17.531 -0.172 -17.592 -0.158 -17.639 -0.171 -17.693 -0.208 -17.857 -0.376 7.011 0.265 1.444 0.107 42.555 40.718
287.800 -17.275 -0.392 -17.291 -0.376 -17.384 -0.285 -17.526 -0.170 -17.588 -0.155 -17.635 -0.168 -17.689 -0.205 -17.853 -0.375 7.010 0.265 1.442 0.107 42.554 40.714
288.200 -17.271 -0.391 -17.287 -0.375 -17.380 -0.284 -17.522 -0.167 -17.583 -0.152 -17.631 -0.165 -17.685 -0.203 -17.849 -0.374 7.009 0.266 1.439 0.108 42.552 40.710
288.600 -17.267 -0.390 -17.283 -0.375 -17.376 -0.282 -17.518 -0.164 -17.579 -0.149 -17.626 -0.162 -17.681 -0.201 -17.845 -0.373 7.008 0.267 1.437 0.108 42.550 40.705
289.000 -17.263 -0.390 -17.279 -0.374 -17.372 -0.281 -17.514 -0.162 -17.575 -0.145 -17.622 -0.160 -17.677 -0.198 -17.841 -0.371 7.007 0.267 1.434 0.108 42.548 40.701
289.400 -17.259 -0.389 -17.275 -0.373 -17.368 -0.280 -17.510 -0.159 -17.571 -0.142 -17.618 -0.157 -17.672 -0.196 -17.837 -0.370 7.005 0.268 1.432 0.108 42.546 40.697
289.800 -17.255 -0.388 -17.271 -0.372 -17.364 -0.278 -17.506 -0.156 -17.567 -0.139 -17.614 -0.154 -17.668 -0.194 -17.833 -0.369 7.004 0.269 1.430 0.108 42.545 40.692
290.200 -17.251 -0.387 -17.267 -0.371 -17.359 -0.277 -17.501 -0.153 -17.563 -0.136 -17.610 -0.151 -17.664 -0.191 -17.829 -0.368 7.002 0.269 1.427 0.108 42.543 40.687
290.600 -17.247 -0.387 -17.263 -0.370 -17.355 -0.276 -17.497 -0.151 -17.558 -0.133 -17.606 -0.148 -17.660 -0.189 -17.825 -0.366 7.000 0.270 1.425 0.108 42.541 40.682
291.000 -17.243 -0.386 -17.259 -0.370 -17.351 -0.275 -17.493 -0.148 -17.554 -0.129 -17.601 -0.145 -17.656 -0.187 -17.821 -0.365 6.998 0.271 1.423 0.108 42.539 40.677
291.400 -17.239 -0.385 -17.255 -0.369 -17.347 -0.274 -17.489 -0.145 -17.550 -0.126 -17.597 -0.142 -17.652 -0.184 -17.817 -0.364 6.997 0.272 1.421 0.108 42.537 40.672
291.800 -17.235 -0.384 -17.251 -0.368 -17.343 -0.272 -17.485 -0.143 -17.546 -0.123 -17.593 -0.139 -17.648 -0.182 -17.813 -0.363 6.994 0.272 1.419 0.108 42.536 40.667
292.200 -17.231 -0.383 -17.247 -0.367 -17.339 -0.271 -17.481 -0.140 -17.542 -0.119 -17.589 -0.136 -17.644 -0.180 -17.809 -0.362 6.992 0.273 1.417 0.108 42.534 40.662
292.600 -17.227 -0.383 -17.243 -0.366 -17.335 -0.270 -17.477 -0.137 -17.538 -0.116 -17.585 -0.133 -17.640 -0.178 -17.805 -0.361 6.990 0.274 1.415 0.108 42.532 40.656
293.000 -17.223 -0.382 -17.239 -0.366 -17.331 -0.269 -17.472 -0.135 -17.534 -0.113 -17.581 -0.130 -17.636 -0.175 -17.801 -0.360 6.987 0.274 1.413 0.109 42.530 40.650
293.400 -17.219 -0.381 -17.235 -0.365 -17.327 -0.268 -17.468 -0.132 -17.529 -0.109 -17.577 -0.127 -17.631 -0.173 -17.797 -0.359 6.985 0.275 1.411 0.109 42.528 40.644
293.800 -17.215 -0.381 -17.231 -0.364 -17.323 -0.267 -17.464 -0.129 -17.525 -0.106 -17.573 -0.124 -17.627 -0.171 -17.793 -0.358 6.982 0.276 1.409 0.109 42.527 40.638
294.200 -17.211 -0.380 -17.227 -0.363 -17.319 -0.266 -17.460 -0.127 -17.521 -0.103 -17.569 -0.121 -17.623 -0.169 -17.789 -0.356 6.979 0.276 1.407 0.109 42.525 40.632
294.600 -17.207 -0.379 -17.223 -0.363 -17.314 -0.265 -17.456 -0.124 -17.517 -0.099 -17.564 -0.118 -17.619 -0.167 -17.785 -0.355 6.976 0.277 1.405 0.109 42.523 40.625
295.000 -17.203 -0.379 -17.219 -0.362 -17.310 -0.264 -17.452 -0.122 -17.513 -0.096 -17.560 -0.115 -17.615 -0.165 -17.781 -0.354 6.973 0.278 1.404 0.109 42.521 40.618
295.400 -17.199 -0.378 -17.215 -0.361 -17.306 -0.263 -17.448 -0.119 -17.509 -0.093 -17.556 -0.113 -17.611 -0.163 -17.777 -0.353 6.970 0.278 1.402 0.109 42.519 40.611
295.800 -17.195 -0.377 -17.211 -0.361 -17.302 -0.262 -17.444 -0.117 -17.505 -0.089 -17.552 -0.110 -17.607 -0.161 -17.773 -0.352 6.967 0.279 1.400 0.110 42.517 40.604
296.200 -17.191 -0.377 -17.207 -0.360 -17.298 -0.261 -17.439 -0.115 -17.501 -0.086 -17.548 -0.107 -17.603 -0.159 -17.769 -0.351 6.963 0.280 1.399 0.110 42.516 40.596
296.600 -17.187 -0.376 -17.203 -0.359 -17.294 -0.260 -17.435 -0.112 -17.497 -0.083 -17.544 -0.104 -17.599 -0.157 -17.766 -0.351 6.960 0.280 1.397 0.110 42.514 40.588
297.000 -17.183 -0.375 -17.199 -0.359 -17.290 -0.260 -17.431 -0.110 -17.493 -0.080 -17.540 -0.102 -17.595 -0.156 -17.762 -0.350 6.956 0.281 1.396 0.110 42.512 40.580
297.400 -17.179 -0.375 -17.195 -0.358 -17.286 -0.259 -17.427 -0.108 -17.488 -0.076 -17.536 -0.099 -17.591 -0.154 -17.758 -0.349 6.952 0.282 1.395 0.110 42.510 40.572
297.800 -17.175 -0.374 -17.191 -0.358 -17.282 -0.258 -17.423 -0.106 -17.484 -0.073 -17.532 -0.097 -17.587 -0.152 -17.754 -0.348 6.948 0.282 1.393 0.111 42.508 40.563
298.200 -17.171 -0.374 -17.187 -0.357 -17.278 -0.257 -17.419 -0.104 -17.480 -0.070 -17.528 -0.094 -17.583 -0.151 -17.750 -0.347 6.945 0.283 1.392 0.111 42.507 40.554
298.600 -17.167 -0.373 -17.183 -0.357 -17.274 -0.257 -17.415 -0.102 -17.476 -0.067 -17.524 -0.092 -17.579 -0.149 -17.746 -0.346 6.941 0.284 1.390 0.111 42.505 40.545
299.000 -17.163 -0.373 -17.179 -0.356 -17.270 -0.256 -17.411 -0.100 -17.472 -0.064 -17.520 -0.090 -17.575 -0.148 -17.742 -0.345 6.937 0.284 1.389 0.111 42.503 40.536
299.400 -17.159 -0.372 -17.175 -0.356 -17.266 -0.255 -17.407 -0.099 -17.468 -0.061 -17.516 -0.088 -17.571 -0.147 -17.738 -0.345 6.933 0.285 1.388 0.111 42.501 40.526
299.800 -17.155 -0.372 -17.171 -0.355 -17.262 -0.255 -17.403 -0.097 -17.464 -0.058 -17.512 -0.086 -17.567 -0.145 -17.735 -0.344 6.930 0.285 1.386 0.111 42.499 40.516
300.200 -17.151 -0.371 -17.167 -0.355 -17.258 -0.254 -17.399 -0.096 -17.460 -0.056 -17.508 -0.084 -17.563 -0.144 -17.731 -0.343 6.926 0.286 1.385 0.112 42.498 40.507
300.600 -17.147 -0.371 -17.163 -0.354 -17.254 -0.254 -17.395 -0.094 -17.456 -0.053 -17.504 -0.082 -17.559 -0.143 -17.727 -0.343 6.923 0.287 1.383 0.112 42.496 40.497
301.000 -17.144 -0.370 -17.159 -0.354 -17.250 -0.253 -17.391 -0.093 -17.452 -0.051 -17.500 -0.081 -17.555 -0.142 -17.723 -0.342 6.919 0.287 1.382 0.112 42.494 40.487
301.400 -17.140 -0.370 -17.155 -0.353 -17.246 -0.253 -17.387 -0.092 -17.448 -0.049 -17.496 -0.079 -17.551 -0.141 -17.719 -0.341 6.917 0.288 1.380 0.112 42.492 40.479
301.800 -17.136 -0.370 -17.151 -0.353 -17.242 -0.253 -17.383 -0.092 -17.444 -0.047 -17.492 -0.078 -17.547 -0.141 -17.715 -0.341 6.914 0.289 1.379 0.112 42.491 40.470
302.200 -17.132 -0.369 -17.147 -0.353 -17.238 -0.252 -17.379 -0.091 -17.440 -0.046 -17.488 -0.077 -17.543 -0.140 -17.712 -0.340 6.912 0.289 1.377 0.112 42.489 40.463
302.600 -17.128 -0.369 -17.143 -0.352 -17.234 -0.252 -17.375 -0.090 -17.436 -0.045 -17.484 -0.077 -17.539 -0.140 -17.708 -0.340 6.910 0.290 1.375 0.112 42.487 40.457
303.000 -17.124 -0.369 -17.139 -0.352 -17.230 -0.252 -17.371 -0.090 -17.432 -0.044 -17.480 -0.076 -17.535 -0.139 -17.704 -0.339 6.908 0.290 1.373 0.112 42.486 40.452
303.400 -17.120 -0.368 -17.135 -0.352 -17.226 -0.252 -17.367 -0.090 -17.428 -0.043 -17.476 -0.076 -17.531 -0.139 -17.700 -0.338 6.907 0.290 1.371 0.112 42.484 40.450
303.800 -17.116 -0.368 -17.131 -0.351 -17.222 -0.251 -17.363 -0.090 -17.424 -0.044 -17.472 -0.076 -17.527 -0.139 -17.696 -0.338 6.907 0.291 1.368 0.112 42.482 40.449
304.200 -17.112 -0.368 -17.127 -0.351 -17.218 -0.251 -17.359 -0.090 -17.420 -0.044 -17.468 -0.076 -17.523 -0.138 -17.693 -0.338 6.907 0.291 1.366 0.112 42.481 40.450
304.600 -17.108 -0.367 -17.124 -0.351 -17.214 -0.251 -17.355 -0.091 -17.416 -0.045 -17.464 -0.076 -17.519 -0.138 -17.689 -0.337 6.907 0.291 1.363 0.112 42.479 40.453
305.000 -17.104 -0.367 -17.120 -0.351 -17.210 -0.251 -17.351 -0.091 -17.412 -0.046 -17.460 -0.076 -17.516 -0.139 -17.685 -0.337 6.908 0.291 1.361 0.112 42.478 40.457
305.400 -17.100 -0.367 -17.116 -0.350 -17.206 -0.251 -17.347 -0.092 -17.408 -0.048 -17.456 -0.077 -17.512 -0.139 -17.681 -0.336 6.909 0.291 1.358 0.112 42.476 40.462
305.800 -17.096 -0.367 -17.112 -0.350 -17.202 -0.251 -17.343 -0.093 -17.404 -0.049 -17.452 -0.078 -17.508 -0.139 -17.678 -0.336 6.911 0.291 1.355 0.111 42.475 40.469
306.200 -17.093 -0.366 -17.108 -0.350 -17.198 -0.251 -17.339 -0.094 -17.400 -0.051 -17.448 -0.079 -17.504 -0.139 -17.674 -0.336 6.913 0.291 1.352 0.111 42.473 40.476
306.600 -17.089 -0.366 -17.104 -0.350 -17.194 -0.252 -17.335 -0.095 -17.396 -0.054 -17.444 -0.081 -17.500 -0.140 -17.670 -0.335 6.916 0.291 1.349 0.111 42.472 40.483
307.000 -17.085 -0.366 -17.100 -0.350 -17.190 -0.252 -17.331 -0.096 -17.392 -0.056 -17.440 -0.082 -17.496 -0.141 -17.667 -0.335 6.918 0.291 1.346 0.111 42.471 40.491
307.400 -17.081 -0.366 -17.096 -0.350 -17.186 -0.252 -17.327 -0.098 -17.388 -0.059 -17.436 -0.084 -17.492 -0.141 -17.663 -0.335 6.921 0.291 1.342 0.110 42.469 40.499
307.800 -17.077 -0.366 -17.092 -0.350 -17.182 -0.252 -17.323 -0.100 -17.384 -0.062 -17.432 -0.086 -17.488 -0.142 -17.659 -0.335 6.924 0.291 1.339 0.110 42.468 40.507
308.200 -17.073 -0.366 -17.088 -0.350 -17.178 -0.253 -17.319 -0.101 -17.381 -0.065 -17.429 -0.088 -17.484 -0.143 -17.655 -0.335 6.927 0.291 1.336 0.110 42.467 40.514
308.600 -17.069 -0.366 -17.084 -0.350 -17.174 -0.253 -17.315 -0.103 -17.377 -0.068 -17.425 -0.090 -17.481 -0.144 -17.652 -0.334 6.930 0.291 1.333 0.109 42.465 40.522
309.000 -17.065 -0.366 -17.081 -0.350 -17.170 -0.253 -17.311 -0.105 -17.373 -0.071 -17.421 -0.092 -17.477 -0.145 -17.648 -0.334 6.933 0.291 1.329 0.109 42.464 40.529
309.400 -17.062 -0.366 -17.077 -0.350 -17.166 -0.254 -17.307 -0.107 -17.369 -0.074 -17.417 -0.094 -17.473 -0.146 -17.644 -0.334 6.937 0.291 1.326 0.109 42.463 40.536
309.800 -17.058 -0.366 -17.073 -0.350 -17.162 -0.254 -17.303 -0.109 -17.365 -0.077 -17.413 -0.096 -17.469 -0.148 -17.641 -0.334 6.940 0.291 1.323 0.108 42.461 40.543
310.200 -17.054 -0.366 -17.069 -0.350 -17.159 -0.255 -17.299 -0.111 -17.361 -0.080 -17.409 -0.099 -17.465 -0.149 -17.637 -0.334 6.943 0.291 1.320 0.108 42.460 40.550
310.600 -17.050 -0.366 -17.065 -0.350 -17.155 -0.255 -17.295 -0.114 -17.357 -0.084 -17.405 -0.101 -17.461 -0.150 -17.633 -0.334 6.946 0.291 1.316 0.108 42.458 40.556
311.000 -17.046 -0.366 -17.061 -0.350 -17.151 -0.256 -17.291 -0.116 -17.353 -0.087 -17.401 -0.104 -17.458 -0.152 -17.630 -0.334 6.949 0.291 1.313 0.108 42.457 40.562
311.400 -17.042 -0.366 -17.057 -0.350 -17.147 -0.256 -17.287 -0.118 -17.349 -0.090 -17.398 -0.107 -17.454 -0.153 -17.626 -0.334 6.952 0.291 1.310 0.107 42.456 40.568
311.800 -17.038 -0.366 -17.053 -0.350 -17.143 -0.257 -17.284 -0.121 -17.346 -0.094 -17.394 -0.109 -17.450 -0.155 -17.622 -0.334 6.954 0.291 1.307 0.107 42.454 40.573
312.200 -17.035 -0.366 -17.050 -0.350 -17.139 -0.258 -17.280 -0.123 -17.342 -0.097 -17.390 -0.112 -17.446 -0.157 -17.619 -0.334 6.957 0.291 1.304 0.107 42.453 40.578
312.600 -17.031 -0.366 -17.046 -0.350 -17.135 -0.258 -17.276 -0.126 -17.338 -0.100 -17.386 -0.115 -17.442 -0.158 -17.615 -0.334 6.960 0.291 1.301 0.106 42.452 40.583
313.000 -17.027 -0.366 -17.042 -0.351 -17.131 -0.259 -17.272 -0.129 -17.334 -0.104 -17.382 -0.118 -17.439 -0.160 -17.611 -0.334 6.962 0.291 1.298 0.106 42.450 40.588
313.400 -17.023 -0.366 -17.038 -0.351 -17.127 -0.260 -17.268 -0.131 -17.330 -0.107 -17.378 -0.121 -17.435 -0.162 -17.608 -0.335 6.964 0.291 1.295 0.106 42.449 40.593
313.800 -17.019 -0.366 -17.034 -0.351 -17.123 -0.261 -17.264 -0.134 -17.326 -0.110 -17.375 -0.123 -17.431 -0.164 -17.604 -0.335 6.966 0.291 1.293 0.106 42.448 40.597
314.200 -17.015 -0.366 -17.030 -0.351 -17.120 -0.262 -17.260 -0.136 -17.322 -0.114 -17.371 -0.126 -17.427 -0.166 -17.601 -0.335 6.968 0.290 1.290 0.105 42.446 40.601
314.600 -17.012 -0.366 -17.027 -0.351 -17.116 -0.262 -17.256 -0.139 -17.319 -0.117 -17.367 -0.129 -17.424 -0.168 -17.597 -0.335 6.970 0.290 1.287 0.105 42.445 40.605
315.000 -17.008 -0.367 -17.023 -0.352 -17.112 -0.263 -17.253 -0.142 -17.315 -0.121 -17.363 -0.132 -17.420 -0.170 -17.594 -0.335 6.972 0.290 1.285 0.105 42.444 40.609
315.400 -17.004 -0.367 -17.019 -0.352 -17.108 -0.264 -17.249 -0.145 -17.311 -0.124 -17.359 -0.135 -17.416 -0.172 -17.590 -0.336 6.973 0.290 1.282 0.105 42.442 40.613
315.800 -17.000 -0.367 -17.015 -0.352 -17.104 -0.265 -17.245 -0.147 -17.307 -0.127 -17.356 -0.138 -17.412 -0.174 -17.586 -0.336 6.975 0.290 1.280 0.105 42.441 40.616
316.200 -16.996 -0.367 -17.011 -0.352 -17.100 -0.266 -17.241 -0.150 -17.303 -0.130 -17.352 -0.141 -17.409 -0.176 -17.583 -0.336 6.976 0.290 1.277 0.104 42.440 40.619
316.600 -16.992 -0.367 -17.007 -0.353 -17.096 -0.267 -17.237 -0.153 -17.300 -0.134 -17.348 -0.144 -17.405 -0.178 -17.579 -0.337 6.977 0.290 1.275 0.104 42.438 40.623
317.000 -16.989 -0.368 -17.004 -0.353 -17.093 -0.268 -17.233 -0.156 -17.296 -0.137 -17.344 -0.147 -17.401 -0.180 -17.576 -0.337 6.978 0.290 1.272 0.104 42.437 40.626
317.400 -16.985 -0.368 -17.000 -0.353 -17.089 -0.269 -17.230 -0.158 -17.292 -0.140 -17.341 -0.150 -17.397 -0.182 -17.572 -0.337 6.979 0.290 1.270 0.104 42.436 40.629
317.800 -16.981 -0.368 -16.996 -0.354 -17.085 -0.270 -17.226 -0.161 -17.288 -0.143 -17.337 -0.153 -17.394 -0.184 -17.569 -0.338 6.980 0.290 1.268 0.104 42.434 40.631
318.200 -16.977 -0.368 -16.992 -0.354 -17.081 -0.271 -17.222 -0.164 -17.284 -0.147 -17.333 -0.156 -17.390 -0.187 -17.565 -0.338 6.981 0.290 1.266 0.104 42.433 40.634
318.600 -16.974 -0.369 -16.988 -0.354 -17.077 -0.272 -17.218 -0.167 -17.281 -0.150 -17.329 -0.159 -17.386 -0.189 -17.562 -0.338 6.981 0.290 1.264 0.103 42.432 40.637
319.000 -16.970 -0.369 -16.985 -0.355 -17.073 -0.273 -17.214 -0.169 -17.277 -0.153 -17.326 -0.161 -17.383 -0.191 -17.558 -0.339 6.982 0.290 1.261 0.103 42.430 40.639
319.400 -16.966 -0.369 -16.981 -0.355 -17.070 -0.274 -17.210 -0.172 -17.273 -0.156 -17.322 -0.164 -17.379 -0.193 -17.555 -0.339 6.983 0.290 1.259 0.103 42.429 40.641
319.800 -16.962 -0.369 -16.977 -0.356 -17.066 -0.275 -17.207 -0.175 -17.269 -0.159 -17.318 -0.167 -17.375 -0.195 -17.551 -0.340 6.983 0.289 1.257 0.103 42.428 40.644
320.200 -16.958 -0.370 -16.973 -0.356 -17.062 -0.277 -17.203 -0.178 -17.265 -0.162 -17.314 -0.170 -17.372 -0.198 -17.548 -0.340 6.983 0.289 1.255 0.103 42.426 40.646
320.600 -16.955 -0.370 -16.970 -0.356 -17.058 -0.278 -17.199 -0.180 -17.262 -0.165 -17.311 -0.173 -17.368 -0.200 -17.544 -0.340 6.983 0.289 1.253 0.103 42.425 40.648
321.000 -16.951 -0.370 -16.966 -0.357 -17.054 -0.279 -17.195 -0.183 -17.258 -0.169 -17.307 -0.176 -17.364 -0.202 -17.541 -0.341 6.984 0.289 1.251 0.103 42.424 40.650
321.400 -16.947 -0.371 -16.962 -0.357 -17.050 -0.280 -17.192 -0.186 -17.254 -0.172 -17.303 -0.179 -17.361 -0.204 -17.537 -0.341 6.984 0.289 1.249 0.103 42.422 40.652
321.800 -16.943 -0.371 -16.958 -0.358 -17.047 -0.281 -17.188 -0.188 -17.250 -0.175 -17.300 -0.181 -17.357 -0.207 -17.534 -0.342 6.984 0.289 1.247 0.103 42.421 40.654
322.200 -16.940 -0.371 -16.954 -0.358 -17.043 -0.282 -17.184 -0.191 -17.247 -0.178 -17.296 -0.184 -17.353 -0.209 -17.530 -0.342 6.984 0.289 1.245 0.102 42.420 40.655
322.600 -16.936 -0.372 -16.951 -0.358 -17.039 -0.283 -17.180 -0.194 -17.243 -0.180 -17.292 -0.187 -17.350 -0.211 -17.527 -0.343 6.983 0.289 1.243 0.102 42.418 40.657
323.000 -16.932 -0.372 -16.947 -0.359 -17.035 -0.285 -17.176 -0.196 -17.239 -0.183 -17.288 -0.190 -17.346 -0.213 -17.523 -0.343 6.983 0.289 1.242 0.102 42.417 40.659
323.400 -16.928 -0.372 -16.943 -0.359 -17.032 -0.286 -17.173 -0.199 -17.236 -0.186 -17.285 -0.192 -17.342 -0.215 -17.520 -0.344 6.983 0.289 1.240 0.102 42.416 40.660
323.800 -16.925 -0.373 -16.939 -0.360 -17.028 -0.287 -17.169 -0.201 -17.232 -0.189 -17.281 -0.195 -17.339 -0.218 -17.516 -0.344 6.983 0.289 1.238 0.102 42.414 40.662
324.200 -16.921 -0.373 -16.936 -0.360 -17.024 -0.288 -17.165 -0.204 -17.228 -0.192 -17.277 -0.198 -17.335 -0.220 -17.513 -0.345 6.982 0.289 1.236 0.102 42.413 40.663
324.600 -16.917 -0.373 -16.932 -0.361 -17.020 -0.289 -17.161 -0.206 -17.224 -0.195 -17.274 -0.200 -17.332 -0.222 -17.510 -0.345 6.982 0.289 1.234 0.102 42.412 40.665
325.000 -16.913 -0.374 -16.928 -0.361 -17.016 -0.290 -17.158 -0.209 -17.221 -0.198 -17.270 -0.203 -17.328 -0.224 -17.506 -0.346 6.982 0.289 1.233 0.102 42.410 40.666
325.400 -16.910 -0.374 -16.925 -0.361 -17.013 -0.292 -17.154 -0.211 -17.217 -0.200 -17.266 -0.206 -17.324 -0.226 -17.503 -0.346 6.981 0.289 1.231 0.102 42.409 40.667
325.800 -16.906 -0.374 -16.921 -0.362 -17.009 -0.293 -17.150 -0.214 -17.213 -0.203 -17.263 -0.208 -17.321 -0.228 -17.499 -0.347 6.981 0.289 1.229 0.102 42.408 40.668
326.200 -16.902 -0.375 -16.917 -0.362 -17.005 -0.294 -17.146 -0.216 -17.210 -0.206 -17.259 -0.211 -17.317 -0.230 -17.496 -0.347 6.980 0.289 1.228 0.102 42.406 40.670
326.600 -16.899 -0.375 -16.913 -0.363 -17.001 -0.295 -17.143 -0.219 -17.206 -0.208 -17.255 -0.213 -17.314 -0.233 -17.493 -0.348 6.979 0.289 1.226 0.102 42.405 40.671
327.000 -16.895 -0.375 -16.910 -0.363 -16.998 -0.296 -17.139 -0.221 -17.202 -0.211 -17.252 -0.216 -17.310 -0.235 -17.489 -0.349 6.979 0.289 1.224 0.102 42.404 40.672
327.400 -16.891 -0.376 -16.906 -0.364 -16.994 -0.297 -17.135 -0.224 -17.199 -0.213 -17.248 -0.218 -17.306 -0.237 -17.486 -0.349 6.978 0.290 1.223 0.102 42.402 40.673
327.800 -16.887 -0.376 -16.902 -0.364 -16.990 -0.299 -17.132 -0.226 -17.195 -0.216 -17.245 -0.221 -17.303 -0.239 -17.483 -0.350 6.977 0.290 1.221 0.102 42.401 40.674
328.200 -16.884 -0.376 -16.898 -0.364 -16.986 -0.300 -17.128 -0.228 -17.191 -0.219 -17.241 -0.223 -17.299 -0.241 -17.479 -0.350 6.977 0.290 1.219 0.102 42.400 40.675
328.600 -16.880 -0.376 -16.895 -0.365 -16.983 -0.301 -17.124 -0.231 -17.188 -0.221 -17.237 -0.225 -17.296 -0.243 -17.476 -0.351 6.976 0.290 1.218 0.102 42.398 40.676
329.000 -16.876 -0.377 -16.891 -0.365 -16.979 -0.302 -17.120 -0.233 -17.184 -0.223 -17.234 -0.228 -17.292 -0.245 -17.473 -0.351 6.975 0.290 1.216 0.101 42.397 40.677
329.400 -16.873 -0.377 -16.887 -0.366 -16.975 -0.303 -17.117 -0.235 -17.180 -0.226 -17.230 -0.230 -17.289 -0.247 -17.469 -0.352 6.974 0.290 1.214 0.101 42.396 40.677
329.800 -16.869 -0.377 -16.884 -0.366 -16.971 -0.304 -17.113 -0.237 -17.177 -0.228 -17.227 -0.232 -17.285 -0.249 -17.466 -0.352 6.973 0.290 1.213 0.101 42.394 40.678
330.200 -16.865 -0.378 -16.880 -0.366 -16.968 -0.305 -17.109 -0.239 -17.173 -0.231 -17.223 -0.235 -17.282 -0.251 -17.463 -0.353 6.973 0.290 1.211 0.101 42.393 40.679
330.600 -16.862 -0.378 -16.876 -0.367 -16.964 -0.306 -17.106 -0.242 -17.169 -0.233 -17.219 -0.237 -17.278 -0.253 -17.459 -0.353 6.972 0.290 1.210 0.101 42.392 40.680
331.000 -16.858 -0.378 -16.873 -0.367 -16.960 -0.308 -17.102 -0.244 -17.166 -0.235 -17.216 -0.239 -17.274 -0.255 -17.456 -0.354 6.971 0.290 1.208 0.101 42.390 40.680
331.400 -16.854 -0.378 -16.869 -0.368 -16.957 -0.309 -17.098 -0.246 -17.162 -0.238 -17.212 -0.241 -17.271 -0.256 -17.453 -0.354 6.970 0.290 1.207 0.101 42.389 40.681
331.800 -16.851 -0.379 -16.865 -0.368 -16.953 -0.310 -17.095 -0.248 -17.159 -0.240 -17.209 -0.243 -17.267 -0.258 -17.449 -0.355 6.969 0.290 1.205 0.101 42.388 40.682
332.200 -16.847 -0.379 -16.862 -0.368 -16.949 -0.311 -17.091 -0.250 -17.155 -0.242 -17.205 -0.246 -17.264 -0.260 -17.446 -0.355 6.968 0.290 1.204 0.101 42.386 40.682
332.600 -16.843 -0.379 -16.858 -0.369 -16.945 -0.312 -17.087 -0.252 -17.151 -0.244 -17.201 -0.248 -17.260 -0.262 -17.443 -0.355 6.967 0.291 1.202 0.101 42.385 40.683
333.000 -16.840 -0.379 -16.854 -0.369 -16.942 -0.313 -17.084 -0.254 -17.148 -0.246 -17.198 -0.250 -17.257 -0.264 -17.440 -0.356 6.966 0.291 1.201 0.101 42.384 40.683
333.400 -16.836 -0.380 -16.851 -0.369 -16.938 -0.314 -17.080 -0.256 -17.144 -0.248 -17.194 -0.252 -17.253 -0.265 -17.436 -0.356 6.965 0.291 1.199 0.101 42.382 40.684
333.800 -16.832 -0.380 -16.847 -0.370 -16.934 -0.315 -17.076 -0.258 -17.140 -0.250 -17.191 -0.254 -17.250 -0.267 -17.433 -0.357 6.964 0.291 1.198 0.101 42.381 40.684
334.200 -16.829 -0.380 -16.843 -0.370 -16.931 -0.316 -17.073 -0.260 -17.137 -0.252 -17.187 -0.256 -17.246 -0.269 -17.430 -0.357 6.963 0.291 1.196 0.101 42.379 40.685
334.600 -16.825 -0.380 -16.840 -0.370 -16.927 -0.317 -17.069 -0.261 -17.133 -0.254 -17.184 -0.257 -17.243 -0.270 -17.427 -0.358 6.962 0.291 1.195 0.101 42.378 40.685
335.000 -16.822 -0.380 -16.836 -0.370 -16.923 -0.317 -17.065 -0.263 -17.130 -0.256 -17.180 -0.259 -17.240 -0.272 -17.423 -0.358 6.961 0.291 1.193 0.101 42.377 40.686
335.400 -16.818 -0.380 -16.832 -0.371 -16.920 -0.318 -17.062 -0.265 -17.126 -0.258 -17.177 -0.261 -17.236 -0.274 -17.420 -0.358 6.960 0.291 1.192 0.101 42.375 40.686
335.800 -16.814 -0.380 -16.829 -0.371 -16.916 -0.319 -17.058 -0.267 -17.122 -0.260 -17.173 -0.263 -17.233 -0.275 -17.417 -0.359 6.958 0.292 1.190 0.101 42.374 40.686
336.200 -16.811 -0.381 -16.825 -0.371 -16.912 -0.320 -17.055 -0.268 -17.119 -0.262 -17.170 -0.265 -17.229 -0.277 -17.414 -0.359 6.957 0.292 1.189 0.101 42.373 40.687
336.600 -16.807 -0.381 -16.821 -0.371 -16.909 -0.321 -17.051 -0.270 -17.115 -0.264 -17.166 -0.266 -17.226 -0.278 -17.410 -0.359 6.956 0.292 1.187 0.101 42.371 40.687
337.000 -16.803 -0.381 -16.818 -0.371 -16.905 -0.322 -17.047 -0.272 -17.112 -0.265 -17.163 -0.268 -17.222 -0.280 -17.407 -0.360 6.955 0.292 1.186 0.101 42.370 40.687
337.400 -16.800 -0.381 -16.814 -0.372 -16.901 -0.323 -17.044 -0.273 -17.108 -0.267 -17.159 -0.270 -17.219 -0.281 -17.404 -0.360 6.954 0.292 1.184 0.101 42.369 40.688
337.800 -16.796 -0.381 -16.811 -0.372 -16.898 -0.323 -17.040 -0.275 -17.105 -0.269 -17.155 -0.271 -17.215 -0.283 -17.401 -0.360 6.953 0.292 1.183 0.101 42.367 40.688
338.200 -16.793 -0.381 -16.807 -0.372 -16.894 -0.324 -17.036 -0.277 -17.101 -0.270 -17.152 -0.273 -17.212 -0.284 -17.398 -0.361 6.952 0.292 1.182 0.101 42.366 40.688
338.600 -16.789 -0.381 -16.803 -0.372 -16.890 -0.325 -17.033 -0.278 -17.098 -0.272 -17.148 -0.275 -17.209 -0.285 -17.395 -0.361 6.950 0.293 1.180 0.101 42.365 40.689
339.000 -16.785 -0.381 -16.800 -0.372 -16.887 -0.325 -17.029 -0.279 -17.094 -0.274 -17.145 -0.276 -17.205 -0.287 -17.391 -0.361 6.949 0.293 1.179 0.101 42.363 40.689
339.400 -16.782 -0.381 -16.796 -0.372 -16.883 -0.326 -17.026 -0.281 -17.090 -0.275 -17.142 -0.278 -17.202 -0.288 -17.388 -0.361 6.948 0.293 1.177 0.101 42.362 40.689
339.800 -16.778 -0.381 -16.793 -0.372 -16.879 -0.327 -17.022 -0.282 -17.087 -0.277 -17.138 -0.279 -17.198 -0.289 -17.385 -0.361 6.947 0.293 1.176 0.101 42.361 40.689
340.200 -16.775 -0.381 -16.789 -0.372 -16.876 -0.327 -17.018 -0.284 -17.083 -0.278 -17.135 -0.281 -17.195 -0.290 -17.382 -0.362 6.946 0.293 1.175 0.101 42.359 40.690
340.600 -16.771 -0.381 -16.785 -0.372 -16.872 -0.328 -17.015 -0.285 -17.080 -0.280 -17.131 -0.282 -17.192 -0.292 -17.379 -0.362 6.944 0.294 1.173 0.101 42.358 40.690
341.000 -16.767 -0.381 -16.782 -0.372 -16.868 -0.329 -17.011 -0.286 -17.076 -0.281 -17.128 -0.283 -17.188 -0.293 -17.376 -0.362 6.943 0.294 1.172 0.101 42.357 40.690
341.400 -16.764 -0.381 -16.778 -0.372 -16.865 -0.329 -17.008 -0.288 -17.073 -0.282 -17.124 -0.285 -17.185 -0.294 -17.373 -0.362 6.942 0.294 1.170 0.101 42.355 40.690
341.800 -16.760 -0.380 -16.775 -0.372 -16.861 -0.330 -17.004 -0.289 -17.069 -0.284 -17.121 -0.286 -17.181 -0.295 -17.369 -0.362 6.941 0.294 1.169 0.101 42.354 40.690
342.200 -16.757 -0.380 -16.771 -0.372 -16.858 -0.330 -17.000 -0.290 -17.066 -0.285 -17.117 -0.287 -17.178 -0.296 -17.366 -0.362 6.939 0.294 1.168 0.101 42.353 40.690
342.600 -16.753 -0.380 -16.767 -0.372 -16.854 -0.331 -16.997 -0.291 -17.062 -0.286 -17.114 -0.288 -17.175 -0.297 -17.363 -0.362 6.938 0.295 1.166 0.101 42.351 40.691
343.000 -16.750 -0.380 -16.764 -0.372 -16.850 -0.331 -16.993 -0.292 -17.059 -0.287 -17.110 -0.289 -17.171 -0.298 -17.360 -0.362 6.937 0.295 1.165 0.101 42.350 40.691
343.400 -16.746 -0.380 -16.760 -0.372 -16.847 -0.332 -16.990 -0.293 -17.055 -0.289 -17.107 -0.290 -17.168 -0.299 -17.357 -0.362 6.935 0.295 1.164 0.101 42.349 40.691
343.800 -16.743 -0.380 -16.757 -0.372 -16.843 -0.332 -16.986 -0.294 -17.052 -0.290 -17.103 -0.292 -17.164 -0.300 -17.354 -0.362 6.934 0.295 1.162 0.101 42.347 40.691
344.200 -16.739 -0.379 -16.753 -0.372 -16.839 -0.332 -16.983 -0.295 -17.048 -0.291 -17.100 -0.293 -17.161 -0.301 -17.351 -0.362 6.933 0.296 1.161 0.101 42.346 40.691
344.600 -16.735 -0.379 -16.750 -0.371 -16.836 -0.333 -16.979 -0.296 -17.045 -0.292 -17.097 -0.294 -17.158 -0.302 -17.348 -0.362 6.932 0.296 1.160 0.101 42.345 40.691
345.000 -16.732 -0.379 -16.746 -0.371 -16.832 -0.333 -16.975 -0.297 -17.041 -0.293 -17.093 -0.295 -17.154 -0.302 -17.345 -0.362 6.930 0.296 1.158 0.102 42.344 40.691
345.400 -16.728 -0.378 -16.743 -0.371 -16.829 -0.333 -16.972 -0.298 -17.038 -0.294 -17.090 -0.296 -17.151 -0.303 -17.342 -0.362 6.929 0.296 1.157 0.102 42.342 40.691
345.800 -16.725 -0.378 -16.739 -0.371 -16.825 -0.334 -16.968 -0.299 -17.034 -0.295 -17.086 -0.296 -17.148 -0.304 -17.339 -0.362 6.928 0.297 1.156 0.102 42.341 40.691
346.200 -16.721 -0.378 -16.735 -0.370 -16.821 -0.334 -16.965 -0.300 -17.031 -0.296 -17.083 -0.297 -17.144 -0.305 -17.336 -0.362 6.926 0.297 1.154 0.102 42.340 40.691
346.600 -16.718 -0.377 -16.732 -0.370 -16.818 -0.334 -16.961 -0.301 -17.027 -0.296 -17.079 -0.298 -17.141 -0.305 -17.333 -0.362 6.925 0.297 1.153 0.102 42.338 40.692
347.000 -16.714 -0.377 -16.728 -0.370 -16.814 -0.334 -16.958 -0.301 -17.024 -0.297 -17.076 -0.299 -17.138 -0.306 -17.330 -0.361 6.924 0.297 1.152 0.102 42.337 40.692
347.400 -16.711 -0.376 -16.725 -0.369 -16.811 -0.334 -16.954 -0.302 -17.020 -0.298 -17.073 -0.300 -17.134 -0.307 -17.327 -0.361 6.922 0.298 1.151 0.102 42.336 40.692
347.800 -16.707 -0.376 -16.721 -0.369 -16.807 -0.334 -16.951 -0.303 -17.017 -0.299 -17.069 -0.300 -17.131 -0.307 -17.324 -0.361 6.921 0.298 1.149 0.102 42.334 40.692
348.200 -16.704 -0.375 -16.718 -0.369 -16.803 -0.334 -16.947 -0.303 -17.013 -0.299 -17.066 -0.301 -17.128 -0.308 -17.321 -0.361 6.919 0.298 1.148 0.102 42.333 40.692
348.600 -16.700 -0.375 -16.714 -0.368 -16.800 -0.335 -16.943 -0.304 -17.010 -0.300 -17.062 -0.302 -17.125 -0.308 -17.318 -0.360 6.918 0.299 1.147 0.102 42.332 40.692
349.000 -16.697 -0.374 -16.711 -0.368 -16.796 -0.335 -16.940 -0.304 -17.006 -0.301 -17.059 -0.302 -17.121 -0.309 -17.315 -0.360 6.917 0.299 1.145 0.102 42.330 40.692
349.400 -16.693 -0.374 -16.707 -0.367 -16.793 -0.335 -16.936 -0.305 -17.003 -0.301 -17.056 -0.303 -17.118 -0.309 -17.312 -0.360 6.915 0.299 1.144 0.102 42.329 40.692
349.800 -16.690 -0.373 -16.704 -0.367 -16.789 -0.334 -16.933 -0.305 -16.999 -0.302 -17.052 -0.303 -17.115 -0.309 -17.309 -0.359 6.914 0.299 1.143 0.102 42.328 40.692
350.200 -16.686 -0.373 -16.700 -0.366 -16.786 -0.334 -16.929 -0.306 -16.996 -0.302 -17.049 -0.304 -17.111 -0.310 -17.306 -0.359 6.913 0.300 1.142 0.102 42.326 40.692
350.600 -16.683 -0.372 -16.697 -0.366 -16.782 -0.334 -16.926 -0.306 -16.993 -0.303 -17.045 -0.304 -17.108 -0.310 -17.303 -0.358 6.911 0.300 1.140 0.102 42.325 40.692
351.000 -16.679 -0.371 -16.693 -0.365 -16.778 -0.334 -16.922 -0.306 -16.989 -0.303 -17.042 -0.304 -17.105 -0.310 -17.300 -0.358 6.910 0.300 1.139 0.102 42.324 40.692
351.400 -16.676 -0.370 -16.690 -0.364 -16.775 -0.334 -16.919 -0.307 -16.986 -0.303 -17.039 -0.305 -17.102 -0.311 -17.297 -0.357 6.908 0.301 1.138 0.102 42.322 40.692
351.800 -16.672 -0.370 -16.686 -0.364 -16.771 -0.334 -16.915 -0.307 -16.982 -0.304 -17.035 -0.305 -17.098 -0.311 -17.294 -0.357 6.907 0.301 1.137 0.102 42.321 40.692
352.200 -16.669 -0.369 -16.683 -0.363 -16.768 -0.333 -16.912 -0.307 -16.979 -0.304 -17.032 -0.305 -17.095 -0.311 -17.291 -0.356 6.906 0.301 1.135 0.102 42.320 40.692
352.600 -16.665 -0.368 -16.679 -0.362 -16.764 -0.333 -16.908 -0.307 -16.975 -0.304 -17.029 -0.305 -17.092 -0.311 -17.288 -0.356 6.904 0.302 1.134 0.102 42.319 40.692
353.000 -16.662 -0.367 -16.676 -0.362 -16.761 -0.333 -16.905 -0.308 -16.972 -0.304 -17.025 -0.306 -17.089 -0.311 -17.285 -0.355 6.903 0.302 1.133 0.103 42.317 40.692
353.400 -16.658 -0.366 -16.672 -0.361 -16.757 -0.333 -16.901 -0.308 -16.968 -0.305 -17.022 -0.306 -17.085 -0.311 -17.282 -0.354 6.901 0.302 1.132 0.103 42.316 40.692
353.800 -16.655 -0.366 -16.669 -0.360 -16.754 -0.332 -16.898 -0.308 -16.965 -0.305 -17.019 -0.306 -17.082 -0.311 -17.279 -0.354 6.900 0.303 1.130 0.103 42.315 40.692
354.200 -16.652 -0.365 -16.665 -0.359 -16.750 -0.332 -16.894 -0.308 -16.962 -0.305 -17.015 -0.306 -17.079 -0.311 -17.276 -0.353 6.899 0.303 1.129 0.103 42.313 40.692
354.600 -16.648 -0.364 -16.662 -0.358 -16.747 -0.331 -16.891 -0.308 -16.958 -0.305 -17.012 -0.306 -17.076 -0.311 -17.273 -0.352 6.897 0.304 1.128 0.103 42.312 40.692
355.000 -16.645 -0.363 -16.658 -0.357 -16.743 -0.331 -16.887 -0.308 -16.955 -0.305 -17.009 -0.306 -17.072 -0.311 -17.270 -0.351 6.896 0.304 1.127 0.103 42.311 40.692
355.400 -16.641 -0.362 -16.655 -0.356 -16.739 -0.330 -16.884 -0.308 -16.951 -0.305 -17.005 -0.306 -17.069 -0.311 -17.268 -0.351 6.894 0.304 1.125 0.103 42.309 40.692
355.800 -16.638 -0.361 -16.652 -0.355 -16.736 -0.330 -16.880 -0.307 -16.948 -0.305 -17.002 -0.306 -17.066 -0.310 -17.265 -0.350 6.893 0.305 1.124 0.103 42.308 40.693
356.200 -16.634 -0.360 -16.648 -0.354 -16.732 -0.329 -16.877 -0.307 -16.945 -0.305 -16.999 -0.306 -17.063 -0.310 -17.262 -0.349 6.891 0.305 1.123 0.103 42.307 40.693
356.600 -16.631 -0.359 -16.645 -0.353 -16.729 -0.328 -16.873 -0.307 -16.941 -0.304 -16.995 -0.305 -17.060 -0.310 -17.259 -0.348 6.890 0.305 1.122 0.103 42.306 40.693
357.000 -16.628 -0.358 -16.641 -0.352 -16.725 -0.328 -16.870 -0.307 -16.938 -0.304 -16.992 -0.305 -17.056 -0.310 -17.256 -0.347 6.889 0.306 1.121 0.103 42.304 40.693
357.400 -16.624 -0.356 -16.638 -0.351 -16.722 -0.327 -16.866 -0.307 -16.934 -0.304 -16.989 -0.305 -17.053 -0.309 -17.253 -0.346 6.887 0.306 1.119 0.103 42.303 40.693
357.800 -16.621 -0.355 -16.634 -0.350 -16.718 -0.326 -16.863 -0.306 -16.931 -0.304 -16.985 -0.305 -17.050 -0.309 -17.250 -0.345 6.886 0.307 1.118 0.103 42.302 40.693
358.200 -16.617 -0.354 -16.631 -0.349 -16.715 -0.326 -16.859 -0.306 -16.928 -0.303 -16.982 -0.304 -17.047 -0.308 -17.248 -0.344 6.884 0.307 1.117 0.104 42.300 40.693
358.600 -16.614 -0.353 -16.628 -0.348 -16.711 -0.325 -16.856 -0.305 -16.924 -0.303 -16.979 -0.304 -17.044 -0.308 -17.245 -0.343 6.883 0.308 1.116 0.104 42.299 40.693
359.000 -16.611 -0.351 -16.624 -0.347 -16.708 -0.324 -16.852 -0.305 -16.921 -0.303 -16.976 -0.303 -17.041 -0.307 -17.242 -0.342 6.881 0.308 1.115 0.104 42.298 40.693
359.400 -16.607 -0.350 -16.621 -0.345 -16.704 -0.323 -16.849 -0.304 -16.917 -0.302 -16.972 -0.303 -17.037 -0.307 -17.239 -0.341 6.880 0.308 1.113 0.104 42.297 40.693
359.800 -16.604 -0.349 -16.617 -0.344 -16.701 -0.322 -16.846 -0.304 -16.914 -0.302 -16.969 -0.302 -17.034 -0.306 -17.236 -0.340 6.878 0.309 1.112 0.104 42.295 40.693
360.200 -16.600 -0.347 -16.614 -0.343 -16.697 -0.321 -16.842 -0.303 -16.911 -0.301 -16.966 -0.302 -17.031 -0.306 -17.233 -0.338 6.877 0.309 1.111 0.104 42.294 40.693
360.600 -16.597 -0.346 -16.610 -0.342 -16.694 -0.320 -16.839 -0.303 -16.907 -0.300 -16.962 -0.301 -17.028 -0.305 -17.231 -0.337 6.876 0.310 1.110 0.104 42.293 40.693
361.000 -16.594 -0.345 -16.607 -0.340 -16.690 -0.319 -16.835 -0.302 -16.904 -0.300 -16.959 -0.301 -17.025 -0.304 -17.228 -0.336 6.874 0.310 1.109 0.104 42.291 40.693
361.400 -16.590 -0.343 -16.604 -0.339 -16.687 -0.318 -16.832 -0.301 -16.901 -0.299 -16.956 -0.300 -17.022 -0.303 -17.225 -0.335 6.873 0.311 1.108 0.104 42.290 40.693
361.800 -16.587 -0.342 -16.600 -0.337 -16.683 -0.317 -16.828 -0.300 -16.897 -0.298 -16.953 -0.299 -17.018 -0.303 -17.222 -0.333 6.871 0.311 1.106 0.104 42.289 40.693
362.200 -16.584 -0.340 -16.597 -0.336 -16.680 -0.316 -16.825 -0.300 -16.894 -0.298 -16.949 -0.298 -17.015 -0.302 -17.220 -0.332 6.870 0.312 1.105 0.105 42.288 40.693
362.600 -16.580 -0.339 -16.594 -0.334 -16.676 -0.315 -16.821 -0.299 -16.891 -0.297 -16.946 -0.298 -17.012 -0.301 -17.217 -0.331 6.868 0.312 1.104 0.105 42.286 40.693
363.000 -16.577 -0.337 -16.590 -0.333 -16.673 -0.314 -16.818 -0.298 -16.887 -0.296 -16.943 -0.297 -17.009 -0.300 -17.214 -0.329 6.867 0.313 1.103 0.105 42.285 40.694
363.400 -16.574 -0.335 -16.587 -0.331 -16.669 -0.312 -16.815 -0.297 -16.884 -0.295 -16.940 -0.296 -17.006 -0.299 -17.211 -0.328 6.866 0.313 1.102 0.105 42.284 40.694
363.800 -16.570 -0.334 -16.584 -0.330 -16.666 -0.311 -16.811 -0.296 -16.881 -0.294 -16.936 -0.295 -17.003 -0.298 -17.208 -0.326 6.864 0.314 1.101 0.105 42.282 40.694
364.200 -16.567 -0.332 -16.580 -0.328 -16.663 -0.310 -16.808 -0.295 -16.877 -0.293 -16.933 -0.294 -17.000 -0.297 -17.206 -0.325 6.863 0.314 1.099 0.105 42.281 40.694
364.600 -16.564 -0.330 -16.577 -0.326 -16.659 -0.308 -16.804 -0.294 -16.874 -0.292 -16.930 -0.293 -16.997 -0.296 -17.203 -0.323 6.861 0.315 1.098 0.105 42.280 40.694
365.000 -16.560 -0.328 -16.573 -0.325 -16.656 -0.307 -16.801 -0.293 -16.871 -0.291 -16.927 -0.292 -16.994 -0.295 -17.200 -0.322 6.860 0.315 1.097 0.105 42.279 40.694
365.400 -16.557 -0.327 -16.570 -0.323 -16.652 -0.306 -16.797 -0.292 -16.867 -0.290 -16.923 -0.291 -16.991 -0.293 -17.198 -0.320 6.859 0.316 1.096 0.105 42.277 40.694
365.800 -16.554 -0.325 -16.567 -0.321 -16.649 -0.304 -16.794 -0.291 -16.864 -0.289 -16.920 -0.290 -16.987 -0.292 -17.195 -0.318 6.857 0.316 1.095 0.106 42.276 40.694
366.200 -16.550 -0.323 -16.563 -0.319 -16.645 -0.303 -16.790 -0.289 -16.861 -0.288 -16.917 -0.288 -16.984 -0.291 -17.192 -0.317 6.856 0.317 1.094 0.106 42.275 40.694
366.600 -16.547 -0.321 -16.560 -0.317 -16.642 -0.301 -16.787 -0.288 -16.857 -0.287 -16.914 -0.287 -16.981 -0.290 -17.189 -0.315 6.854 0.317 1.092 0.106 42.274 40.694
367.000 -16.544 -0.319 -16.557 -0.316 -16.638 -0.299 -16.784 -0.287 -16.854 -0.285 -16.911 -0.286 -16.978 -0.288 -17.187 -0.313 6.853 0.318 1.091 0.106 42.272 40.694
367.400 -16.541 -0.317 -16.554 -0.314 -16.635 -0.298 -16.780 -0.286 -16.851 -0.284 -16.907 -0.284 -16.975 -0.287 -17.184 -0.311 6.852 0.319 1.090 0.106 42.271 40.695
367.800 -16.537 -0.315 -16.550 -0.312 -16.632 -0.296 -16.777 -0.284 -16.847 -0.283 -16.904 -0.283 -16.972 -0.286 -17.181 -0.309 6.850 0.319 1.089 0.106 42.270 40.695
368.200 -16.534 -0.313 -16.547 -0.310 -16.628 -0.294 -16.773 -0.283 -16.844 -0.281 -16.901 -0.282 -16.969 -0.284 -17.179 -0.308 6.849 0.320 1.088 0.106 42.268 40.695
368.600 -16.531 -0.311 -16.544 -0.308 -16.625 -0.293 -16.770 -0.281 -16.841 -0.280 -16.898 -0.280 -16.966 -0.283 -17.176 -0.306 6.848 0.320 1.087 0.107 42.267 40.695
369.000 -16.527 -0.309 -16.540 -0.306 -16.621 -0.291 -16.767 -0.280 -16.837 -0.278 -16.895 -0.279 -16.963 -0.281 -17.173 -0.304 6.846 0.321 1.086 0.107 42.266 40.695
369.400 -16.524 -0.307 -16.537 -0.303 -16.618 -0.289 -16.763 -0.278 -16.834 -0.277 -16.891 -0.277 -16.960 -0.279 -17.171 -0.302 6.845 0.321 1.084 0.107 42.265 40.695
369.800 -16.521 -0.305 -16.534 -0.301 -16.614 -0.287 -16.760 -0.277 -16.831 -0.275 -16.888 -0.276 -16.957 -0.278 -17.168 -0.300 6.844 0.322 1.083 0.107 42.263 40.695
370.200 -16.518 -0.302 -16.531 -0.299 -16.611 -0.285 -16.756 -0.275 -16.827 -0.274 -16.885 -0.274 -16.954 -0.276 -17.165 -0.298 6.842 0.323 1.082 0.107 42.262 40.695
370.600 -16.515 -0.300 -16.527 -0.297 -16.608 -0.284 -16.753 -0.273 -16.824 -0.272 -16.882 -0.272 -16.951 -0.274 -17.163 -0.296 6.841 0.323 1.081 0.107 42.261 40.696
371.000 -16.511 -0.298 -16.524 -0.295 -16.604 -0.282 -16.750 -0.272 -16.821 -0.270 -16.879 -0.271 -16.948 -0.273 -17.160 -0.293 6.840 0.324 1.080 0.107 42.260 40.696
371.400 -16.508 -0.296 -16.521 -0.293 -16.601 -0.280 -16.746 -0.270 -16.818 -0.269 -16.876 -0.269 -16.945 -0.271 -17.158 -0.291 6.839 0.325 1.079 0.107 42.258 40.696
371.800 -16.505 -0.293 -16.518 -0.290 -16.598 -0.278 -16.743 -0.268 -16.814 -0.267 -16.872 -0.267 -16.942 -0.269 -17.155 -0.289 6.837 0.325 1.078 0.108 42.257 40.696
372.200 -16.502 -0.291 -16.514 -0.288 -16.594 -0.275 -16.739 -0.266 -16.811 -0.265 -16.869 -0.265 -16.939 -0.267 -17.152 -0.287 6.836 0.326 1.076 0.108 42.256 40.696
372.600 -16.499 -0.288 -16.511 -0.285 -16.591 -0.273 -16.736 -0.264 -16.808 -0.263 -16.866 -0.263 -16.936 -0.265 -17.150 -0.285 6.835 0.327 1.075 0.108 42.255 40.696
373.000 -16.495 -0.286 -16.508 -0.283 -16.587 -0.271 -16.733 -0.262 -16.804 -0.261 -16.863 -0.262 -16.933 -0.263 -17.147 -0.282 6.834 0.327 1.074 0.108 42.254 40.696
373.400 -16.492 -0.283 -16.505 -0.281 -16.584 -0.269 -16.729 -0.260 -16.801 -0.259 -16.860 -0.260 -16.930 -0.261 -17.144 -0.280 6.832 0.328 1.073 0.108 42.252 40.697
373.800 -16.489 -0.281 -16.502 -0.278 -16.581 -0.267 -16.726 -0.258 -16.798 -0.257 -16.857 -0.258 -16.927 -0.259 -17.142 -0.278 6.831 0.329 1.072 0.108 42.251 40.697
374.200 -16.486 -0.278 -16.498 -0.276 -16.577 -0.265 -16.722 -0.256 -16.795 -0.255 -16.854 -0.256 -16.924 -0.257 -17.139 -0.275 6.830 0.329 1.071 0.109 42.250 40.697
374.600 -16.483 -0.276 -16.495 -0.273 -16.574 -0.262 -16.719 -0.254 -16.791 -0.253 -16.850 -0.253 -16.921 -0.255 -17.137 -0.273 6.829 0.330 1.069 0.109 42.249 40.697
375.000 -16.480 -0.273 -16.492 -0.271 -16.571 -0.260 -16.716 -0.252 -16.788 -0.251 -16.847 -0.251 -16.918 -0.253 -17.134 -0.270 6.828 0.331 1.068 0.109 42.247 40.697
375.400 -16.476 -0.270 -16.489 -0.268 -16.567 -0.258 -16.712 -0.250 -16.785 -0.249 -16.844 -0.249 -16.915 -0.251 -17.132 -0.268 6.827 0.331 1.067 0.109 42.246 40.697
375.800 -16.473 -0.268 -16.486 -0.265 -16.564 -0.255 -16.709 -0.248 -16.782 -0.247 -16.841 -0.247 -16.912 -0.249 -17.129 -0.265 6.826 0.332 1.066 0.109 42.245 40.698
376.200 -16.470 -0.265 -16.483 -0.263 -16.561 -0.253 -16.706 -0.245 -16.778 -0.244 -16.838 -0.245 -16.909 -0.246 -17.126 -0.263 6.825 0.333 1.065 0.109 42.244 40.698
376.600 -16.467 -0.262 -16.479 -0.260 -16.557 -0.250 -16.702 -0.243 -16.775 -0.242 -16.835 -0.242 -16.906 -0.244 -17.124 -0.260 6.824 0.334 1.064 0.109 42.242 40.698
377.000 -16.464 -0.259 -16.476 -0.257 -16.554 -0.248 -16.699 -0.241 -16.772 -0.240 -16.832 -0.240 -16.903 -0.242 -17.121 -0.257 6.823 0.334 1.062 0.110 42.241 40.698
377.400 -16.461 -0.257 -16.473 -0.254 -16.551 -0.245 -16.696 -0.238 -16.769 -0.237 -16.829 -0.238 -16.900 -0.239 -17.119 -0.255 6.822 0.335 1.061 0.110 42.240 40.698
377.800 -16.458 -0.254 -16.470 -0.251 -16.547 -0.243 -16.692 -0.236 -16.765 -0.235 -16.826 -0.235 -16.898 -0.237 -17.116 -0.252 6.821 0.336 1.060 0.110 42.239 40.698
378.200 -16.455 -0.251 -16.467 -0.249 -16.544 -0.240 -16.689 -0.234 -16.762 -0.233 -16.822 -0.233 -16.895 -0.234 -17.114 -0.249 6.820 0.336 1.059 0.110 42.238 40.698
378.600 -16.452 -0.248 -16.464 -0.246 -16.541 -0.237 -16.686 -0.231 -16.759 -0.230 -16.819 -0.230 -16.892 -0.232 -17.111 -0.246 6.819 0.337 1.058 0.110 42.236 40.699
379.000 -16.449 -0.245 -16.461 -0.243 -16.538 -0.235 -16.682 -0.229 -16.756 -0.228 -16.816 -0.228 -16.889 -0.229 -17.109 -0.244 6.818 0.338 1.056 0.110 42.235 40.699
379.400 -16.446 -0.242 -16.458 -0.240 -16.534 -0.232 -16.679 -0.226 -16.753 -0.225 -16.813 -0.225 -16.886 -0.227 -17.106 -0.241 6.817 0.339 1.055 0.111 42.234 40.699
379.800 -16.443 -0.239 -16.455 -0.237 -16.531 -0.229 -16.676 -0.223 -16.749 -0.222 -16.810 -0.223 -16.883 -0.224 -17.104 -0.238 6.817 0.340 1.054 0.111 42.233 40.699
380.200 -16.440 -0.236 -16.452 -0.234 -16.528 -0.226 -16.672 -0.221 -16.746 -0.220 -16.807 -0.220 -16.880 -0.221 -17.101 -0.235 6.816 0.340 1.053 0.111 42.231 40.699
380.600 -16.437 -0.233 -16.449 -0.231 -16.525 -0.223 -16.669 -0.218 -16.743 -0.217 -16.804 -0.217 -16.877 -0.219 -17.099 -0.232 6.815 0.341 1.051 0.111 42.230 40.699
381.000 -16.434 -0.230 -16.445 -0.227 -16.521 -0.220 -16.666 -0.215 -16.740 -0.214 -16.801 -0.214 -16.875 -0.216 -17.096 -0.229 6.814 0.342 1.050 0.111 42.229 40.699
381.400 -16.431 -0.226 -16.442 -0.224 -16.518 -0.218 -16.662 -0.212 -16.737 -0.211 -16.798 -0.212 -16.872 -0.213 -17.094 -0.226 6.814 0.343 1.049 0.111 42.228 40.699
381.800 -16.428 -0.223 -16.439 -0.221 -16.515 -0.215 -16.659 -0.210 -16.733 -0.209 -16.795 -0.209 -16.869 -0.210 -17.091 -0.223 6.813 0.344 1.048 0.112 42.227 40.700
382.200 -16.425 -0.220 -16.436 -0.218 -16.512 -0.212 -16.656 -0.207 -16.730 -0.206 -16.792 -0.206 -16.866 -0.207 -17.089 -0.220 6.813 0.344 1.046 0.112 42.225 40.700
382.600 -16.422 -0.217 -16.433 -0.215 -16.508 -0.209 -16.652 -0.204 -16.727 -0.203 -16.789 -0.203 -16.863 -0.204 -17.086 -0.217 6.812 0.345 1.045 0.112 42.224 40.700
383.000 -16.419 -0.213 -16.430 -0.211 -16.505 -0.206 -16.649 -0.201 -16.724 -0.200 -16.786 -0.200 -16.860 -0.201 -17.084 -0.213 6.812 0.346 1.044 0.112 42.223 40.700
383.400 -16.416 -0.210 -16.427 -0.208 -16.502 -0.202 -16.646 -0.198 -16.721 -0.197 -16.783 -0.197 -16.858 -0.198 -17.081 -0.210 6.811 0.347 1.042 0.112 42.222 40.700
383.800 -16.413 -0.206 -16.424 -0.205 -16.499 -0.199 -16.643 -0.195 -16.717 -0.194 -16.780 -0.194 -16.855 -0.195 -17.079 -0.207 6.811 0.348 1.041 0.112 42.221 40.700
384.200 -16.410 -0.203 -16.422 -0.201 -16.496 -0.196 -16.639 -0.192 -16.714 -0.191 -16.777 -0.191 -16.852 -0.192 -17.076 -0.204 6.811 0.349 1.040 0.112 42.219 40.700
384.600 -16.407 -0.200 -16.419 -0.198 -16.493 -0.193 -16.636 -0.189 -16.711 -0.187 -16.774 -0.188 -16.849 -0.189 -17.074 -0.200 6.811 0.349 1.038 0.113 42.218 40.700
385.000 -16.404 -0.196 -16.416 -0.194 -16.489 -0.190 -16.633 -0.185 -16.708 -0.184 -16.771 -0.185 -16.846 -0.186 -17.071 -0.197 6.810 0.350 1.037 0.113 42.217 40.700
385.400 -16.401 -0.193 -16.413 -0.191 -16.486 -0.186 -16.629 -0.182 -16.705 -0.181 -16.768 -0.181 -16.844 -0.183 -17.069 -0.194 6.810 0.351 1.035 0.113 42.216 40.700
385.800 -16.398 -0.189 -16.410 -0.187 -16.483 -0.183 -16.626 -0.179 -16.702 -0.178 -16.765 -0.178 -16.841 -0.180 -17.066 -0.190 6.810 0.352 1.034 0.113 42.215 40.700
386.200 -16.396 -0.185 -16.407 -0.184 -16.480 -0.180 -16.623 -0.176 -16.699 -0.175 -16.762 -0.175 -16.838 -0.176 -17.064 -0.187 6.811 0.353 1.033 0.113 42.213 40.700
386.600 -16.393 -0.182 -16.404 -0.180 -16.477 -0.177 -16.620 -0.172 -16.695 -0.171 -16.759 -0.172 -16.835 -0.173 -17.061 -0.184 6.811 0.354 1.031 0.113 42.212 40.700
387.000 -16.390 -0.178 -16.401 -0.177 -16.474 -0.173 -16.616 -0.169 -16.692 -0.168 -16.756 -0.168 -16.833 -0.170 -17.059 -0.180 6.811 0.354 1.030 0.113 42.211 40.699
387.400 -16.387 -0.175 -16.398 -0.173 -16.471 -0.170 -16.613 -0.166 -16.689 -0.164 -16.753 -0.165 -16.830 -0.167 -17.056 -0.177 6.811 0.355 1.028 0.113 42.210 40.699
387.800 -16.384 -0.171 -16.395 -0.169 -16.468 -0.166 -16.610 -0.162 -16.686 -0.161 -16.750 -0.161 -16.827 -0.163 -17.054 -0.173 6.812 0.356 1.027 0.114 42.209 40.699
388.200 -16.381 -0.167 -16.393 -0.166 -16.465 -0.163 -16.607 -0.159 -16.683 -0.158 -16.747 -0.158 -16.825 -0.160 -17.051 -0.170 6.813 0.357 1.025 0.114 42.207 40.699
388.600 -16.379 -0.163 -16.390 -0.162 -16.462 -0.159 -16.604 -0.155 -16.680 -0.154 -16.744 -0.154 -16.822 -0.156 -17.049 -0.166 6.813 0.358 1.023 0.114 42.206 40.699
389.000 -16.376 -0.160 -16.387 -0.158 -16.459 -0.156 -16.600 -0.152 -16.677 -0.150 -16.741 -0.151 -16.819 -0.153 -17.047 -0.163 6.814 0.359 1.022 0.114 42.205 40.698
389.400 -16.373 -0.156 -16.384 -0.154 -16.456 -0.152 -16.597 -0.148 -16.674 -0.147 -16.738 -0.147 -16.817 -0.149 -17.044 -0.159 6.815 0.360 1.020 0.114 42.204 40.698
389.800 -16.370 -0.152 -16.381 -0.150 -16.453 -0.149 -16.594 -0.145 -16.671 -0.143 -16.735 -0.144 -16.814 -0.146 -17.042 -0.155 6.816 0.361 1.018 0.114 42.203 40.698
390.200 -16.368 -0.148 -16.379 -0.147 -16.450 -0.145 -16.591 -0.141 -16.667 -0.140 -16.733 -0.140 -16.811 -0.142 -17.039 -0.152 6.818 0.361 1.016 0.114 42.202 40.697
390.600 -16.365 -0.144 -16.376 -0.143 -16.447 -0.142 -16.588 -0.137 -16.664 -0.136 -16.730 -0.136 -16.809 -0.139 -17.037 -0.148 6.819 0.362 1.015 0.114 42.200 40.697
391.000 -16.362 -0.140 -16.373 -0.139 -16.444 -0.138 -16.585 -0.134 -16.661 -0.132 -16.727 -0.133 -16.806 -0.135 -17.034 -0.144 6.821 0.363 1.013 0.114 42.199 40.696
391.400 -16.360 -0.136 -16.370 -0.135 -16.441 -0.134 -16.582 -0.130 -16.658 -0.128 -16.724 -0.129 -16.803 -0.132 -17.032 -0.141 6.823 0.364 1.011 0.114 42.198 40.695
391.800 -16.357 -0.132 -16.368 -0.131 -16.438 -0.131 -16.578 -0.126 -16.655 -0.124 -16.721 -0.125 -16.801 -0.128 -17.029 -0.137 6.825 0.365 1.009 0.114 42.197 40.695
392.200 -16.354 -0.128 -16.365 -0.127 -16.435 -0.127 -16.575 -0.123 -16.652 -0.121 -16.718 -0.122 -16.798 -0.124 -17.027 -0.133 6.827 0.366 1.007 0.114 42.196 40.694
392.600 -16.352 -0.124 -16.362 -0.123 -16.432 -0.123 -16.572 -0.119 -16.649 -0.117 -16.715 -0.118 -16.795 -0.121 -17.024 -0.130 6.830 0.367 1.004 0.114 42.194 40.693
393.000 -16.349 -0.120 -16.360 -0.119 -16.429 -0.120 -16.569 -0.115 -16.646 -0.113 -16.712 -0.114 -16.793 -0.117 -17.022 -0.126 6.833 0.367 1.002 0.114 42.193 40.692
393.400 -16.346 -0.116 -16.357 -0.115 -16.426 -0.116 -16.566 -0.111 -16.643 -0.109 -16.710 -0.110 -16.790 -0.113 -17.019 -0.122 6.837 0.368 1.000 0.114 42.192 40.691
393.800 -16.344 -0.112 -16.354 -0.111 -16.423 -0.112 -16.563 -0.108 -16.640 -0.105 -16.707 -0.106 -16.788 -0.110 -17.017 -0.119 6.840 0.369 0.997 0.114 42.191 40.690
394.200 -16.341 -0.108 -16.352 -0.107 -16.420 -0.109 -16.560 -0.104 -16.637 -0.101 -16.704 -0.102 -16.785 -0.106 -17.014 -0.115 6.845 0.370 0.994 0.113 42.189 40.688
394.600 -16.338 -0.104 -16.349 -0.103 -16.418 -0.105 -16.557 -0.100 -16.634 -0.097 -16.701 -0.098 -16.782 -0.102 -17.012 -0.111 6.850 0.371 0.992 0.113 42.188 40.687
395.000 -16.336 -0.100 -16.346 -0.099 -16.415 -0.102 -16.554 -0.096 -16.631 -0.093 -16.698 -0.094 -16.780 -0.099 -17.009 -0.108 6.855 0.371 0.989 0.113 42.187 40.685
395.400 -16.333 -0.096 -16.344 -0.095 -16.412 -0.098 -16.551 -0.092 -16.628 -0.089 -16.696 -0.091 -16.777 -0.095 -17.007 -0.104 6.861 0.372 0.986 0.113 42.186 40.683
395.800 -16.331 -0.092 -16.341 -0.091 -16.409 -0.094 -16.548 -0.088 -16.625 -0.085 -16.693 -0.087 -16.775 -0.091 -17.004 -0.100 6.868 0.373 0.982 0.112 42.184 40.680
396.200 -16.328 -0.088 -16.339 -0.087 -16.407 -0.091 -16.545 -0.085 -16.622 -0.081 -16.690 -0.083 -16.772 -0.088 -17.002 -0.097 6.875 0.374 0.979 0.112 42.183 40.678
396.600 -16.326 -0.084 -16.336 -0.083 -16.404 -0.087 -16.542 -0.081 -16.619 -0.077 -16.687 -0.079 -16.770 -0.084 -16.999 -0.093 6.884 0.374 0.975 0.111 42.182 40.675
397.000 -16.323 -0.080 -16.334 -0.079 -16.401 -0.084 -16.540 -0.077 -16.616 -0.073 -16.685 -0.075 -16.767 -0.081 -16.996 -0.090 6.893 0.375 0.970 0.111 42.180 40.672
397.400 -16.321 -0.076 -16.331 -0.075 -16.398 -0.081 -16.537 -0.073 -16.614 -0.069 -16.682 -0.071 -16.765 -0.077 -16.994 -0.087 6.904 0.375 0.966 0.110 42.179 40.668
397.800 -16.318 -0.072 -16.329 -0.071 -16.396 -0.077 -16.534 -0.070 -16.611 -0.065 -16.679 -0.067 -16.762 -0.074 -16.991 -0.084 6.916 0.376 0.961 0.109 42.178 40.664
398.200 -16.316 -0.069 -16.326 -0.068 -16.393 -0.074 -16.531 -0.066 -16.608 -0.061 -16.676 -0.064 -16.760 -0.071 -16.989 -0.081 6.929 0.376 0.956 0.108 42.176 40.659
398.600 -16.313 -0.065 -16.324 -0.064 -16.391 -0.071 -16.528 -0.063 -16.605 -0.057 -16.674 -0.060 -16.757 -0.067 -16.986 -0.078 6.944 0.376 0.950 0.108 42.175 40.654
399.000 -16.311 -0.062 -16.321 -0.060 -16.388 -0.068 -16.526 -0.059 -16.602 -0.053 -16.671 -0.057 -16.755 -0.064 -16.984 -0.075 6.960 0.376 0.944 0.106 42.173 40.648
399.400 -16.309 -0.058 -16.319 -0.057 -16.385 -0.066 -16.523 -0.056 -16.599 -0.050 -16.668 -0.053 -16.752 -0.062 -16.981 -0.072 6.977 0.376 0.938 0.105 42.172 40.641
399.800 -16.306 -0.055 -16.316 -0.054 -16.383 -0.063 -16.520 -0.053 -16.597 -0.046 -16.666 -0.050 -16.750 -0.059 -16.978 -0.070 6.996 0.376 0.931 0.104 42.170 40.634
400.200 -16.304 -0.053 -16.314 -0.051 -16.380 -0.061 -16.517 -0.051 -16.594 -0.043 -16.663 -0.047 -16.747 -0.057 -16.976 -0.068 7.015 0.376 0.925 0.102 42.169 40.626
400.600 -16.301 -0.050 -16.311 -0.049 -16.378 -0.059 -16.515 -0.048 -16.591 -0.040 -16.661 -0.045 -16.745 -0.055 -16.973 -0.066 7.034 0.375 0.918 0.101 42.167 40.617
401.000 -16.299 -0.048 -16.309 -0.047 -16.375 -0.057 -16.512 -0.046 -16.588 -0.037 -16.658 -0.042 -16.742 -0.053 -16.971 -0.065 7.053 0.375 0.911 0.100 42.166 40.609
401.400 -16.297 -0.046 -16.307 -0.045 -16.373 -0.056 -16.510 -0.045 -16.586 -0.035 -16.655 -0.041 -16.740 -0.051 -16.968 -0.064 7.069 0.374 0.906 0.098 42.164 40.602
401.800 -16.294 -0.045 -16.304 -0.044 -16.370 -0.055 -16.507 -0.043 -16.583 -0.034 -16.653 -0.039 -16.737 -0.050 -16.965 -0.063 7.082 0.374 0.901 0.097 42.163 40.595
402.200 -16.292 -0.045 -16.302 -0.043 -16.368 -0.055 -16.505 -0.043 -16.581 -0.033 -16.650 -0.038 -16.734 -0.050 -16.963 -0.063 7.090 0.373 0.898 0.097 42.162 40.591
402.600 -16.290 -0.045 -16.299 -0.043 -16.366 -0.055 -16.502 -0.043 -16.578 -0.033 -16.648 -0.038 -16.732 -0.050 -16.960 -0.063 7.093 0.374 0.896 0.096 42.161 40.588
403.000 -16.287 -0.045 -16.297 -0.044 -16.363 -0.055 -16.500 -0.043 -16.576 -0.033 -16.645 -0.039 -16.729 -0.050 -16.957 -0.063 7.089 0.374 0.896 0.097 42.160 40.588
403.400 -16.285 -0.047 -16.295 -0.045 -16.361 -0.056 -16.497 -0.044 -16.573 -0.034 -16.643 -0.040 -16.727 -0.051 -16.955 -0.064 7.082 0.375 0.897 0.097 42.159 40.591
403.800 -16.283 -0.048 -16.293 -0.046 -16.358 -0.057 -16.495 -0.045 -16.571 -0.036 -16.640 -0.042 -16.724 -0.052 -16.952 -0.065 7.070 0.376 0.899 0.098 42.158 40.595
