"Time (MJD)" cyan-5182.42 cyan-5182.42_err g-4746.48 g-4746.48_err orange-6629.82 orange-6629.82_err r-6366.38 r-6366.38_err "Temp./1e3 (K)" "Temp. Err." "Radius/1e15 (cm)" "Radius Err." "Log10(Bol. Lum)" "Log10(Bol. Err)"
-16.000 -18.735 -0.156 -18.714 -0.149 -18.661 -0.157 -18.650 -0.163 11.795 0.268 1.048 0.033 43.180 41.637
-15.600 -18.794 -0.150 -18.774 -0.143 -18.720 -0.150 -18.709 -0.157 11.807 0.267 1.075 0.034 43.204 41.660
-15.200 -18.855 -0.146 -18.835 -0.138 -18.780 -0.145 -18.769 -0.152 11.813 0.265 1.104 0.035 43.229 41.683
-14.800 -18.917 -0.144 -18.897 -0.136 -18.842 -0.143 -18.831 -0.149 11.816 0.264 1.136 0.035 43.254 41.705
-14.400 -18.980 -0.144 -18.960 -0.136 -18.906 -0.142 -18.894 -0.148 11.817 0.261 1.170 0.036 43.279 41.727
-14.000 -19.045 -0.144 -19.024 -0.137 -18.970 -0.142 -18.958 -0.148 11.817 0.258 1.205 0.037 43.305 41.748
-13.600 -19.110 -0.146 -19.089 -0.139 -19.035 -0.143 -19.023 -0.148 11.815 0.255 1.242 0.037 43.331 41.770
-13.200 -19.175 -0.148 -19.155 -0.141 -19.101 -0.144 -19.089 -0.149 11.814 0.252 1.280 0.038 43.357 41.791
-12.800 -19.241 -0.150 -19.222 -0.143 -19.167 -0.146 -19.155 -0.151 11.812 0.249 1.320 0.039 43.383 41.813
-12.400 -19.308 -0.152 -19.288 -0.145 -19.234 -0.147 -19.222 -0.152 11.810 0.246 1.361 0.039 43.410 41.834
-12.000 -19.374 -0.154 -19.355 -0.147 -19.301 -0.148 -19.288 -0.152 11.809 0.243 1.404 0.040 43.436 41.856
-11.600 -19.441 -0.155 -19.422 -0.148 -19.367 -0.149 -19.355 -0.153 11.807 0.240 1.448 0.041 43.463 41.877
-11.200 -19.507 -0.156 -19.488 -0.149 -19.434 -0.148 -19.421 -0.152 11.806 0.237 1.493 0.041 43.489 41.899
-10.800 -19.573 -0.156 -19.554 -0.148 -19.500 -0.148 -19.487 -0.151 11.805 0.234 1.539 0.042 43.516 41.920
-10.400 -19.638 -0.155 -19.619 -0.147 -19.565 -0.146 -19.552 -0.149 11.804 0.231 1.586 0.043 43.542 41.941
-10.000 -19.702 -0.153 -19.684 -0.146 -19.629 -0.144 -19.616 -0.147 11.803 0.228 1.634 0.044 43.567 41.961
-9.600 -19.765 -0.151 -19.747 -0.143 -19.692 -0.140 -19.679 -0.143 11.803 0.225 1.682 0.044 43.593 41.981
-9.200 -19.826 -0.147 -19.809 -0.140 -19.754 -0.136 -19.740 -0.139 11.802 0.222 1.731 0.045 43.617 42.001
-8.800 -19.886 -0.144 -19.869 -0.135 -19.814 -0.131 -19.801 -0.134 11.802 0.219 1.780 0.046 43.641 42.020
-8.400 -19.945 -0.139 -19.928 -0.130 -19.873 -0.126 -19.859 -0.129 11.802 0.216 1.828 0.046 43.665 42.039
-8.000 -20.002 -0.134 -19.985 -0.125 -19.930 -0.119 -19.915 -0.123 11.801 0.214 1.877 0.047 43.687 42.057
-7.600 -20.056 -0.129 -20.039 -0.119 -19.984 -0.113 -19.970 -0.116 11.801 0.211 1.925 0.047 43.709 42.075
-7.200 -20.108 -0.123 -20.092 -0.112 -20.036 -0.105 -20.022 -0.109 11.801 0.209 1.971 0.048 43.730 42.093
-6.800 -20.158 -0.117 -20.142 -0.106 -20.086 -0.098 -20.072 -0.101 11.800 0.207 2.017 0.048 43.750 42.110
-6.400 -20.205 -0.111 -20.189 -0.099 -20.133 -0.091 -20.119 -0.094 11.800 0.205 2.061 0.049 43.769 42.127
-6.000 -20.249 -0.105 -20.233 -0.093 -20.177 -0.083 -20.163 -0.087 11.800 0.204 2.104 0.050 43.786 42.144
-5.600 -20.291 -0.100 -20.275 -0.087 -20.218 -0.077 -20.204 -0.081 11.800 0.204 2.144 0.050 43.803 42.161
-5.200 -20.329 -0.095 -20.313 -0.082 -20.256 -0.071 -20.242 -0.076 11.800 0.203 2.182 0.051 43.818 42.177
-4.800 -20.364 -0.091 -20.348 -0.078 -20.291 -0.067 -20.277 -0.072 11.798 0.203 2.218 0.052 43.832 42.192
-4.400 -20.396 -0.088 -20.380 -0.075 -20.324 -0.064 -20.310 -0.069 11.789 0.204 2.254 0.053 43.845 42.205
-4.000 -20.426 -0.085 -20.410 -0.072 -20.355 -0.063 -20.341 -0.068 11.773 0.204 2.290 0.054 43.856 42.216
-3.600 -20.453 -0.083 -20.437 -0.071 -20.383 -0.063 -20.369 -0.068 11.750 0.205 2.325 0.056 43.866 42.226
-3.200 -20.477 -0.082 -20.462 -0.070 -20.409 -0.064 -20.395 -0.069 11.725 0.206 2.360 0.057 43.875 42.234
-2.800 -20.499 -0.081 -20.485 -0.069 -20.433 -0.065 -20.419 -0.070 11.698 0.207 2.392 0.059 43.883 42.241
-2.400 -20.518 -0.080 -20.504 -0.069 -20.454 -0.066 -20.440 -0.072 11.670 0.209 2.423 0.060 43.890 42.247
-2.000 -20.535 -0.079 -20.521 -0.069 -20.472 -0.068 -20.459 -0.074 11.640 0.210 2.451 0.062 43.896 42.252
-1.600 -20.549 -0.079 -20.536 -0.069 -20.488 -0.069 -20.475 -0.075 11.609 0.211 2.478 0.063 43.900 42.257
-1.200 -20.560 -0.078 -20.548 -0.069 -20.502 -0.071 -20.489 -0.077 11.577 0.212 2.502 0.065 43.904 42.260
-0.800 -20.569 -0.078 -20.557 -0.068 -20.512 -0.072 -20.500 -0.078 11.545 0.214 2.523 0.066 43.906 42.262
-0.400 -20.574 -0.077 -20.564 -0.068 -20.520 -0.073 -20.509 -0.079 11.513 0.216 2.541 0.068 43.908 42.264
0.000 -20.578 -0.076 -20.567 -0.067 -20.526 -0.073 -20.514 -0.080 11.480 0.218 2.557 0.069 43.908 42.265
0.400 -20.578 -0.075 -20.568 -0.066 -20.528 -0.074 -20.517 -0.081 11.446 0.220 2.570 0.071 43.907 42.266
0.800 -20.576 -0.073 -20.567 -0.064 -20.529 -0.074 -20.518 -0.082 11.411 0.223 2.580 0.073 43.905 42.266
1.200 -20.571 -0.072 -20.563 -0.063 -20.526 -0.074 -20.516 -0.082 11.373 0.226 2.588 0.074 43.902 42.265
1.600 -20.564 -0.071 -20.556 -0.062 -20.521 -0.074 -20.512 -0.082 11.330 0.230 2.595 0.076 43.898 42.265
2.000 -20.553 -0.071 -20.546 -0.062 -20.514 -0.075 -20.505 -0.083 11.283 0.234 2.600 0.079 43.892 42.264
2.400 -20.541 -0.070 -20.534 -0.062 -20.505 -0.075 -20.496 -0.083 11.232 0.238 2.604 0.081 43.886 42.262
2.800 -20.526 -0.070 -20.520 -0.062 -20.494 -0.075 -20.486 -0.084 11.177 0.242 2.607 0.083 43.879 42.259
3.200 -20.510 -0.070 -20.505 -0.062 -20.481 -0.076 -20.474 -0.084 11.120 0.245 2.610 0.085 43.870 42.254
3.600 -20.492 -0.070 -20.488 -0.062 -20.467 -0.076 -20.461 -0.085 11.061 0.249 2.611 0.087 43.862 42.249
4.000 -20.473 -0.071 -20.469 -0.062 -20.451 -0.077 -20.446 -0.085 11.001 0.252 2.611 0.089 43.852 42.242
4.400 -20.452 -0.072 -20.449 -0.063 -20.434 -0.077 -20.430 -0.086 10.940 0.254 2.610 0.091 43.842 42.233
4.800 -20.430 -0.073 -20.428 -0.064 -20.417 -0.078 -20.413 -0.086 10.878 0.255 2.609 0.092 43.832 42.224
5.200 -20.408 -0.075 -20.407 -0.065 -20.398 -0.078 -20.395 -0.086 10.815 0.256 2.607 0.093 43.821 42.215
5.600 -20.384 -0.077 -20.384 -0.067 -20.379 -0.078 -20.376 -0.087 10.753 0.256 2.604 0.094 43.810 42.204
6.000 -20.361 -0.079 -20.361 -0.069 -20.359 -0.079 -20.357 -0.087 10.692 0.256 2.600 0.095 43.799 42.194
6.400 -20.337 -0.082 -20.338 -0.072 -20.339 -0.080 -20.338 -0.088 10.633 0.256 2.596 0.095 43.788 42.183
6.800 -20.313 -0.085 -20.315 -0.075 -20.318 -0.081 -20.318 -0.089 10.577 0.256 2.591 0.096 43.777 42.172
7.200 -20.289 -0.089 -20.292 -0.078 -20.298 -0.083 -20.299 -0.090 10.525 0.255 2.584 0.096 43.766 42.161
7.600 -20.265 -0.093 -20.269 -0.083 -20.278 -0.086 -20.279 -0.093 10.480 0.254 2.575 0.095 43.756 42.148
8.000 -20.242 -0.099 -20.247 -0.089 -20.257 -0.090 -20.259 -0.097 10.439 0.252 2.565 0.095 43.746 42.136
8.400 -20.219 -0.105 -20.224 -0.095 -20.237 -0.095 -20.240 -0.101 10.403 0.250 2.554 0.094 43.736 42.123
8.800 -20.196 -0.111 -20.202 -0.101 -20.217 -0.101 -20.220 -0.106 10.370 0.249 2.542 0.094 43.726 42.111
9.200 -20.174 -0.117 -20.181 -0.108 -20.197 -0.107 -20.200 -0.112 10.340 0.248 2.529 0.093 43.717 42.098
9.600 -20.152 -0.124 -20.159 -0.115 -20.177 -0.114 -20.181 -0.118 10.311 0.247 2.516 0.093 43.707 42.086
10.000 -20.130 -0.130 -20.137 -0.121 -20.157 -0.120 -20.161 -0.124 10.282 0.247 2.503 0.093 43.698 42.075
10.400 -20.107 -0.136 -20.116 -0.128 -20.138 -0.126 -20.142 -0.130 10.254 0.247 2.489 0.093 43.689 42.063
10.800 -20.086 -0.141 -20.095 -0.134 -20.118 -0.132 -20.122 -0.136 10.226 0.247 2.476 0.093 43.679 42.052
11.200 -20.064 -0.146 -20.074 -0.139 -20.098 -0.138 -20.103 -0.141 10.199 0.246 2.464 0.093 43.670 42.040
11.600 -20.042 -0.150 -20.053 -0.144 -20.079 -0.142 -20.084 -0.146 10.172 0.246 2.451 0.093 43.661 42.029
12.000 -20.021 -0.154 -20.032 -0.147 -20.060 -0.147 -20.065 -0.150 10.144 0.246 2.439 0.093 43.652 42.018
12.400 -19.999 -0.157 -20.011 -0.151 -20.041 -0.150 -20.047 -0.153 10.117 0.246 2.426 0.093 43.643 42.007
12.800 -19.978 -0.159 -19.990 -0.153 -20.022 -0.153 -20.028 -0.156 10.090 0.246 2.414 0.093 43.634 41.996
13.200 -19.957 -0.160 -19.970 -0.154 -20.003 -0.154 -20.010 -0.158 10.063 0.247 2.403 0.093 43.625 41.986
13.600 -19.936 -0.161 -19.950 -0.155 -19.984 -0.155 -19.991 -0.159 10.036 0.247 2.391 0.093 43.616 41.975
14.000 -19.915 -0.160 -19.929 -0.155 -19.966 -0.155 -19.973 -0.159 10.008 0.247 2.380 0.093 43.608 41.964
14.400 -19.895 -0.159 -19.909 -0.154 -19.947 -0.155 -19.955 -0.158 9.981 0.247 2.370 0.093 43.599 41.954
14.800 -19.874 -0.157 -19.890 -0.152 -19.929 -0.153 -19.938 -0.157 9.954 0.247 2.359 0.094 43.590 41.944
15.200 -19.854 -0.154 -19.870 -0.149 -19.911 -0.151 -19.920 -0.154 9.927 0.248 2.349 0.094 43.582 41.933
15.600 -19.834 -0.151 -19.851 -0.145 -19.894 -0.148 -19.903 -0.151 9.900 0.248 2.339 0.094 43.573 41.923
16.000 -19.814 -0.146 -19.831 -0.141 -19.876 -0.144 -19.886 -0.148 9.873 0.248 2.329 0.094 43.565 41.913
16.400 -19.795 -0.141 -19.812 -0.136 -19.859 -0.139 -19.869 -0.144 9.846 0.249 2.320 0.095 43.557 41.903
16.800 -19.775 -0.136 -19.794 -0.130 -19.842 -0.134 -19.852 -0.139 9.818 0.249 2.311 0.095 43.549 41.893
17.200 -19.756 -0.130 -19.775 -0.124 -19.825 -0.129 -19.835 -0.134 9.791 0.250 2.302 0.095 43.540 41.883
17.600 -19.737 -0.124 -19.756 -0.118 -19.808 -0.123 -19.819 -0.128 9.764 0.251 2.293 0.096 43.532 41.873
18.000 -19.718 -0.117 -19.738 -0.111 -19.792 -0.117 -19.803 -0.123 9.737 0.252 2.285 0.097 43.524 41.863
18.400 -19.699 -0.111 -19.720 -0.104 -19.776 -0.111 -19.787 -0.117 9.711 0.253 2.277 0.097 43.517 41.853
18.800 -19.681 -0.104 -19.703 -0.097 -19.760 -0.105 -19.772 -0.112 9.684 0.254 2.270 0.098 43.509 41.844
19.200 -19.663 -0.098 -19.685 -0.091 -19.744 -0.100 -19.757 -0.106 9.656 0.256 2.263 0.099 43.501 41.834
19.600 -19.645 -0.093 -19.668 -0.085 -19.729 -0.095 -19.742 -0.102 9.627 0.257 2.257 0.100 43.494 41.824
20.000 -19.627 -0.089 -19.651 -0.081 -19.714 -0.090 -19.727 -0.097 9.597 0.258 2.251 0.101 43.486 41.814
20.400 -19.610 -0.086 -19.634 -0.077 -19.699 -0.086 -19.713 -0.094 9.563 0.258 2.248 0.101 43.479 41.804
20.800 -19.593 -0.084 -19.618 -0.075 -19.685 -0.084 -19.700 -0.091 9.526 0.257 2.246 0.101 43.471 41.794
21.200 -19.575 -0.083 -19.602 -0.074 -19.671 -0.081 -19.686 -0.089 9.487 0.256 2.246 0.101 43.464 41.784
21.600 -19.558 -0.083 -19.586 -0.074 -19.658 -0.080 -19.673 -0.087 9.446 0.254 2.246 0.102 43.457 41.773
22.000 -19.541 -0.084 -19.569 -0.074 -19.644 -0.079 -19.660 -0.086 9.406 0.253 2.247 0.102 43.450 41.763
22.400 -19.524 -0.084 -19.553 -0.074 -19.631 -0.078 -19.647 -0.085 9.365 0.251 2.248 0.102 43.442 41.753
22.800 -19.507 -0.085 -19.537 -0.074 -19.617 -0.078 -19.634 -0.085 9.327 0.251 2.248 0.102 43.435 41.743
23.200 -19.490 -0.086 -19.521 -0.075 -19.604 -0.078 -19.621 -0.085 9.291 0.250 2.247 0.102 43.428 41.733
23.600 -19.473 -0.086 -19.505 -0.076 -19.590 -0.078 -19.608 -0.086 9.261 0.251 2.243 0.103 43.421 41.724
24.000 -19.456 -0.087 -19.488 -0.076 -19.575 -0.080 -19.594 -0.087 9.237 0.252 2.237 0.104 43.414 41.715
24.400 -19.440 -0.087 -19.472 -0.077 -19.561 -0.082 -19.580 -0.089 9.220 0.254 2.228 0.105 43.408 41.707
24.800 -19.424 -0.087 -19.457 -0.078 -19.546 -0.084 -19.565 -0.092 9.209 0.257 2.217 0.106 43.401 41.700
25.200 -19.409 -0.088 -19.442 -0.079 -19.532 -0.087 -19.552 -0.095 9.203 0.259 2.205 0.107 43.395 41.693
25.600 -19.395 -0.088 -19.428 -0.080 -19.519 -0.089 -19.539 -0.097 9.203 0.262 2.192 0.107 43.390 41.687
26.000 -19.383 -0.089 -19.416 -0.081 -19.507 -0.092 -19.526 -0.100 9.208 0.264 2.177 0.108 43.385 41.682
26.400 -19.372 -0.089 -19.405 -0.082 -19.495 -0.095 -19.515 -0.103 9.217 0.266 2.162 0.108 43.381 41.678
26.800 -19.362 -0.089 -19.395 -0.082 -19.484 -0.098 -19.504 -0.106 9.229 0.268 2.147 0.108 43.377 41.674
27.200 -19.354 -0.090 -19.386 -0.083 -19.475 -0.100 -19.494 -0.109 9.243 0.269 2.133 0.108 43.374 41.670
27.600 -19.346 -0.090 -19.378 -0.084 -19.466 -0.103 -19.485 -0.112 9.259 0.271 2.118 0.108 43.371 41.667
28.000 -19.339 -0.091 -19.370 -0.086 -19.457 -0.106 -19.476 -0.115 9.276 0.272 2.104 0.107 43.368 41.664
28.400 -19.333 -0.091 -19.364 -0.087 -19.450 -0.109 -19.468 -0.119 9.297 0.273 2.089 0.107 43.366 41.662
28.800 -19.327 -0.092 -19.358 -0.089 -19.442 -0.112 -19.461 -0.122 9.318 0.274 2.075 0.106 43.364 41.661
29.200 -19.323 -0.094 -19.353 -0.091 -19.436 -0.116 -19.454 -0.126 9.341 0.275 2.061 0.105 43.363 41.660
29.600 -19.319 -0.096 -19.348 -0.093 -19.430 -0.119 -19.447 -0.130 9.365 0.275 2.047 0.104 43.361 41.659
30.000 -19.315 -0.098 -19.344 -0.096 -19.424 -0.123 -19.441 -0.133 9.390 0.274 2.034 0.103 43.360 41.658
30.400 -19.312 -0.100 -19.341 -0.099 -19.419 -0.127 -19.436 -0.137 9.415 0.273 2.021 0.101 43.359 41.658
30.800 -19.309 -0.103 -19.338 -0.102 -19.414 -0.131 -19.430 -0.142 9.440 0.271 2.008 0.099 43.358 41.657
31.200 -19.306 -0.106 -19.334 -0.106 -19.409 -0.135 -19.425 -0.146 9.465 0.270 1.996 0.098 43.357 41.657
31.600 -19.303 -0.110 -19.331 -0.110 -19.404 -0.139 -19.419 -0.150 9.489 0.268 1.983 0.096 43.357 41.656
32.000 -19.300 -0.113 -19.327 -0.114 -19.398 -0.144 -19.413 -0.154 9.512 0.266 1.971 0.094 43.356 41.655
32.400 -19.297 -0.118 -19.323 -0.118 -19.393 -0.149 -19.407 -0.159 9.534 0.264 1.960 0.093 43.354 41.655
32.800 -19.292 -0.123 -19.319 -0.124 -19.386 -0.154 -19.401 -0.164 9.554 0.262 1.948 0.091 43.353 41.654
33.200 -19.287 -0.129 -19.313 -0.130 -19.380 -0.159 -19.394 -0.169 9.571 0.260 1.937 0.089 43.351 41.653
33.600 -19.281 -0.135 -19.307 -0.136 -19.372 -0.165 -19.386 -0.175 9.585 0.258 1.926 0.088 43.349 41.652
34.000 -19.274 -0.143 -19.300 -0.144 -19.364 -0.171 -19.377 -0.181 9.597 0.256 1.916 0.086 43.346 41.651
34.400 -19.267 -0.151 -19.292 -0.152 -19.355 -0.178 -19.368 -0.187 9.608 0.254 1.905 0.085 43.343 41.649
34.800 -19.258 -0.159 -19.283 -0.160 -19.345 -0.184 -19.358 -0.193 9.617 0.253 1.894 0.083 43.340 41.648
35.200 -19.249 -0.168 -19.273 -0.168 -19.335 -0.191 -19.348 -0.200 9.626 0.251 1.883 0.082 43.336 41.646
35.600 -19.239 -0.176 -19.263 -0.177 -19.324 -0.198 -19.337 -0.206 9.635 0.250 1.871 0.081 43.332 41.644
36.000 -19.229 -0.185 -19.252 -0.185 -19.313 -0.205 -19.325 -0.213 9.644 0.249 1.858 0.080 43.328 41.641
36.400 -19.217 -0.193 -19.241 -0.193 -19.300 -0.212 -19.313 -0.219 9.652 0.248 1.846 0.079 43.324 41.639
36.800 -19.206 -0.201 -19.229 -0.201 -19.288 -0.218 -19.300 -0.225 9.661 0.248 1.833 0.078 43.319 41.636
37.200 -19.194 -0.209 -19.216 -0.208 -19.275 -0.224 -19.287 -0.231 9.669 0.247 1.820 0.077 43.314 41.633
37.600 -19.181 -0.216 -19.204 -0.215 -19.261 -0.230 -19.274 -0.236 9.677 0.247 1.806 0.076 43.309 41.630
38.000 -19.168 -0.223 -19.190 -0.222 -19.247 -0.235 -19.260 -0.241 9.685 0.247 1.793 0.075 43.304 41.626
38.400 -19.155 -0.230 -19.177 -0.228 -19.233 -0.240 -19.245 -0.245 9.693 0.247 1.779 0.074 43.299 41.623
38.800 -19.141 -0.235 -19.163 -0.234 -19.219 -0.244 -19.231 -0.249 9.700 0.246 1.765 0.074 43.294 41.619
39.200 -19.127 -0.241 -19.148 -0.238 -19.204 -0.248 -19.216 -0.253 9.708 0.246 1.751 0.073 43.288 41.615
39.600 -19.113 -0.245 -19.134 -0.243 -19.189 -0.251 -19.201 -0.256 9.715 0.246 1.738 0.072 43.283 41.611
40.000 -19.099 -0.249 -19.119 -0.246 -19.174 -0.254 -19.186 -0.258 9.722 0.246 1.724 0.071 43.277 41.607
40.400 -19.084 -0.252 -19.105 -0.249 -19.159 -0.256 -19.170 -0.260 9.729 0.246 1.710 0.071 43.271 41.603
40.800 -19.069 -0.255 -19.090 -0.251 -19.143 -0.257 -19.155 -0.261 9.736 0.247 1.696 0.070 43.265 41.599
41.200 -19.055 -0.257 -19.075 -0.253 -19.128 -0.257 -19.140 -0.261 9.742 0.247 1.683 0.069 43.260 41.595
41.600 -19.040 -0.258 -19.060 -0.254 -19.113 -0.257 -19.124 -0.261 9.749 0.247 1.669 0.069 43.254 41.590
42.000 -19.026 -0.259 -19.045 -0.254 -19.098 -0.256 -19.109 -0.260 9.755 0.247 1.656 0.068 43.248 41.586
42.400 -19.011 -0.259 -19.031 -0.254 -19.082 -0.255 -19.094 -0.258 9.760 0.247 1.643 0.068 43.242 41.582
42.800 -18.997 -0.258 -19.016 -0.253 -19.067 -0.253 -19.079 -0.256 9.766 0.247 1.631 0.067 43.236 41.578
43.200 -18.982 -0.257 -19.001 -0.251 -19.052 -0.250 -19.064 -0.253 9.771 0.247 1.618 0.066 43.231 41.574
43.600 -18.968 -0.255 -18.987 -0.248 -19.038 -0.247 -19.049 -0.250 9.776 0.248 1.606 0.066 43.225 41.570
44.000 -18.954 -0.252 -18.973 -0.246 -19.023 -0.243 -19.035 -0.245 9.781 0.248 1.595 0.065 43.220 41.566
44.400 -18.941 -0.249 -18.959 -0.242 -19.009 -0.238 -19.020 -0.241 9.785 0.248 1.583 0.065 43.214 41.562
44.800 -18.928 -0.246 -18.946 -0.238 -18.996 -0.233 -19.007 -0.236 9.789 0.248 1.572 0.064 43.209 41.558
45.200 -18.915 -0.242 -18.933 -0.234 -18.982 -0.228 -18.993 -0.230 9.793 0.248 1.562 0.064 43.204 41.555
45.600 -18.902 -0.238 -18.920 -0.229 -18.969 -0.222 -18.980 -0.224 9.797 0.248 1.552 0.063 43.199 41.551
46.000 -18.890 -0.233 -18.908 -0.223 -18.957 -0.215 -18.968 -0.217 9.800 0.248 1.542 0.063 43.194 41.548
46.400 -18.879 -0.228 -18.896 -0.218 -18.945 -0.209 -18.956 -0.211 9.802 0.248 1.533 0.062 43.189 41.545
46.800 -18.868 -0.223 -18.885 -0.212 -18.934 -0.202 -18.945 -0.204 9.805 0.248 1.525 0.062 43.185 41.542
47.200 -18.857 -0.218 -18.875 -0.207 -18.923 -0.195 -18.934 -0.197 9.807 0.248 1.517 0.062 43.181 41.540
47.600 -18.848 -0.213 -18.865 -0.201 -18.913 -0.188 -18.924 -0.190 9.809 0.248 1.509 0.061 43.177 41.537
48.000 -18.839 -0.208 -18.856 -0.195 -18.903 -0.181 -18.914 -0.183 9.810 0.248 1.503 0.061 43.173 41.535
48.400 -18.830 -0.203 -18.847 -0.190 -18.895 -0.175 -18.906 -0.177 9.811 0.248 1.497 0.060 43.170 41.533
48.800 -18.822 -0.199 -18.839 -0.185 -18.887 -0.169 -18.898 -0.170 9.811 0.248 1.491 0.060 43.167 41.532
49.200 -18.816 -0.195 -18.832 -0.180 -18.880 -0.163 -18.891 -0.165 9.811 0.248 1.486 0.060 43.164 41.530
49.600 -18.809 -0.191 -18.826 -0.176 -18.874 -0.158 -18.884 -0.160 9.810 0.248 1.482 0.059 43.161 41.528
50.000 -18.804 -0.188 -18.821 -0.172 -18.868 -0.154 -18.879 -0.156 9.808 0.247 1.479 0.059 43.159 41.526
50.400 -18.799 -0.184 -18.816 -0.169 -18.864 -0.151 -18.874 -0.153 9.806 0.247 1.476 0.059 43.157 41.524
50.800 -18.795 -0.182 -18.812 -0.166 -18.860 -0.148 -18.871 -0.150 9.804 0.247 1.474 0.059 43.156 41.523
51.200 -18.792 -0.179 -18.809 -0.163 -18.857 -0.145 -18.868 -0.147 9.802 0.247 1.473 0.059 43.154 41.521
51.600 -18.789 -0.177 -18.807 -0.161 -18.854 -0.143 -18.865 -0.145 9.799 0.246 1.472 0.059 43.153 41.519
52.000 -18.787 -0.174 -18.805 -0.159 -18.853 -0.141 -18.863 -0.143 9.797 0.246 1.471 0.059 43.152 41.518
52.400 -18.786 -0.172 -18.804 -0.157 -18.852 -0.139 -18.862 -0.142 9.794 0.246 1.471 0.059 43.152 41.516
52.800 -18.785 -0.170 -18.803 -0.155 -18.851 -0.138 -18.862 -0.141 9.791 0.246 1.471 0.059 43.151 41.515
53.200 -18.785 -0.168 -18.803 -0.153 -18.851 -0.137 -18.862 -0.140 9.788 0.245 1.472 0.059 43.151 41.513
53.600 -18.785 -0.165 -18.803 -0.150 -18.852 -0.136 -18.862 -0.139 9.785 0.245 1.473 0.059 43.151 41.512
54.000 -18.785 -0.163 -18.803 -0.148 -18.852 -0.134 -18.863 -0.138 9.781 0.245 1.474 0.059 43.151 41.510
54.400 -18.786 -0.160 -18.804 -0.145 -18.854 -0.133 -18.864 -0.137 9.777 0.245 1.476 0.059 43.152 41.509
54.800 -18.787 -0.157 -18.806 -0.143 -18.855 -0.131 -18.866 -0.135 9.773 0.245 1.478 0.059 43.152 41.508
55.200 -18.788 -0.154 -18.807 -0.139 -18.857 -0.129 -18.868 -0.133 9.769 0.245 1.480 0.059 43.152 41.507
55.600 -18.790 -0.150 -18.808 -0.136 -18.859 -0.127 -18.869 -0.131 9.764 0.245 1.482 0.060 43.153 41.506
56.000 -18.791 -0.146 -18.810 -0.132 -18.861 -0.124 -18.871 -0.129 9.760 0.245 1.484 0.060 43.153 41.505
56.400 -18.793 -0.142 -18.812 -0.128 -18.863 -0.122 -18.873 -0.127 9.756 0.245 1.486 0.060 43.154 41.504
56.800 -18.794 -0.139 -18.813 -0.125 -18.864 -0.120 -18.875 -0.126 9.752 0.246 1.488 0.060 43.154 41.503
57.200 -18.795 -0.136 -18.815 -0.122 -18.866 -0.118 -18.877 -0.124 9.748 0.246 1.490 0.061 43.155 41.502
57.600 -18.796 -0.134 -18.816 -0.120 -18.868 -0.118 -18.879 -0.124 9.746 0.246 1.492 0.061 43.155 41.501
58.000 -18.797 -0.134 -18.817 -0.120 -18.869 -0.119 -18.880 -0.126 9.745 0.247 1.493 0.061 43.156 41.500
58.400 -18.798 -0.135 -18.818 -0.122 -18.870 -0.121 -18.881 -0.129 9.746 0.247 1.493 0.061 43.156 41.500
58.800 -18.799 -0.139 -18.819 -0.126 -18.870 -0.127 -18.881 -0.134 9.752 0.247 1.492 0.061 43.157 41.499
59.200 -18.799 -0.144 -18.819 -0.133 -18.870 -0.134 -18.881 -0.141 9.761 0.247 1.490 0.061 43.157 41.499
59.600 -18.800 -0.153 -18.819 -0.142 -18.870 -0.144 -18.880 -0.151 9.772 0.247 1.487 0.061 43.157 41.498
