"Time (MJD)" cyan-5182.42 cyan-5182.42_err g-4735.89 g-4735.89_err g-4746.48 g-4746.48_err i-7645.77 i-7645.77_err orange-6629.82 orange-6629.82_err r-6198.96 r-6198.96_err r-6366.38 r-6366.38_err "Temp./1e3 (K)" "Temp. Err." "Radius/1e15 (cm)" "Radius Err." "Log10(Bol. Lum)" "Log10(Bol. Err)"
-171.000 -19.769 -0.134 -19.768 -0.133 -19.726 -0.112 -19.586 -0.094 -19.559 -0.096 -19.514 -0.102 -19.333 -0.161 16.397 0.204 1.057 0.015 43.760 42.109
-170.600 -19.771 -0.133 -19.770 -0.132 -19.728 -0.111 -19.589 -0.093 -19.562 -0.095 -19.516 -0.101 -19.336 -0.160 16.379 0.204 1.060 0.015 43.760 42.110
-170.200 -19.773 -0.133 -19.772 -0.132 -19.731 -0.111 -19.592 -0.092 -19.564 -0.094 -19.519 -0.101 -19.339 -0.160 16.360 0.205 1.063 0.015 43.761 42.111
-169.800 -19.775 -0.132 -19.775 -0.132 -19.733 -0.110 -19.594 -0.092 -19.567 -0.093 -19.522 -0.100 -19.342 -0.159 16.340 0.205 1.065 0.015 43.761 42.111
-169.400 -19.777 -0.132 -19.777 -0.131 -19.735 -0.110 -19.597 -0.091 -19.570 -0.093 -19.525 -0.099 -19.345 -0.159 16.321 0.205 1.068 0.015 43.761 42.112
-169.000 -19.780 -0.131 -19.779 -0.131 -19.737 -0.109 -19.600 -0.091 -19.572 -0.092 -19.527 -0.099 -19.348 -0.158 16.300 0.205 1.071 0.015 43.761 42.112
-168.600 -19.782 -0.131 -19.781 -0.130 -19.740 -0.109 -19.602 -0.090 -19.575 -0.092 -19.530 -0.098 -19.351 -0.158 16.279 0.205 1.073 0.015 43.761 42.112
-168.200 -19.784 -0.131 -19.783 -0.130 -19.742 -0.109 -19.605 -0.090 -19.578 -0.091 -19.533 -0.098 -19.354 -0.157 16.258 0.205 1.076 0.015 43.761 42.112
-167.800 -19.786 -0.130 -19.785 -0.130 -19.744 -0.108 -19.607 -0.089 -19.580 -0.091 -19.536 -0.097 -19.356 -0.157 16.236 0.205 1.079 0.015 43.761 42.112
-167.400 -19.788 -0.130 -19.787 -0.130 -19.746 -0.108 -19.610 -0.089 -19.583 -0.090 -19.538 -0.097 -19.359 -0.156 16.214 0.204 1.082 0.015 43.761 42.111
-167.000 -19.790 -0.130 -19.789 -0.129 -19.748 -0.108 -19.613 -0.088 -19.586 -0.090 -19.541 -0.096 -19.362 -0.156 16.192 0.204 1.085 0.015 43.761 42.111
-166.600 -19.792 -0.130 -19.791 -0.129 -19.750 -0.108 -19.615 -0.088 -19.589 -0.090 -19.544 -0.096 -19.365 -0.156 16.169 0.203 1.088 0.015 43.761 42.110
-166.200 -19.793 -0.130 -19.793 -0.129 -19.753 -0.107 -19.618 -0.088 -19.591 -0.089 -19.547 -0.096 -19.368 -0.155 16.146 0.203 1.091 0.015 43.761 42.109
-165.800 -19.795 -0.130 -19.795 -0.129 -19.755 -0.107 -19.621 -0.088 -19.594 -0.089 -19.550 -0.096 -19.371 -0.155 16.123 0.202 1.094 0.015 43.760 42.108
-165.400 -19.797 -0.129 -19.797 -0.129 -19.757 -0.107 -19.623 -0.087 -19.597 -0.089 -19.552 -0.095 -19.374 -0.155 16.099 0.201 1.097 0.015 43.760 42.106
-165.000 -19.799 -0.129 -19.798 -0.129 -19.759 -0.107 -19.626 -0.087 -19.599 -0.089 -19.555 -0.095 -19.377 -0.154 16.075 0.201 1.100 0.015 43.760 42.105
-164.600 -19.801 -0.129 -19.800 -0.129 -19.761 -0.107 -19.628 -0.087 -19.602 -0.089 -19.558 -0.095 -19.380 -0.154 16.051 0.200 1.103 0.016 43.760 42.103
-164.200 -19.803 -0.129 -19.802 -0.129 -19.763 -0.107 -19.631 -0.087 -19.605 -0.088 -19.561 -0.095 -19.384 -0.154 16.026 0.199 1.106 0.016 43.760 42.101
-163.800 -19.805 -0.129 -19.804 -0.129 -19.765 -0.107 -19.634 -0.087 -19.607 -0.088 -19.563 -0.095 -19.387 -0.154 16.001 0.198 1.109 0.016 43.760 42.099
-163.400 -19.807 -0.129 -19.806 -0.129 -19.767 -0.107 -19.636 -0.087 -19.610 -0.088 -19.566 -0.094 -19.390 -0.154 15.976 0.197 1.113 0.016 43.759 42.096
-163.000 -19.809 -0.129 -19.808 -0.129 -19.769 -0.107 -19.639 -0.087 -19.613 -0.088 -19.569 -0.094 -19.393 -0.153 15.950 0.196 1.116 0.016 43.759 42.094
-162.600 -19.811 -0.130 -19.810 -0.129 -19.771 -0.107 -19.641 -0.087 -19.615 -0.088 -19.572 -0.094 -19.396 -0.153 15.925 0.195 1.119 0.016 43.759 42.091
-162.200 -19.812 -0.130 -19.812 -0.129 -19.774 -0.108 -19.644 -0.087 -19.618 -0.088 -19.575 -0.094 -19.399 -0.153 15.899 0.194 1.123 0.016 43.759 42.089
-161.800 -19.814 -0.130 -19.813 -0.129 -19.776 -0.108 -19.647 -0.087 -19.621 -0.088 -19.578 -0.094 -19.402 -0.153 15.872 0.192 1.126 0.016 43.758 42.086
-161.400 -19.816 -0.130 -19.815 -0.129 -19.778 -0.108 -19.649 -0.087 -19.623 -0.088 -19.580 -0.094 -19.405 -0.153 15.846 0.191 1.129 0.015 43.758 42.083
-161.000 -19.818 -0.130 -19.817 -0.129 -19.780 -0.108 -19.652 -0.087 -19.626 -0.088 -19.583 -0.094 -19.408 -0.153 15.819 0.190 1.133 0.015 43.758 42.079
-160.600 -19.820 -0.130 -19.819 -0.130 -19.782 -0.108 -19.654 -0.087 -19.629 -0.088 -19.586 -0.094 -19.412 -0.153 15.792 0.188 1.136 0.015 43.758 42.076
-160.200 -19.821 -0.130 -19.821 -0.130 -19.784 -0.109 -19.657 -0.087 -19.631 -0.089 -19.589 -0.094 -19.415 -0.153 15.765 0.187 1.140 0.015 43.757 42.073
-159.800 -19.823 -0.131 -19.822 -0.130 -19.786 -0.109 -19.660 -0.087 -19.634 -0.089 -19.592 -0.095 -19.418 -0.153 15.737 0.185 1.143 0.015 43.757 42.069
-159.400 -19.825 -0.131 -19.824 -0.130 -19.788 -0.109 -19.662 -0.088 -19.637 -0.089 -19.594 -0.095 -19.421 -0.153 15.710 0.184 1.147 0.015 43.757 42.065
-159.000 -19.827 -0.131 -19.826 -0.131 -19.790 -0.109 -19.665 -0.088 -19.639 -0.089 -19.597 -0.095 -19.424 -0.153 15.682 0.182 1.151 0.015 43.756 42.062
-158.600 -19.829 -0.131 -19.828 -0.131 -19.792 -0.110 -19.667 -0.088 -19.642 -0.089 -19.600 -0.095 -19.428 -0.153 15.654 0.181 1.154 0.015 43.756 42.058
-158.200 -19.830 -0.132 -19.830 -0.131 -19.794 -0.110 -19.670 -0.088 -19.645 -0.089 -19.603 -0.095 -19.431 -0.153 15.625 0.179 1.158 0.015 43.756 42.054
-157.800 -19.832 -0.132 -19.831 -0.131 -19.796 -0.110 -19.672 -0.088 -19.647 -0.090 -19.606 -0.095 -19.434 -0.153 15.597 0.178 1.162 0.015 43.755 42.050
-157.400 -19.834 -0.132 -19.833 -0.132 -19.798 -0.111 -19.675 -0.089 -19.650 -0.090 -19.609 -0.095 -19.437 -0.153 15.568 0.176 1.165 0.015 43.755 42.045
-157.000 -19.835 -0.133 -19.835 -0.132 -19.800 -0.111 -19.678 -0.089 -19.653 -0.090 -19.612 -0.096 -19.441 -0.153 15.539 0.174 1.169 0.015 43.754 42.041
-156.600 -19.837 -0.133 -19.837 -0.132 -19.802 -0.111 -19.680 -0.089 -19.656 -0.090 -19.614 -0.096 -19.444 -0.153 15.510 0.173 1.173 0.015 43.754 42.037
-156.200 -19.839 -0.133 -19.838 -0.133 -19.804 -0.112 -19.683 -0.089 -19.658 -0.091 -19.617 -0.096 -19.447 -0.153 15.481 0.171 1.177 0.015 43.754 42.032
-155.800 -19.841 -0.133 -19.840 -0.133 -19.805 -0.112 -19.685 -0.090 -19.661 -0.091 -19.620 -0.096 -19.451 -0.153 15.452 0.169 1.181 0.015 43.753 42.027
-155.400 -19.842 -0.134 -19.842 -0.133 -19.807 -0.112 -19.688 -0.090 -19.664 -0.091 -19.623 -0.097 -19.454 -0.153 15.422 0.168 1.185 0.015 43.753 42.023
-155.000 -19.844 -0.134 -19.843 -0.134 -19.809 -0.113 -19.691 -0.090 -19.666 -0.091 -19.626 -0.097 -19.457 -0.154 15.393 0.166 1.189 0.015 43.752 42.018
-154.600 -19.846 -0.134 -19.845 -0.134 -19.811 -0.113 -19.693 -0.091 -19.669 -0.092 -19.629 -0.097 -19.461 -0.154 15.363 0.164 1.193 0.015 43.752 42.013
-154.200 -19.847 -0.135 -19.847 -0.134 -19.813 -0.114 -19.696 -0.091 -19.672 -0.092 -19.632 -0.097 -19.464 -0.154 15.333 0.162 1.197 0.015 43.751 42.008
-153.800 -19.849 -0.135 -19.848 -0.135 -19.815 -0.114 -19.698 -0.091 -19.674 -0.092 -19.635 -0.098 -19.467 -0.154 15.303 0.161 1.201 0.015 43.751 42.003
-153.400 -19.851 -0.136 -19.850 -0.135 -19.817 -0.114 -19.701 -0.092 -19.677 -0.092 -19.637 -0.098 -19.471 -0.154 15.273 0.159 1.205 0.015 43.750 41.998
-153.000 -19.852 -0.136 -19.852 -0.135 -19.819 -0.115 -19.704 -0.092 -19.680 -0.093 -19.640 -0.098 -19.474 -0.154 15.243 0.157 1.209 0.015 43.750 41.993
-152.600 -19.854 -0.136 -19.853 -0.136 -19.821 -0.115 -19.706 -0.092 -19.683 -0.093 -19.643 -0.098 -19.477 -0.155 15.212 0.155 1.213 0.014 43.750 41.987
-152.200 -19.856 -0.137 -19.855 -0.136 -19.823 -0.116 -19.709 -0.092 -19.685 -0.093 -19.646 -0.099 -19.481 -0.155 15.182 0.154 1.218 0.014 43.749 41.982
-151.800 -19.857 -0.137 -19.857 -0.136 -19.825 -0.116 -19.711 -0.093 -19.688 -0.094 -19.649 -0.099 -19.484 -0.155 15.151 0.152 1.222 0.014 43.749 41.977
-151.400 -19.859 -0.137 -19.858 -0.137 -19.827 -0.116 -19.714 -0.093 -19.691 -0.094 -19.652 -0.099 -19.487 -0.155 15.121 0.150 1.226 0.014 43.748 41.971
-151.000 -19.861 -0.138 -19.860 -0.137 -19.828 -0.117 -19.717 -0.093 -19.693 -0.094 -19.655 -0.100 -19.491 -0.155 15.090 0.149 1.230 0.014 43.748 41.966
-150.600 -19.862 -0.138 -19.862 -0.138 -19.830 -0.117 -19.719 -0.094 -19.696 -0.095 -19.658 -0.100 -19.494 -0.156 15.059 0.147 1.235 0.014 43.747 41.960
-150.200 -19.864 -0.138 -19.863 -0.138 -19.832 -0.118 -19.722 -0.094 -19.699 -0.095 -19.661 -0.100 -19.498 -0.156 15.028 0.145 1.239 0.014 43.747 41.955
-149.800 -19.866 -0.139 -19.865 -0.138 -19.834 -0.118 -19.724 -0.094 -19.702 -0.095 -19.664 -0.100 -19.501 -0.156 14.997 0.143 1.243 0.014 43.746 41.949
-149.400 -19.867 -0.139 -19.867 -0.139 -19.836 -0.118 -19.727 -0.095 -19.704 -0.096 -19.667 -0.101 -19.504 -0.156 14.966 0.142 1.248 0.014 43.746 41.944
-149.000 -19.869 -0.140 -19.868 -0.139 -19.838 -0.119 -19.730 -0.095 -19.707 -0.096 -19.669 -0.101 -19.508 -0.157 14.935 0.140 1.252 0.014 43.745 41.938
-148.600 -19.871 -0.140 -19.870 -0.139 -19.840 -0.119 -19.732 -0.095 -19.710 -0.096 -19.672 -0.101 -19.511 -0.157 14.904 0.138 1.257 0.014 43.745 41.932
-148.200 -19.872 -0.140 -19.872 -0.140 -19.842 -0.120 -19.735 -0.096 -19.713 -0.096 -19.675 -0.102 -19.515 -0.157 14.873 0.137 1.261 0.014 43.744 41.927
-147.800 -19.874 -0.141 -19.873 -0.140 -19.844 -0.120 -19.738 -0.096 -19.715 -0.097 -19.678 -0.102 -19.518 -0.157 14.842 0.135 1.266 0.014 43.744 41.921
-147.400 -19.876 -0.141 -19.875 -0.140 -19.846 -0.120 -19.740 -0.096 -19.718 -0.097 -19.681 -0.102 -19.522 -0.158 14.811 0.133 1.271 0.014 43.743 41.916
-147.000 -19.877 -0.141 -19.877 -0.141 -19.847 -0.121 -19.743 -0.097 -19.721 -0.097 -19.684 -0.103 -19.525 -0.158 14.780 0.132 1.275 0.014 43.743 41.910
-146.600 -19.879 -0.142 -19.878 -0.141 -19.849 -0.121 -19.745 -0.097 -19.724 -0.098 -19.687 -0.103 -19.529 -0.158 14.748 0.130 1.280 0.014 43.742 41.904
-146.200 -19.880 -0.142 -19.880 -0.141 -19.851 -0.121 -19.748 -0.097 -19.727 -0.098 -19.690 -0.103 -19.532 -0.158 14.717 0.129 1.285 0.013 43.742 41.899
-145.800 -19.882 -0.142 -19.881 -0.142 -19.853 -0.122 -19.751 -0.098 -19.729 -0.098 -19.693 -0.104 -19.536 -0.159 14.686 0.127 1.289 0.013 43.741 41.893
-145.400 -19.884 -0.143 -19.883 -0.142 -19.855 -0.122 -19.753 -0.098 -19.732 -0.099 -19.696 -0.104 -19.539 -0.159 14.655 0.126 1.294 0.013 43.741 41.887
-145.000 -19.885 -0.143 -19.885 -0.142 -19.857 -0.122 -19.756 -0.098 -19.735 -0.099 -19.699 -0.104 -19.543 -0.159 14.624 0.124 1.299 0.013 43.740 41.882
-144.600 -19.887 -0.143 -19.886 -0.143 -19.859 -0.123 -19.759 -0.098 -19.738 -0.099 -19.702 -0.104 -19.546 -0.159 14.592 0.123 1.304 0.013 43.740 41.876
-144.200 -19.889 -0.144 -19.888 -0.143 -19.861 -0.123 -19.761 -0.099 -19.740 -0.100 -19.705 -0.105 -19.550 -0.160 14.561 0.121 1.309 0.013 43.739 41.871
-143.800 -19.890 -0.144 -19.890 -0.143 -19.863 -0.124 -19.764 -0.099 -19.743 -0.100 -19.708 -0.105 -19.553 -0.160 14.530 0.120 1.314 0.013 43.739 41.865
-143.400 -19.892 -0.144 -19.891 -0.144 -19.864 -0.124 -19.767 -0.099 -19.746 -0.100 -19.711 -0.105 -19.557 -0.160 14.499 0.119 1.318 0.013 43.738 41.860
-143.000 -19.893 -0.144 -19.893 -0.144 -19.866 -0.124 -19.769 -0.100 -19.749 -0.100 -19.714 -0.106 -19.560 -0.161 14.468 0.117 1.323 0.013 43.738 41.854
-142.600 -19.895 -0.145 -19.894 -0.144 -19.868 -0.125 -19.772 -0.100 -19.752 -0.101 -19.717 -0.106 -19.564 -0.161 14.437 0.116 1.328 0.013 43.737 41.849
-142.200 -19.897 -0.145 -19.896 -0.144 -19.870 -0.125 -19.775 -0.100 -19.755 -0.101 -19.720 -0.106 -19.567 -0.161 14.406 0.115 1.333 0.013 43.737 41.844
-141.800 -19.898 -0.145 -19.898 -0.145 -19.872 -0.125 -19.778 -0.101 -19.757 -0.101 -19.723 -0.107 -19.571 -0.161 14.375 0.114 1.338 0.013 43.736 41.839
-141.400 -19.900 -0.146 -19.899 -0.145 -19.874 -0.125 -19.780 -0.101 -19.760 -0.102 -19.726 -0.107 -19.574 -0.162 14.344 0.112 1.344 0.013 43.736 41.834
-141.000 -19.902 -0.146 -19.901 -0.145 -19.876 -0.126 -19.783 -0.101 -19.763 -0.102 -19.729 -0.107 -19.578 -0.162 14.313 0.111 1.349 0.013 43.735 41.829
-140.600 -19.903 -0.146 -19.903 -0.146 -19.878 -0.126 -19.786 -0.102 -19.766 -0.102 -19.733 -0.108 -19.582 -0.162 14.282 0.110 1.354 0.013 43.735 41.824
-140.200 -19.905 -0.146 -19.904 -0.146 -19.880 -0.126 -19.788 -0.102 -19.769 -0.103 -19.736 -0.108 -19.585 -0.162 14.251 0.109 1.359 0.013 43.735 41.819
-139.800 -19.906 -0.147 -19.906 -0.146 -19.882 -0.127 -19.791 -0.102 -19.772 -0.103 -19.739 -0.108 -19.589 -0.163 14.220 0.108 1.364 0.013 43.734 41.814
-139.400 -19.908 -0.147 -19.908 -0.146 -19.883 -0.127 -19.794 -0.102 -19.775 -0.103 -19.742 -0.109 -19.592 -0.163 14.190 0.107 1.369 0.013 43.734 41.810
-139.000 -19.910 -0.147 -19.909 -0.146 -19.885 -0.127 -19.797 -0.103 -19.778 -0.104 -19.745 -0.109 -19.596 -0.163 14.159 0.106 1.375 0.013 43.733 41.805
-138.600 -19.911 -0.147 -19.911 -0.147 -19.887 -0.127 -19.799 -0.103 -19.780 -0.104 -19.748 -0.109 -19.600 -0.164 14.129 0.105 1.380 0.013 43.733 41.801
-138.200 -19.913 -0.147 -19.913 -0.147 -19.889 -0.128 -19.802 -0.103 -19.783 -0.104 -19.751 -0.110 -19.603 -0.164 14.098 0.104 1.385 0.013 43.732 41.797
-137.800 -19.915 -0.148 -19.914 -0.147 -19.891 -0.128 -19.805 -0.104 -19.786 -0.105 -19.754 -0.110 -19.607 -0.164 14.068 0.103 1.390 0.013 43.732 41.793
-137.400 -19.916 -0.148 -19.916 -0.147 -19.893 -0.128 -19.808 -0.104 -19.789 -0.105 -19.757 -0.110 -19.610 -0.164 14.038 0.103 1.396 0.013 43.732 41.789
-137.000 -19.918 -0.148 -19.917 -0.147 -19.895 -0.128 -19.811 -0.104 -19.792 -0.105 -19.760 -0.111 -19.614 -0.165 14.007 0.102 1.401 0.013 43.731 41.785
-136.600 -19.920 -0.148 -19.919 -0.148 -19.897 -0.128 -19.813 -0.105 -19.795 -0.105 -19.764 -0.111 -19.618 -0.165 13.977 0.101 1.407 0.013 43.731 41.781
-136.200 -19.921 -0.148 -19.921 -0.148 -19.899 -0.129 -19.816 -0.105 -19.798 -0.106 -19.767 -0.111 -19.621 -0.165 13.947 0.100 1.412 0.013 43.730 41.778
-135.800 -19.923 -0.148 -19.923 -0.148 -19.901 -0.129 -19.819 -0.105 -19.801 -0.106 -19.770 -0.112 -19.625 -0.165 13.917 0.100 1.418 0.013 43.730 41.774
-135.400 -19.925 -0.148 -19.924 -0.148 -19.903 -0.129 -19.822 -0.106 -19.804 -0.106 -19.773 -0.112 -19.629 -0.166 13.888 0.099 1.423 0.013 43.730 41.771
-135.000 -19.926 -0.149 -19.926 -0.148 -19.905 -0.129 -19.825 -0.106 -19.807 -0.107 -19.776 -0.112 -19.632 -0.166 13.858 0.099 1.429 0.013 43.729 41.768
-134.600 -19.928 -0.149 -19.928 -0.148 -19.907 -0.129 -19.827 -0.106 -19.810 -0.107 -19.779 -0.113 -19.636 -0.166 13.828 0.098 1.434 0.013 43.729 41.765
-134.200 -19.930 -0.149 -19.929 -0.148 -19.909 -0.129 -19.830 -0.107 -19.813 -0.107 -19.783 -0.113 -19.640 -0.166 13.799 0.098 1.440 0.013 43.729 41.762
-133.800 -19.931 -0.149 -19.931 -0.148 -19.911 -0.130 -19.833 -0.107 -19.816 -0.108 -19.786 -0.113 -19.643 -0.167 13.769 0.097 1.445 0.013 43.728 41.760
-133.400 -19.933 -0.149 -19.933 -0.148 -19.913 -0.130 -19.836 -0.107 -19.819 -0.108 -19.789 -0.114 -19.647 -0.167 13.740 0.097 1.451 0.013 43.728 41.757
-133.000 -19.935 -0.149 -19.934 -0.149 -19.915 -0.130 -19.839 -0.107 -19.822 -0.108 -19.792 -0.114 -19.651 -0.167 13.711 0.096 1.457 0.013 43.728 41.755
-132.600 -19.936 -0.149 -19.936 -0.149 -19.917 -0.130 -19.842 -0.108 -19.825 -0.109 -19.795 -0.114 -19.654 -0.167 13.682 0.096 1.462 0.013 43.727 41.753
-132.200 -19.938 -0.149 -19.938 -0.149 -19.919 -0.130 -19.845 -0.108 -19.828 -0.109 -19.799 -0.115 -19.658 -0.167 13.653 0.096 1.468 0.013 43.727 41.751
-131.800 -19.940 -0.149 -19.940 -0.149 -19.921 -0.130 -19.847 -0.108 -19.831 -0.109 -19.802 -0.115 -19.662 -0.168 13.624 0.095 1.474 0.013 43.727 41.749
-131.400 -19.942 -0.149 -19.941 -0.149 -19.923 -0.130 -19.850 -0.109 -19.834 -0.110 -19.805 -0.115 -19.665 -0.168 13.595 0.095 1.479 0.013 43.727 41.747
-131.000 -19.943 -0.149 -19.943 -0.149 -19.925 -0.130 -19.853 -0.109 -19.837 -0.110 -19.808 -0.116 -19.669 -0.168 13.567 0.095 1.485 0.013 43.726 41.746
-130.600 -19.945 -0.149 -19.945 -0.149 -19.927 -0.130 -19.856 -0.109 -19.840 -0.110 -19.812 -0.116 -19.673 -0.168 13.538 0.095 1.491 0.013 43.726 41.745
-130.200 -19.947 -0.149 -19.947 -0.149 -19.929 -0.131 -19.859 -0.110 -19.843 -0.111 -19.815 -0.116 -19.676 -0.169 13.510 0.095 1.497 0.013 43.726 41.743
-129.800 -19.949 -0.149 -19.948 -0.149 -19.931 -0.131 -19.862 -0.110 -19.846 -0.111 -19.818 -0.117 -19.680 -0.169 13.482 0.095 1.503 0.014 43.726 41.742
-129.400 -19.950 -0.149 -19.950 -0.149 -19.933 -0.131 -19.865 -0.110 -19.849 -0.111 -19.821 -0.117 -19.684 -0.169 13.454 0.095 1.509 0.014 43.725 41.742
-129.000 -19.952 -0.149 -19.952 -0.149 -19.935 -0.131 -19.868 -0.110 -19.852 -0.112 -19.825 -0.117 -19.688 -0.169 13.426 0.095 1.515 0.014 43.725 41.741
-128.600 -19.954 -0.149 -19.954 -0.149 -19.937 -0.131 -19.871 -0.111 -19.855 -0.112 -19.828 -0.117 -19.691 -0.169 13.398 0.095 1.520 0.014 43.725 41.740
-128.200 -19.956 -0.149 -19.955 -0.149 -19.939 -0.131 -19.874 -0.111 -19.858 -0.112 -19.831 -0.118 -19.695 -0.169 13.370 0.095 1.526 0.014 43.725 41.740
-127.800 -19.958 -0.149 -19.957 -0.148 -19.941 -0.131 -19.877 -0.111 -19.862 -0.112 -19.835 -0.118 -19.699 -0.170 13.343 0.095 1.532 0.014 43.725 41.740
-127.400 -19.959 -0.149 -19.959 -0.148 -19.944 -0.131 -19.880 -0.111 -19.865 -0.113 -19.838 -0.118 -19.703 -0.170 13.315 0.095 1.538 0.014 43.724 41.740
-127.000 -19.961 -0.149 -19.961 -0.148 -19.946 -0.131 -19.883 -0.112 -19.868 -0.113 -19.841 -0.119 -19.706 -0.170 13.288 0.095 1.544 0.014 43.724 41.740
-126.600 -19.963 -0.149 -19.963 -0.148 -19.948 -0.131 -19.886 -0.112 -19.871 -0.113 -19.845 -0.119 -19.710 -0.170 13.261 0.095 1.550 0.014 43.724 41.740
-126.200 -19.965 -0.149 -19.965 -0.148 -19.950 -0.131 -19.889 -0.112 -19.874 -0.113 -19.848 -0.119 -19.714 -0.170 13.234 0.095 1.557 0.015 43.724 41.740
-125.800 -19.967 -0.148 -19.966 -0.148 -19.952 -0.131 -19.892 -0.112 -19.877 -0.114 -19.851 -0.119 -19.718 -0.170 13.207 0.095 1.563 0.015 43.724 41.740
-125.400 -19.968 -0.148 -19.968 -0.148 -19.954 -0.130 -19.895 -0.112 -19.881 -0.114 -19.855 -0.120 -19.721 -0.171 13.180 0.096 1.569 0.015 43.724 41.741
-125.000 -19.970 -0.148 -19.970 -0.148 -19.956 -0.130 -19.898 -0.113 -19.884 -0.114 -19.858 -0.120 -19.725 -0.171 13.153 0.096 1.575 0.015 43.724 41.742
-124.600 -19.972 -0.148 -19.972 -0.148 -19.959 -0.130 -19.901 -0.113 -19.887 -0.114 -19.862 -0.120 -19.729 -0.171 13.127 0.096 1.581 0.015 43.723 41.742
-124.200 -19.974 -0.148 -19.974 -0.147 -19.961 -0.130 -19.904 -0.113 -19.890 -0.115 -19.865 -0.120 -19.733 -0.171 13.101 0.097 1.587 0.015 43.723 41.743
-123.800 -19.976 -0.148 -19.976 -0.147 -19.963 -0.130 -19.907 -0.113 -19.893 -0.115 -19.868 -0.120 -19.736 -0.171 13.075 0.097 1.594 0.016 43.723 41.744
-123.400 -19.978 -0.148 -19.978 -0.147 -19.965 -0.130 -19.910 -0.113 -19.897 -0.115 -19.872 -0.121 -19.740 -0.171 13.049 0.097 1.600 0.016 43.723 41.745
-123.000 -19.980 -0.147 -19.980 -0.147 -19.967 -0.130 -19.914 -0.114 -19.900 -0.115 -19.875 -0.121 -19.744 -0.171 13.023 0.098 1.606 0.016 43.723 41.747
-122.600 -19.982 -0.147 -19.981 -0.147 -19.970 -0.130 -19.917 -0.114 -19.903 -0.115 -19.879 -0.121 -19.748 -0.171 12.997 0.098 1.612 0.016 43.723 41.748
-122.200 -19.984 -0.147 -19.983 -0.146 -19.972 -0.130 -19.920 -0.114 -19.906 -0.116 -19.882 -0.121 -19.751 -0.171 12.972 0.098 1.619 0.016 43.723 41.749
-121.800 -19.986 -0.147 -19.985 -0.146 -19.974 -0.129 -19.923 -0.114 -19.910 -0.116 -19.886 -0.121 -19.755 -0.171 12.946 0.099 1.625 0.016 43.723 41.751
-121.400 -19.988 -0.146 -19.987 -0.146 -19.976 -0.129 -19.926 -0.114 -19.913 -0.116 -19.889 -0.122 -19.759 -0.172 12.921 0.099 1.631 0.017 43.723 41.753
-121.000 -19.989 -0.146 -19.989 -0.146 -19.979 -0.129 -19.929 -0.114 -19.916 -0.116 -19.893 -0.122 -19.763 -0.172 12.896 0.100 1.638 0.017 43.723 41.754
-120.600 -19.991 -0.146 -19.991 -0.145 -19.981 -0.129 -19.932 -0.114 -19.920 -0.116 -19.896 -0.122 -19.767 -0.172 12.871 0.100 1.644 0.017 43.723 41.756
-120.200 -19.993 -0.146 -19.993 -0.145 -19.983 -0.129 -19.936 -0.114 -19.923 -0.116 -19.900 -0.122 -19.770 -0.172 12.846 0.101 1.650 0.017 43.723 41.758
-119.800 -19.995 -0.145 -19.995 -0.145 -19.986 -0.128 -19.939 -0.114 -19.926 -0.116 -19.903 -0.122 -19.774 -0.172 12.822 0.102 1.657 0.018 43.723 41.760
-119.400 -19.997 -0.145 -19.997 -0.145 -19.988 -0.128 -19.942 -0.114 -19.930 -0.116 -19.907 -0.122 -19.778 -0.172 12.797 0.102 1.663 0.018 43.723 41.762
-119.000 -19.999 -0.145 -19.999 -0.144 -19.990 -0.128 -19.945 -0.114 -19.933 -0.116 -19.910 -0.122 -19.782 -0.172 12.773 0.103 1.670 0.018 43.723 41.764
-118.600 -20.002 -0.144 -20.001 -0.144 -19.993 -0.128 -19.949 -0.114 -19.936 -0.116 -19.914 -0.122 -19.786 -0.172 12.749 0.103 1.676 0.018 43.723 41.766
-118.200 -20.004 -0.144 -20.003 -0.144 -19.995 -0.127 -19.952 -0.115 -19.940 -0.117 -19.917 -0.122 -19.789 -0.172 12.725 0.104 1.683 0.019 43.724 41.768
-117.800 -20.006 -0.144 -20.005 -0.143 -19.997 -0.127 -19.955 -0.115 -19.943 -0.117 -19.921 -0.122 -19.793 -0.172 12.701 0.105 1.689 0.019 43.724 41.771
-117.400 -20.008 -0.143 -20.008 -0.143 -20.000 -0.127 -19.958 -0.115 -19.947 -0.117 -19.924 -0.123 -19.797 -0.172 12.678 0.105 1.696 0.019 43.724 41.773
-117.000 -20.010 -0.143 -20.010 -0.143 -20.002 -0.127 -19.962 -0.114 -19.950 -0.117 -19.928 -0.123 -19.801 -0.172 12.654 0.106 1.702 0.019 43.724 41.775
-116.600 -20.012 -0.143 -20.012 -0.142 -20.005 -0.126 -19.965 -0.114 -19.953 -0.117 -19.932 -0.123 -19.805 -0.172 12.631 0.107 1.709 0.020 43.724 41.778
-116.200 -20.014 -0.142 -20.014 -0.142 -20.007 -0.126 -19.968 -0.114 -19.957 -0.117 -19.935 -0.123 -19.809 -0.172 12.608 0.107 1.716 0.020 43.724 41.781
-115.800 -20.016 -0.142 -20.016 -0.141 -20.009 -0.126 -19.972 -0.114 -19.960 -0.117 -19.939 -0.123 -19.812 -0.172 12.585 0.108 1.722 0.020 43.724 41.783
-115.400 -20.018 -0.141 -20.018 -0.141 -20.012 -0.125 -19.975 -0.114 -19.964 -0.117 -19.943 -0.123 -19.816 -0.172 12.562 0.109 1.729 0.020 43.725 41.786
-115.000 -20.020 -0.141 -20.020 -0.141 -20.014 -0.125 -19.978 -0.114 -19.967 -0.116 -19.946 -0.123 -19.820 -0.172 12.540 0.110 1.736 0.021 43.725 41.789
-114.600 -20.023 -0.141 -20.022 -0.140 -20.017 -0.125 -19.982 -0.114 -19.971 -0.116 -19.950 -0.123 -19.824 -0.171 12.517 0.111 1.742 0.021 43.725 41.791
-114.200 -20.025 -0.140 -20.025 -0.140 -20.019 -0.124 -19.985 -0.114 -19.974 -0.116 -19.953 -0.122 -19.828 -0.171 12.495 0.111 1.749 0.021 43.725 41.794
-113.800 -20.027 -0.140 -20.027 -0.139 -20.022 -0.124 -19.989 -0.114 -19.978 -0.116 -19.957 -0.122 -19.831 -0.171 12.473 0.112 1.756 0.022 43.726 41.797
-113.400 -20.029 -0.139 -20.029 -0.139 -20.024 -0.123 -19.992 -0.114 -19.981 -0.116 -19.961 -0.122 -19.835 -0.171 12.451 0.113 1.762 0.022 43.726 41.800
-113.000 -20.031 -0.139 -20.031 -0.138 -20.027 -0.123 -19.995 -0.114 -19.985 -0.116 -19.965 -0.122 -19.839 -0.171 12.430 0.114 1.769 0.022 43.726 41.803
-112.600 -20.034 -0.138 -20.034 -0.138 -20.030 -0.123 -19.999 -0.114 -19.988 -0.116 -19.968 -0.122 -19.843 -0.171 12.408 0.115 1.776 0.023 43.726 41.806
-112.200 -20.036 -0.138 -20.036 -0.137 -20.032 -0.122 -20.002 -0.113 -19.992 -0.116 -19.972 -0.122 -19.847 -0.171 12.387 0.116 1.782 0.023 43.727 41.809
-111.800 -20.038 -0.137 -20.038 -0.137 -20.035 -0.122 -20.006 -0.113 -19.996 -0.116 -19.976 -0.122 -19.851 -0.171 12.366 0.117 1.789 0.023 43.727 41.813
-111.400 -20.040 -0.137 -20.040 -0.136 -20.037 -0.121 -20.009 -0.113 -19.999 -0.115 -19.979 -0.122 -19.854 -0.171 12.345 0.118 1.796 0.024 43.727 41.816
-111.000 -20.043 -0.136 -20.043 -0.136 -20.040 -0.121 -20.013 -0.113 -20.003 -0.115 -19.983 -0.122 -19.858 -0.170 12.324 0.119 1.803 0.024 43.728 41.819
-110.600 -20.045 -0.136 -20.045 -0.135 -20.043 -0.120 -20.016 -0.113 -20.006 -0.115 -19.987 -0.121 -19.862 -0.170 12.304 0.120 1.809 0.024 43.728 41.822
-110.200 -20.047 -0.135 -20.047 -0.135 -20.045 -0.120 -20.020 -0.112 -20.010 -0.115 -19.991 -0.121 -19.866 -0.170 12.283 0.121 1.816 0.025 43.728 41.826
-109.800 -20.050 -0.135 -20.050 -0.134 -20.048 -0.119 -20.023 -0.112 -20.014 -0.115 -19.994 -0.121 -19.870 -0.170 12.263 0.122 1.823 0.025 43.729 41.829
-109.400 -20.052 -0.134 -20.052 -0.134 -20.051 -0.119 -20.027 -0.112 -20.017 -0.114 -19.998 -0.121 -19.873 -0.170 12.243 0.123 1.830 0.026 43.729 41.832
-109.000 -20.055 -0.133 -20.054 -0.133 -20.053 -0.118 -20.030 -0.112 -20.021 -0.114 -20.002 -0.121 -19.877 -0.169 12.224 0.124 1.837 0.026 43.730 41.836
-108.600 -20.057 -0.133 -20.057 -0.132 -20.056 -0.118 -20.034 -0.111 -20.025 -0.114 -20.006 -0.120 -19.881 -0.169 12.204 0.125 1.843 0.026 43.730 41.839
-108.200 -20.059 -0.132 -20.059 -0.132 -20.059 -0.117 -20.038 -0.111 -20.028 -0.114 -20.010 -0.120 -19.885 -0.169 12.185 0.126 1.850 0.027 43.731 41.843
-107.800 -20.062 -0.132 -20.062 -0.131 -20.061 -0.117 -20.041 -0.111 -20.032 -0.113 -20.013 -0.120 -19.889 -0.169 12.166 0.127 1.857 0.027 43.731 41.847
-107.400 -20.064 -0.131 -20.064 -0.131 -20.064 -0.116 -20.045 -0.110 -20.036 -0.113 -20.017 -0.120 -19.892 -0.169 12.147 0.128 1.864 0.028 43.731 41.850
-107.000 -20.067 -0.130 -20.067 -0.130 -20.067 -0.116 -20.048 -0.110 -20.040 -0.113 -20.021 -0.119 -19.896 -0.168 12.128 0.129 1.871 0.028 43.732 41.854
-106.600 -20.069 -0.130 -20.069 -0.129 -20.070 -0.115 -20.052 -0.110 -20.043 -0.112 -20.025 -0.119 -19.900 -0.168 12.110 0.130 1.877 0.029 43.732 41.857
-106.200 -20.072 -0.129 -20.072 -0.129 -20.073 -0.115 -20.056 -0.109 -20.047 -0.112 -20.029 -0.119 -19.904 -0.168 12.091 0.131 1.884 0.029 43.733 41.861
-105.800 -20.074 -0.128 -20.074 -0.128 -20.075 -0.114 -20.059 -0.109 -20.051 -0.112 -20.033 -0.118 -19.908 -0.167 12.073 0.133 1.891 0.029 43.734 41.865
-105.400 -20.077 -0.128 -20.077 -0.127 -20.078 -0.113 -20.063 -0.109 -20.055 -0.111 -20.036 -0.118 -19.911 -0.167 12.055 0.134 1.898 0.030 43.734 41.869
-105.000 -20.079 -0.127 -20.079 -0.127 -20.081 -0.113 -20.067 -0.108 -20.058 -0.111 -20.040 -0.118 -19.915 -0.167 12.038 0.135 1.905 0.030 43.735 41.873
-104.600 -20.082 -0.126 -20.082 -0.126 -20.084 -0.112 -20.070 -0.108 -20.062 -0.111 -20.044 -0.117 -19.919 -0.167 12.020 0.136 1.912 0.031 43.735 41.876
-104.200 -20.084 -0.126 -20.085 -0.125 -20.087 -0.112 -20.074 -0.107 -20.066 -0.110 -20.048 -0.117 -19.923 -0.166 12.003 0.137 1.918 0.031 43.736 41.880
-103.800 -20.087 -0.125 -20.087 -0.125 -20.090 -0.111 -20.078 -0.107 -20.070 -0.110 -20.052 -0.117 -19.926 -0.166 11.986 0.139 1.925 0.032 43.737 41.884
-103.400 -20.090 -0.124 -20.090 -0.124 -20.093 -0.110 -20.082 -0.107 -20.074 -0.109 -20.056 -0.116 -19.930 -0.166 11.969 0.140 1.932 0.032 43.737 41.888
-103.000 -20.092 -0.124 -20.092 -0.123 -20.096 -0.110 -20.085 -0.106 -20.077 -0.109 -20.060 -0.116 -19.934 -0.165 11.953 0.141 1.939 0.033 43.738 41.892
-102.600 -20.095 -0.123 -20.095 -0.123 -20.099 -0.109 -20.089 -0.106 -20.081 -0.109 -20.064 -0.115 -19.938 -0.165 11.936 0.143 1.946 0.033 43.738 41.896
-102.200 -20.098 -0.122 -20.098 -0.122 -20.102 -0.108 -20.093 -0.105 -20.085 -0.108 -20.068 -0.115 -19.941 -0.165 11.920 0.144 1.952 0.034 43.739 41.900
-101.800 -20.100 -0.121 -20.100 -0.121 -20.105 -0.108 -20.097 -0.105 -20.089 -0.108 -20.072 -0.115 -19.945 -0.164 11.904 0.145 1.959 0.034 43.740 41.904
-101.400 -20.103 -0.121 -20.103 -0.120 -20.108 -0.107 -20.100 -0.104 -20.093 -0.107 -20.076 -0.114 -19.949 -0.164 11.889 0.147 1.966 0.035 43.741 41.908
-101.000 -20.106 -0.120 -20.106 -0.120 -20.111 -0.106 -20.104 -0.104 -20.097 -0.107 -20.080 -0.114 -19.953 -0.163 11.873 0.148 1.973 0.035 43.741 41.912
-100.600 -20.109 -0.119 -20.109 -0.119 -20.114 -0.106 -20.108 -0.103 -20.101 -0.106 -20.083 -0.113 -19.956 -0.163 11.858 0.149 1.980 0.036 43.742 41.917
-100.200 -20.111 -0.118 -20.111 -0.118 -20.117 -0.105 -20.112 -0.103 -20.104 -0.106 -20.087 -0.113 -19.960 -0.163 11.843 0.151 1.986 0.037 43.743 41.921
-99.800 -20.114 -0.118 -20.114 -0.117 -20.120 -0.104 -20.116 -0.102 -20.108 -0.105 -20.091 -0.112 -19.964 -0.162 11.828 0.152 1.993 0.037 43.744 41.925
-99.400 -20.117 -0.117 -20.117 -0.116 -20.123 -0.104 -20.120 -0.102 -20.112 -0.105 -20.095 -0.112 -19.967 -0.162 11.813 0.154 2.000 0.038 43.744 41.929
-99.000 -20.120 -0.116 -20.120 -0.116 -20.127 -0.103 -20.123 -0.101 -20.116 -0.104 -20.099 -0.111 -19.971 -0.161 11.799 0.155 2.007 0.038 43.745 41.934
-98.600 -20.123 -0.115 -20.123 -0.115 -20.130 -0.102 -20.127 -0.100 -20.120 -0.104 -20.103 -0.111 -19.975 -0.161 11.785 0.157 2.013 0.039 43.746 41.938
-98.200 -20.125 -0.115 -20.126 -0.114 -20.133 -0.101 -20.131 -0.100 -20.124 -0.103 -20.107 -0.110 -19.978 -0.161 11.771 0.158 2.020 0.040 43.747 41.942
-97.800 -20.128 -0.114 -20.128 -0.113 -20.136 -0.101 -20.135 -0.099 -20.128 -0.102 -20.111 -0.110 -19.982 -0.160 11.757 0.160 2.027 0.040 43.748 41.947
-97.400 -20.131 -0.113 -20.131 -0.113 -20.139 -0.100 -20.139 -0.099 -20.132 -0.102 -20.115 -0.109 -19.985 -0.160 11.743 0.161 2.033 0.041 43.748 41.951
-97.000 -20.134 -0.112 -20.134 -0.112 -20.142 -0.099 -20.143 -0.098 -20.136 -0.101 -20.119 -0.108 -19.989 -0.159 11.730 0.163 2.040 0.041 43.749 41.956
-96.600 -20.137 -0.111 -20.137 -0.111 -20.146 -0.098 -20.147 -0.097 -20.140 -0.101 -20.123 -0.108 -19.993 -0.159 11.717 0.165 2.047 0.042 43.750 41.960
-96.200 -20.140 -0.110 -20.140 -0.110 -20.149 -0.098 -20.151 -0.097 -20.144 -0.100 -20.127 -0.107 -19.996 -0.158 11.704 0.166 2.053 0.043 43.751 41.964
-95.800 -20.143 -0.110 -20.143 -0.109 -20.152 -0.097 -20.155 -0.096 -20.148 -0.099 -20.131 -0.107 -20.000 -0.158 11.691 0.168 2.060 0.043 43.752 41.969
-95.400 -20.146 -0.109 -20.146 -0.108 -20.156 -0.096 -20.159 -0.096 -20.152 -0.099 -20.135 -0.106 -20.003 -0.157 11.679 0.170 2.066 0.044 43.753 41.973
-95.000 -20.149 -0.108 -20.149 -0.107 -20.159 -0.095 -20.162 -0.095 -20.156 -0.098 -20.139 -0.105 -20.007 -0.157 11.667 0.171 2.073 0.045 43.754 41.978
-94.600 -20.152 -0.107 -20.152 -0.107 -20.162 -0.095 -20.166 -0.094 -20.160 -0.097 -20.143 -0.105 -20.010 -0.156 11.655 0.173 2.079 0.045 43.755 41.983
-94.200 -20.155 -0.106 -20.155 -0.106 -20.165 -0.094 -20.170 -0.094 -20.164 -0.097 -20.147 -0.104 -20.014 -0.156 11.643 0.175 2.086 0.046 43.756 41.987
-93.800 -20.158 -0.105 -20.158 -0.105 -20.169 -0.093 -20.174 -0.093 -20.168 -0.096 -20.151 -0.103 -20.017 -0.155 11.632 0.176 2.092 0.047 43.757 41.992
-93.400 -20.161 -0.104 -20.161 -0.104 -20.172 -0.092 -20.178 -0.092 -20.172 -0.095 -20.155 -0.103 -20.021 -0.155 11.620 0.178 2.099 0.047 43.758 41.996
-93.000 -20.164 -0.104 -20.164 -0.103 -20.176 -0.091 -20.182 -0.092 -20.176 -0.095 -20.159 -0.102 -20.024 -0.154 11.609 0.180 2.105 0.048 43.759 42.001
-92.600 -20.167 -0.103 -20.167 -0.102 -20.179 -0.091 -20.186 -0.091 -20.180 -0.094 -20.163 -0.101 -20.028 -0.154 11.598 0.182 2.112 0.049 43.760 42.006
-92.200 -20.170 -0.102 -20.170 -0.101 -20.182 -0.090 -20.190 -0.090 -20.184 -0.093 -20.167 -0.101 -20.031 -0.153 11.588 0.183 2.118 0.050 43.761 42.010
-91.800 -20.173 -0.101 -20.174 -0.100 -20.186 -0.089 -20.194 -0.089 -20.188 -0.093 -20.171 -0.100 -20.035 -0.152 11.578 0.185 2.124 0.050 43.762 42.015
-91.400 -20.176 -0.100 -20.177 -0.100 -20.189 -0.088 -20.198 -0.089 -20.192 -0.092 -20.175 -0.099 -20.038 -0.152 11.568 0.187 2.131 0.051 43.763 42.019
-91.000 -20.180 -0.099 -20.180 -0.099 -20.193 -0.087 -20.202 -0.088 -20.196 -0.091 -20.179 -0.099 -20.041 -0.151 11.558 0.189 2.137 0.052 43.764 42.024
-90.600 -20.183 -0.098 -20.183 -0.098 -20.196 -0.087 -20.206 -0.087 -20.200 -0.090 -20.183 -0.098 -20.045 -0.151 11.548 0.191 2.143 0.053 43.765 42.029
-90.200 -20.186 -0.097 -20.186 -0.097 -20.200 -0.086 -20.210 -0.087 -20.204 -0.090 -20.187 -0.097 -20.048 -0.150 11.539 0.192 2.149 0.053 43.766 42.033
-89.800 -20.189 -0.096 -20.189 -0.096 -20.203 -0.085 -20.214 -0.086 -20.208 -0.089 -20.191 -0.096 -20.051 -0.150 11.530 0.194 2.155 0.054 43.767 42.038
-89.400 -20.192 -0.095 -20.193 -0.095 -20.207 -0.084 -20.218 -0.085 -20.212 -0.088 -20.195 -0.096 -20.055 -0.149 11.521 0.196 2.161 0.055 43.768 42.042
-89.000 -20.196 -0.095 -20.196 -0.094 -20.210 -0.083 -20.222 -0.084 -20.216 -0.087 -20.199 -0.095 -20.058 -0.148 11.513 0.198 2.167 0.055 43.769 42.047
-88.600 -20.199 -0.094 -20.199 -0.093 -20.214 -0.082 -20.226 -0.084 -20.220 -0.087 -20.203 -0.094 -20.061 -0.148 11.505 0.200 2.173 0.056 43.771 42.051
-88.200 -20.202 -0.093 -20.202 -0.092 -20.217 -0.082 -20.230 -0.083 -20.224 -0.086 -20.207 -0.093 -20.064 -0.147 11.497 0.201 2.179 0.057 43.772 42.056
-87.800 -20.205 -0.092 -20.206 -0.091 -20.221 -0.081 -20.234 -0.082 -20.228 -0.085 -20.211 -0.093 -20.068 -0.147 11.489 0.203 2.185 0.058 43.773 42.060
-87.400 -20.209 -0.091 -20.209 -0.090 -20.224 -0.080 -20.238 -0.081 -20.232 -0.084 -20.215 -0.092 -20.071 -0.146 11.482 0.205 2.191 0.058 43.774 42.065
-87.000 -20.212 -0.090 -20.212 -0.090 -20.228 -0.079 -20.242 -0.081 -20.236 -0.084 -20.218 -0.091 -20.074 -0.145 11.475 0.207 2.196 0.059 43.775 42.069
-86.600 -20.215 -0.089 -20.216 -0.089 -20.231 -0.078 -20.246 -0.080 -20.240 -0.083 -20.222 -0.090 -20.077 -0.145 11.468 0.209 2.202 0.060 43.776 42.074
-86.200 -20.219 -0.088 -20.219 -0.088 -20.235 -0.077 -20.250 -0.079 -20.244 -0.082 -20.226 -0.090 -20.080 -0.144 11.462 0.211 2.208 0.061 43.778 42.078
-85.800 -20.222 -0.087 -20.222 -0.087 -20.239 -0.077 -20.254 -0.078 -20.248 -0.081 -20.230 -0.089 -20.083 -0.143 11.456 0.212 2.213 0.061 43.779 42.082
-85.400 -20.225 -0.086 -20.226 -0.086 -20.242 -0.076 -20.258 -0.078 -20.252 -0.081 -20.234 -0.088 -20.087 -0.143 11.450 0.214 2.218 0.062 43.780 42.087
-85.000 -20.229 -0.085 -20.229 -0.085 -20.246 -0.075 -20.262 -0.077 -20.256 -0.080 -20.238 -0.087 -20.090 -0.142 11.444 0.216 2.224 0.063 43.781 42.091
-84.600 -20.232 -0.084 -20.233 -0.084 -20.250 -0.074 -20.266 -0.076 -20.260 -0.079 -20.242 -0.087 -20.093 -0.142 11.439 0.218 2.229 0.064 43.783 42.095
-84.200 -20.236 -0.083 -20.236 -0.083 -20.253 -0.073 -20.270 -0.075 -20.263 -0.078 -20.245 -0.086 -20.096 -0.141 11.434 0.219 2.234 0.064 43.784 42.100
-83.800 -20.239 -0.082 -20.239 -0.082 -20.257 -0.073 -20.274 -0.074 -20.267 -0.077 -20.249 -0.085 -20.099 -0.140 11.430 0.221 2.239 0.065 43.785 42.104
-83.400 -20.242 -0.082 -20.243 -0.081 -20.261 -0.072 -20.278 -0.074 -20.271 -0.077 -20.253 -0.084 -20.102 -0.140 11.426 0.223 2.244 0.066 43.787 42.108
-83.000 -20.246 -0.081 -20.246 -0.080 -20.265 -0.071 -20.282 -0.073 -20.275 -0.076 -20.257 -0.084 -20.104 -0.139 11.422 0.225 2.249 0.067 43.788 42.112
-82.600 -20.249 -0.080 -20.250 -0.079 -20.268 -0.070 -20.286 -0.072 -20.279 -0.075 -20.260 -0.083 -20.107 -0.138 11.418 0.226 2.254 0.067 43.789 42.116
-82.200 -20.253 -0.079 -20.253 -0.078 -20.272 -0.069 -20.290 -0.071 -20.283 -0.074 -20.264 -0.082 -20.110 -0.138 11.415 0.228 2.259 0.068 43.791 42.121
-81.800 -20.256 -0.078 -20.257 -0.077 -20.276 -0.069 -20.294 -0.071 -20.287 -0.074 -20.268 -0.081 -20.113 -0.137 11.412 0.230 2.264 0.069 43.792 42.125
-81.400 -20.260 -0.077 -20.260 -0.077 -20.279 -0.068 -20.297 -0.070 -20.291 -0.073 -20.271 -0.080 -20.116 -0.136 11.410 0.231 2.268 0.069 43.793 42.129
-81.000 -20.263 -0.076 -20.264 -0.076 -20.283 -0.067 -20.301 -0.069 -20.294 -0.072 -20.275 -0.080 -20.119 -0.136 11.408 0.233 2.273 0.070 43.795 42.133
-80.600 -20.267 -0.075 -20.267 -0.075 -20.287 -0.066 -20.305 -0.069 -20.298 -0.071 -20.279 -0.079 -20.121 -0.135 11.406 0.235 2.277 0.071 43.796 42.137
-80.200 -20.270 -0.074 -20.271 -0.074 -20.291 -0.066 -20.309 -0.068 -20.302 -0.071 -20.282 -0.078 -20.124 -0.134 11.404 0.236 2.281 0.071 43.798 42.141
-79.800 -20.274 -0.073 -20.274 -0.073 -20.294 -0.065 -20.313 -0.067 -20.306 -0.070 -20.286 -0.078 -20.127 -0.134 11.403 0.238 2.286 0.072 43.799 42.144
-79.400 -20.277 -0.072 -20.278 -0.072 -20.298 -0.064 -20.317 -0.066 -20.309 -0.069 -20.290 -0.077 -20.129 -0.133 11.402 0.239 2.290 0.073 43.800 42.148
-79.000 -20.281 -0.071 -20.281 -0.071 -20.302 -0.063 -20.320 -0.066 -20.313 -0.068 -20.293 -0.076 -20.132 -0.132 11.402 0.241 2.294 0.073 43.802 42.152
-78.600 -20.284 -0.071 -20.285 -0.070 -20.306 -0.063 -20.324 -0.065 -20.317 -0.068 -20.297 -0.075 -20.135 -0.132 11.402 0.243 2.297 0.074 43.803 42.156
-78.200 -20.288 -0.070 -20.288 -0.069 -20.310 -0.062 -20.328 -0.064 -20.320 -0.067 -20.300 -0.075 -20.137 -0.131 11.402 0.244 2.301 0.075 43.805 42.160
-77.800 -20.291 -0.069 -20.292 -0.068 -20.313 -0.061 -20.332 -0.064 -20.324 -0.066 -20.303 -0.074 -20.140 -0.130 11.403 0.246 2.305 0.075 43.806 42.164
-77.400 -20.295 -0.068 -20.295 -0.068 -20.317 -0.061 -20.335 -0.063 -20.328 -0.066 -20.307 -0.073 -20.142 -0.130 11.404 0.247 2.308 0.076 43.808 42.167
-77.000 -20.298 -0.067 -20.299 -0.067 -20.321 -0.060 -20.339 -0.062 -20.331 -0.065 -20.310 -0.073 -20.145 -0.129 11.406 0.249 2.311 0.076 43.809 42.171
-76.600 -20.302 -0.066 -20.302 -0.066 -20.325 -0.059 -20.343 -0.062 -20.335 -0.064 -20.314 -0.072 -20.147 -0.128 11.408 0.250 2.315 0.077 43.811 42.175
-76.200 -20.305 -0.065 -20.306 -0.065 -20.328 -0.059 -20.346 -0.061 -20.338 -0.064 -20.317 -0.071 -20.149 -0.128 11.410 0.252 2.318 0.077 43.812 42.178
-75.800 -20.309 -0.064 -20.309 -0.064 -20.332 -0.058 -20.350 -0.061 -20.342 -0.063 -20.320 -0.070 -20.152 -0.127 11.413 0.253 2.321 0.078 43.814 42.182
-75.400 -20.312 -0.064 -20.313 -0.063 -20.336 -0.057 -20.353 -0.060 -20.345 -0.062 -20.323 -0.070 -20.154 -0.126 11.416 0.255 2.323 0.079 43.815 42.186
-75.000 -20.316 -0.063 -20.316 -0.062 -20.340 -0.057 -20.357 -0.059 -20.349 -0.062 -20.327 -0.069 -20.156 -0.126 11.419 0.256 2.326 0.079 43.817 42.189
-74.600 -20.319 -0.062 -20.320 -0.062 -20.343 -0.056 -20.360 -0.059 -20.352 -0.061 -20.330 -0.069 -20.159 -0.125 11.423 0.258 2.329 0.080 43.818 42.193
-74.200 -20.323 -0.061 -20.323 -0.061 -20.347 -0.055 -20.364 -0.058 -20.355 -0.061 -20.333 -0.068 -20.161 -0.124 11.427 0.259 2.331 0.080 43.820 42.197
-73.800 -20.326 -0.060 -20.327 -0.060 -20.351 -0.055 -20.367 -0.058 -20.359 -0.060 -20.336 -0.067 -20.163 -0.124 11.432 0.261 2.333 0.081 43.821 42.200
-73.400 -20.330 -0.059 -20.330 -0.059 -20.354 -0.054 -20.371 -0.057 -20.362 -0.059 -20.339 -0.067 -20.165 -0.123 11.437 0.262 2.335 0.081 43.823 42.204
-73.000 -20.333 -0.059 -20.334 -0.058 -20.358 -0.054 -20.374 -0.057 -20.365 -0.059 -20.342 -0.066 -20.167 -0.122 11.443 0.264 2.337 0.082 43.824 42.208
-72.600 -20.337 -0.058 -20.337 -0.058 -20.362 -0.053 -20.377 -0.056 -20.368 -0.058 -20.345 -0.066 -20.169 -0.122 11.449 0.265 2.339 0.082 43.826 42.212
-72.200 -20.340 -0.057 -20.341 -0.057 -20.365 -0.052 -20.381 -0.056 -20.372 -0.058 -20.348 -0.065 -20.171 -0.121 11.455 0.267 2.340 0.083 43.827 42.216
-71.800 -20.344 -0.056 -20.344 -0.056 -20.369 -0.052 -20.384 -0.055 -20.375 -0.057 -20.351 -0.064 -20.173 -0.120 11.462 0.268 2.342 0.083 43.829 42.219
-71.400 -20.347 -0.056 -20.348 -0.055 -20.373 -0.051 -20.387 -0.055 -20.378 -0.057 -20.354 -0.064 -20.175 -0.119 11.469 0.270 2.343 0.084 43.831 42.223
-71.000 -20.351 -0.055 -20.351 -0.055 -20.376 -0.051 -20.390 -0.054 -20.381 -0.056 -20.357 -0.063 -20.177 -0.119 11.477 0.272 2.344 0.084 43.832 42.227
-70.600 -20.354 -0.054 -20.355 -0.054 -20.380 -0.050 -20.394 -0.054 -20.384 -0.056 -20.360 -0.063 -20.179 -0.118 11.485 0.273 2.346 0.085 43.834 42.231
-70.200 -20.358 -0.054 -20.358 -0.053 -20.383 -0.050 -20.397 -0.053 -20.387 -0.055 -20.362 -0.062 -20.181 -0.117 11.493 0.275 2.346 0.085 43.835 42.236
-69.800 -20.361 -0.053 -20.362 -0.053 -20.387 -0.049 -20.400 -0.053 -20.390 -0.055 -20.365 -0.062 -20.182 -0.117 11.502 0.277 2.347 0.086 43.837 42.240
-69.400 -20.365 -0.052 -20.365 -0.052 -20.391 -0.049 -20.403 -0.053 -20.393 -0.054 -20.368 -0.061 -20.184 -0.116 11.511 0.279 2.348 0.086 43.839 42.244
-69.000 -20.368 -0.052 -20.369 -0.051 -20.394 -0.049 -20.406 -0.052 -20.396 -0.054 -20.371 -0.061 -20.186 -0.115 11.521 0.281 2.348 0.087 43.840 42.249
-68.600 -20.371 -0.051 -20.372 -0.051 -20.398 -0.048 -20.409 -0.052 -20.399 -0.054 -20.373 -0.060 -20.187 -0.115 11.531 0.282 2.348 0.087 43.842 42.254
-68.200 -20.375 -0.051 -20.375 -0.050 -20.401 -0.048 -20.412 -0.051 -20.401 -0.053 -20.376 -0.060 -20.189 -0.114 11.542 0.285 2.348 0.088 43.843 42.258
-67.800 -20.378 -0.050 -20.379 -0.050 -20.405 -0.047 -20.415 -0.051 -20.404 -0.053 -20.378 -0.060 -20.191 -0.113 11.553 0.287 2.348 0.088 43.845 42.263
-67.400 -20.381 -0.050 -20.382 -0.049 -20.408 -0.047 -20.418 -0.051 -20.407 -0.052 -20.381 -0.059 -20.192 -0.113 11.564 0.289 2.348 0.089 43.847 42.268
-67.000 -20.385 -0.049 -20.385 -0.049 -20.411 -0.047 -20.421 -0.050 -20.410 -0.052 -20.383 -0.059 -20.193 -0.112 11.576 0.291 2.348 0.089 43.848 42.274
-66.600 -20.388 -0.049 -20.389 -0.048 -20.415 -0.046 -20.424 -0.050 -20.412 -0.052 -20.386 -0.058 -20.195 -0.111 11.588 0.294 2.348 0.090 43.850 42.279
-66.200 -20.391 -0.048 -20.392 -0.048 -20.418 -0.046 -20.427 -0.050 -20.415 -0.051 -20.388 -0.058 -20.196 -0.111 11.600 0.296 2.347 0.090 43.852 42.285
-65.800 -20.395 -0.048 -20.395 -0.047 -20.421 -0.046 -20.429 -0.049 -20.418 -0.051 -20.390 -0.057 -20.198 -0.110 11.613 0.299 2.346 0.091 43.853 42.290
-65.400 -20.398 -0.047 -20.399 -0.047 -20.425 -0.046 -20.432 -0.049 -20.420 -0.051 -20.393 -0.057 -20.199 -0.109 11.626 0.301 2.345 0.092 43.855 42.296
-65.000 -20.401 -0.047 -20.402 -0.047 -20.428 -0.045 -20.435 -0.049 -20.423 -0.050 -20.395 -0.057 -20.200 -0.109 11.639 0.304 2.345 0.092 43.857 42.302
-64.600 -20.404 -0.047 -20.405 -0.046 -20.431 -0.045 -20.437 -0.049 -20.425 -0.050 -20.397 -0.056 -20.201 -0.108 11.652 0.307 2.344 0.093 43.858 42.308
-64.200 -20.407 -0.046 -20.408 -0.046 -20.434 -0.045 -20.440 -0.048 -20.428 -0.050 -20.399 -0.056 -20.203 -0.107 11.666 0.310 2.342 0.094 43.860 42.314
-63.800 -20.410 -0.046 -20.411 -0.046 -20.438 -0.045 -20.443 -0.048 -20.430 -0.049 -20.401 -0.056 -20.204 -0.107 11.680 0.313 2.341 0.094 43.861 42.321
-63.400 -20.413 -0.046 -20.414 -0.045 -20.441 -0.044 -20.445 -0.048 -20.432 -0.049 -20.403 -0.055 -20.205 -0.106 11.694 0.316 2.340 0.095 43.863 42.327
-63.000 -20.416 -0.045 -20.417 -0.045 -20.444 -0.044 -20.448 -0.047 -20.435 -0.049 -20.405 -0.055 -20.206 -0.105 11.708 0.320 2.339 0.096 43.865 42.334
-62.600 -20.419 -0.045 -20.420 -0.045 -20.447 -0.044 -20.450 -0.047 -20.437 -0.049 -20.407 -0.055 -20.207 -0.105 11.722 0.323 2.337 0.096 43.866 42.340
-62.200 -20.422 -0.045 -20.423 -0.045 -20.450 -0.044 -20.452 -0.047 -20.439 -0.048 -20.409 -0.054 -20.208 -0.104 11.737 0.326 2.335 0.097 43.868 42.347
-61.800 -20.425 -0.045 -20.426 -0.044 -20.453 -0.044 -20.455 -0.047 -20.441 -0.048 -20.411 -0.054 -20.209 -0.103 11.752 0.330 2.334 0.098 43.869 42.354
-61.400 -20.428 -0.044 -20.429 -0.044 -20.456 -0.043 -20.457 -0.046 -20.444 -0.048 -20.413 -0.054 -20.209 -0.103 11.767 0.333 2.332 0.099 43.871 42.361
-61.000 -20.431 -0.044 -20.432 -0.044 -20.459 -0.043 -20.459 -0.046 -20.446 -0.047 -20.415 -0.053 -20.210 -0.102 11.782 0.337 2.330 0.099 43.872 42.368
-60.600 -20.434 -0.044 -20.435 -0.044 -20.461 -0.043 -20.462 -0.046 -20.448 -0.047 -20.417 -0.053 -20.211 -0.101 11.797 0.340 2.328 0.100 43.874 42.375
-60.200 -20.437 -0.044 -20.437 -0.043 -20.464 -0.043 -20.464 -0.045 -20.450 -0.047 -20.418 -0.053 -20.212 -0.101 11.813 0.344 2.326 0.101 43.876 42.382
-59.800 -20.439 -0.043 -20.440 -0.043 -20.467 -0.043 -20.466 -0.045 -20.452 -0.047 -20.420 -0.052 -20.212 -0.100 11.829 0.348 2.324 0.102 43.877 42.389
-59.400 -20.442 -0.043 -20.443 -0.043 -20.470 -0.043 -20.468 -0.045 -20.453 -0.046 -20.421 -0.052 -20.213 -0.099 11.844 0.352 2.322 0.102 43.879 42.395
-59.000 -20.444 -0.043 -20.445 -0.043 -20.472 -0.042 -20.470 -0.045 -20.455 -0.046 -20.423 -0.052 -20.214 -0.099 11.860 0.355 2.320 0.103 43.880 42.402
-58.600 -20.447 -0.043 -20.448 -0.043 -20.475 -0.042 -20.472 -0.044 -20.457 -0.046 -20.424 -0.051 -20.214 -0.098 11.876 0.359 2.317 0.104 43.882 42.409
-58.200 -20.450 -0.043 -20.450 -0.042 -20.477 -0.042 -20.474 -0.044 -20.459 -0.045 -20.426 -0.051 -20.215 -0.097 11.892 0.363 2.315 0.105 43.883 42.416
-57.800 -20.452 -0.042 -20.453 -0.042 -20.480 -0.042 -20.476 -0.044 -20.460 -0.045 -20.427 -0.051 -20.215 -0.097 11.908 0.367 2.313 0.105 43.884 42.423
-57.400 -20.454 -0.042 -20.455 -0.042 -20.482 -0.042 -20.477 -0.043 -20.462 -0.045 -20.429 -0.050 -20.215 -0.096 11.924 0.371 2.310 0.106 43.886 42.430
-57.000 -20.457 -0.042 -20.458 -0.042 -20.485 -0.042 -20.479 -0.043 -20.464 -0.044 -20.430 -0.050 -20.216 -0.095 11.940 0.375 2.308 0.107 43.887 42.436
-56.600 -20.459 -0.042 -20.460 -0.042 -20.487 -0.042 -20.481 -0.043 -20.465 -0.044 -20.431 -0.050 -20.216 -0.095 11.957 0.378 2.305 0.107 43.889 42.443
-56.200 -20.461 -0.042 -20.462 -0.041 -20.489 -0.041 -20.482 -0.042 -20.467 -0.044 -20.432 -0.049 -20.216 -0.094 11.973 0.382 2.302 0.108 43.890 42.449
-55.800 -20.464 -0.041 -20.464 -0.041 -20.491 -0.041 -20.484 -0.042 -20.468 -0.043 -20.433 -0.049 -20.217 -0.093 11.989 0.386 2.300 0.109 43.891 42.456
-55.400 -20.466 -0.041 -20.466 -0.041 -20.493 -0.041 -20.485 -0.042 -20.469 -0.043 -20.434 -0.049 -20.217 -0.093 12.006 0.390 2.297 0.109 43.893 42.462
-55.000 -20.468 -0.041 -20.469 -0.041 -20.495 -0.041 -20.487 -0.041 -20.471 -0.043 -20.435 -0.048 -20.217 -0.092 12.022 0.393 2.294 0.110 43.894 42.468
-54.600 -20.470 -0.041 -20.471 -0.040 -20.497 -0.041 -20.488 -0.041 -20.472 -0.042 -20.436 -0.048 -20.217 -0.091 12.038 0.397 2.291 0.110 43.895 42.474
-54.200 -20.472 -0.040 -20.473 -0.040 -20.499 -0.041 -20.490 -0.041 -20.473 -0.042 -20.437 -0.048 -20.217 -0.091 12.055 0.401 2.289 0.111 43.897 42.480
-53.800 -20.474 -0.040 -20.475 -0.040 -20.501 -0.040 -20.491 -0.040 -20.474 -0.042 -20.438 -0.047 -20.217 -0.090 12.071 0.404 2.286 0.112 43.898 42.486
-53.400 -20.476 -0.040 -20.476 -0.040 -20.503 -0.040 -20.492 -0.040 -20.475 -0.041 -20.439 -0.047 -20.217 -0.090 12.087 0.408 2.283 0.112 43.899 42.492
-53.000 -20.477 -0.040 -20.478 -0.040 -20.505 -0.040 -20.493 -0.040 -20.476 -0.041 -20.439 -0.047 -20.217 -0.089 12.104 0.411 2.280 0.113 43.900 42.498
-52.600 -20.479 -0.039 -20.480 -0.039 -20.506 -0.040 -20.494 -0.039 -20.477 -0.041 -20.440 -0.046 -20.217 -0.088 12.120 0.415 2.277 0.113 43.901 42.503
-52.200 -20.481 -0.039 -20.482 -0.039 -20.508 -0.040 -20.495 -0.039 -20.478 -0.040 -20.440 -0.046 -20.217 -0.088 12.136 0.418 2.273 0.113 43.903 42.508
-51.800 -20.483 -0.039 -20.483 -0.039 -20.510 -0.040 -20.496 -0.039 -20.479 -0.040 -20.441 -0.046 -20.216 -0.087 12.152 0.421 2.270 0.114 43.904 42.514
-51.400 -20.484 -0.039 -20.485 -0.039 -20.511 -0.039 -20.497 -0.038 -20.479 -0.040 -20.441 -0.045 -20.216 -0.086 12.169 0.424 2.267 0.114 43.905 42.519
-51.000 -20.486 -0.038 -20.487 -0.038 -20.513 -0.039 -20.498 -0.038 -20.480 -0.039 -20.442 -0.045 -20.216 -0.086 12.185 0.428 2.264 0.115 43.906 42.524
-50.600 -20.487 -0.038 -20.488 -0.038 -20.514 -0.039 -20.499 -0.037 -20.480 -0.039 -20.442 -0.045 -20.215 -0.085 12.201 0.431 2.261 0.115 43.907 42.529
-50.200 -20.489 -0.038 -20.489 -0.038 -20.515 -0.039 -20.499 -0.037 -20.481 -0.038 -20.442 -0.044 -20.215 -0.084 12.218 0.434 2.257 0.115 43.908 42.533
-49.800 -20.490 -0.038 -20.491 -0.038 -20.516 -0.039 -20.500 -0.037 -20.481 -0.038 -20.442 -0.044 -20.215 -0.084 12.234 0.437 2.254 0.116 43.909 42.538
-49.400 -20.491 -0.037 -20.492 -0.037 -20.517 -0.039 -20.500 -0.036 -20.482 -0.038 -20.443 -0.044 -20.214 -0.083 12.251 0.439 2.250 0.116 43.910 42.543
-49.000 -20.493 -0.037 -20.493 -0.037 -20.519 -0.038 -20.501 -0.036 -20.482 -0.037 -20.443 -0.043 -20.214 -0.083 12.267 0.442 2.247 0.116 43.911 42.547
-48.600 -20.494 -0.037 -20.495 -0.037 -20.520 -0.038 -20.501 -0.036 -20.482 -0.037 -20.443 -0.043 -20.213 -0.082 12.284 0.445 2.243 0.116 43.912 42.552
-48.200 -20.495 -0.037 -20.496 -0.037 -20.520 -0.038 -20.501 -0.035 -20.482 -0.037 -20.443 -0.043 -20.212 -0.081 12.301 0.448 2.239 0.117 43.913 42.556
-47.800 -20.496 -0.037 -20.497 -0.036 -20.521 -0.038 -20.502 -0.035 -20.482 -0.036 -20.442 -0.042 -20.212 -0.081 12.318 0.450 2.235 0.117 43.914 42.560
-47.400 -20.497 -0.036 -20.498 -0.036 -20.522 -0.038 -20.502 -0.035 -20.483 -0.036 -20.442 -0.042 -20.211 -0.080 12.335 0.453 2.232 0.117 43.915 42.564
-47.000 -20.498 -0.036 -20.499 -0.036 -20.523 -0.038 -20.502 -0.034 -20.482 -0.036 -20.442 -0.042 -20.211 -0.080 12.352 0.456 2.227 0.117 43.915 42.568
-46.600 -20.499 -0.036 -20.499 -0.036 -20.523 -0.038 -20.502 -0.034 -20.482 -0.035 -20.442 -0.042 -20.210 -0.079 12.370 0.458 2.223 0.117 43.916 42.572
-46.200 -20.499 -0.036 -20.500 -0.036 -20.524 -0.037 -20.502 -0.034 -20.482 -0.035 -20.441 -0.041 -20.209 -0.078 12.388 0.461 2.219 0.117 43.917 42.576
-45.800 -20.500 -0.036 -20.501 -0.035 -20.525 -0.037 -20.502 -0.033 -20.482 -0.035 -20.441 -0.041 -20.208 -0.078 12.406 0.463 2.215 0.117 43.918 42.580
-45.400 -20.501 -0.035 -20.502 -0.035 -20.525 -0.037 -20.501 -0.033 -20.482 -0.035 -20.440 -0.041 -20.207 -0.077 12.424 0.466 2.210 0.117 43.919 42.584
-45.000 -20.501 -0.035 -20.502 -0.035 -20.525 -0.037 -20.501 -0.033 -20.481 -0.034 -20.440 -0.041 -20.206 -0.077 12.443 0.468 2.206 0.117 43.920 42.588
-44.600 -20.502 -0.035 -20.503 -0.035 -20.526 -0.037 -20.501 -0.033 -20.481 -0.034 -20.439 -0.040 -20.206 -0.076 12.462 0.471 2.201 0.117 43.920 42.592
-44.200 -20.503 -0.035 -20.503 -0.035 -20.526 -0.037 -20.500 -0.032 -20.480 -0.034 -20.438 -0.040 -20.205 -0.076 12.481 0.473 2.196 0.117 43.921 42.595
-43.800 -20.503 -0.035 -20.504 -0.035 -20.526 -0.037 -20.500 -0.032 -20.479 -0.034 -20.438 -0.040 -20.204 -0.075 12.500 0.476 2.191 0.117 43.922 42.599
-43.400 -20.503 -0.035 -20.504 -0.035 -20.526 -0.037 -20.499 -0.032 -20.479 -0.034 -20.437 -0.040 -20.203 -0.075 12.520 0.478 2.186 0.117 43.923 42.603
-43.000 -20.504 -0.035 -20.504 -0.035 -20.526 -0.037 -20.499 -0.032 -20.478 -0.033 -20.436 -0.040 -20.202 -0.074 12.540 0.481 2.181 0.117 43.923 42.606
-42.600 -20.504 -0.035 -20.505 -0.035 -20.526 -0.037 -20.498 -0.032 -20.477 -0.033 -20.435 -0.039 -20.201 -0.074 12.560 0.483 2.176 0.117 43.924 42.610
-42.200 -20.504 -0.035 -20.505 -0.034 -20.526 -0.037 -20.497 -0.032 -20.476 -0.033 -20.434 -0.039 -20.200 -0.073 12.581 0.485 2.170 0.117 43.925 42.613
-41.800 -20.504 -0.035 -20.505 -0.034 -20.526 -0.036 -20.496 -0.032 -20.475 -0.033 -20.433 -0.039 -20.198 -0.073 12.602 0.488 2.165 0.117 43.925 42.617
-41.400 -20.504 -0.035 -20.505 -0.034 -20.526 -0.036 -20.495 -0.032 -20.474 -0.033 -20.432 -0.039 -20.197 -0.072 12.623 0.490 2.159 0.117 43.926 42.620
-41.000 -20.504 -0.035 -20.505 -0.034 -20.526 -0.036 -20.494 -0.031 -20.473 -0.033 -20.431 -0.039 -20.196 -0.072 12.645 0.492 2.154 0.117 43.927 42.623
-40.600 -20.504 -0.034 -20.505 -0.034 -20.526 -0.036 -20.493 -0.031 -20.472 -0.033 -20.430 -0.039 -20.195 -0.071 12.666 0.494 2.148 0.116 43.927 42.627
-40.200 -20.504 -0.034 -20.505 -0.034 -20.525 -0.036 -20.492 -0.031 -20.471 -0.033 -20.429 -0.039 -20.194 -0.071 12.688 0.497 2.142 0.116 43.928 42.630
-39.800 -20.504 -0.034 -20.505 -0.034 -20.525 -0.036 -20.491 -0.031 -20.470 -0.033 -20.428 -0.039 -20.193 -0.070 12.711 0.499 2.136 0.116 43.929 42.633
-39.400 -20.504 -0.034 -20.505 -0.034 -20.525 -0.036 -20.490 -0.031 -20.469 -0.033 -20.426 -0.039 -20.191 -0.070 12.733 0.501 2.130 0.116 43.929 42.636
-39.000 -20.504 -0.035 -20.505 -0.034 -20.524 -0.036 -20.489 -0.031 -20.467 -0.033 -20.425 -0.039 -20.190 -0.070 12.756 0.503 2.124 0.116 43.930 42.639
-38.600 -20.504 -0.035 -20.505 -0.034 -20.524 -0.036 -20.487 -0.031 -20.466 -0.033 -20.424 -0.038 -20.189 -0.069 12.779 0.505 2.118 0.115 43.931 42.642
-38.200 -20.504 -0.035 -20.504 -0.034 -20.523 -0.036 -20.486 -0.032 -20.465 -0.033 -20.422 -0.038 -20.188 -0.069 12.803 0.507 2.112 0.115 43.931 42.645
-37.800 -20.503 -0.035 -20.504 -0.034 -20.522 -0.036 -20.485 -0.032 -20.463 -0.033 -20.421 -0.038 -20.186 -0.068 12.826 0.509 2.106 0.115 43.932 42.648
-37.400 -20.503 -0.035 -20.504 -0.034 -20.522 -0.036 -20.483 -0.032 -20.462 -0.033 -20.419 -0.038 -20.185 -0.068 12.849 0.511 2.099 0.114 43.933 42.650
-37.000 -20.503 -0.035 -20.503 -0.035 -20.521 -0.036 -20.482 -0.032 -20.461 -0.033 -20.418 -0.038 -20.184 -0.068 12.873 0.512 2.093 0.114 43.933 42.653
-36.600 -20.502 -0.035 -20.503 -0.035 -20.521 -0.036 -20.481 -0.032 -20.459 -0.033 -20.417 -0.038 -20.182 -0.067 12.896 0.514 2.087 0.114 43.934 42.655
-36.200 -20.502 -0.035 -20.503 -0.035 -20.520 -0.037 -20.479 -0.032 -20.458 -0.033 -20.415 -0.038 -20.181 -0.067 12.920 0.516 2.081 0.113 43.934 42.658
-35.800 -20.502 -0.035 -20.502 -0.035 -20.519 -0.037 -20.478 -0.032 -20.456 -0.033 -20.414 -0.038 -20.180 -0.067 12.943 0.517 2.075 0.113 43.935 42.660
-35.400 -20.501 -0.035 -20.502 -0.035 -20.518 -0.037 -20.476 -0.032 -20.454 -0.033 -20.412 -0.038 -20.178 -0.066 12.967 0.519 2.068 0.113 43.935 42.662
-35.000 -20.501 -0.035 -20.501 -0.035 -20.518 -0.037 -20.475 -0.032 -20.453 -0.033 -20.410 -0.038 -20.177 -0.066 12.990 0.520 2.062 0.112 43.936 42.665
-34.600 -20.500 -0.035 -20.501 -0.035 -20.517 -0.037 -20.473 -0.032 -20.451 -0.033 -20.409 -0.038 -20.176 -0.066 13.013 0.522 2.056 0.112 43.936 42.667
-34.200 -20.500 -0.035 -20.500 -0.035 -20.516 -0.037 -20.472 -0.032 -20.450 -0.033 -20.407 -0.038 -20.174 -0.065 13.036 0.523 2.050 0.112 43.937 42.669
-33.800 -20.499 -0.035 -20.500 -0.035 -20.515 -0.037 -20.470 -0.033 -20.448 -0.034 -20.406 -0.038 -20.173 -0.065 13.059 0.524 2.044 0.111 43.938 42.671
-33.400 -20.499 -0.035 -20.499 -0.035 -20.515 -0.037 -20.468 -0.033 -20.447 -0.034 -20.404 -0.038 -20.172 -0.065 13.082 0.525 2.038 0.111 43.938 42.672
-33.000 -20.498 -0.035 -20.499 -0.035 -20.514 -0.037 -20.467 -0.033 -20.445 -0.034 -20.403 -0.038 -20.170 -0.065 13.105 0.527 2.032 0.110 43.939 42.674
-32.600 -20.498 -0.035 -20.498 -0.035 -20.513 -0.037 -20.465 -0.033 -20.443 -0.034 -20.401 -0.038 -20.169 -0.064 13.127 0.528 2.027 0.110 43.939 42.676
-32.200 -20.497 -0.035 -20.498 -0.035 -20.512 -0.037 -20.464 -0.033 -20.442 -0.034 -20.399 -0.039 -20.167 -0.064 13.150 0.529 2.021 0.109 43.940 42.678
-31.800 -20.497 -0.035 -20.497 -0.035 -20.511 -0.037 -20.462 -0.033 -20.440 -0.034 -20.398 -0.039 -20.166 -0.064 13.172 0.530 2.015 0.109 43.940 42.679
-31.400 -20.496 -0.035 -20.497 -0.035 -20.511 -0.037 -20.461 -0.033 -20.439 -0.034 -20.396 -0.039 -20.165 -0.064 13.194 0.531 2.010 0.109 43.941 42.681
-31.000 -20.496 -0.035 -20.496 -0.035 -20.510 -0.037 -20.459 -0.033 -20.437 -0.034 -20.395 -0.039 -20.163 -0.063 13.216 0.532 2.004 0.108 43.941 42.682
-30.600 -20.495 -0.035 -20.496 -0.035 -20.509 -0.037 -20.458 -0.033 -20.436 -0.034 -20.393 -0.039 -20.162 -0.063 13.238 0.532 1.999 0.108 43.942 42.684
-30.200 -20.495 -0.035 -20.495 -0.035 -20.509 -0.037 -20.457 -0.033 -20.434 -0.034 -20.392 -0.039 -20.161 -0.063 13.260 0.533 1.993 0.107 43.942 42.685
-29.800 -20.495 -0.035 -20.495 -0.035 -20.508 -0.037 -20.455 -0.033 -20.433 -0.034 -20.390 -0.039 -20.159 -0.063 13.282 0.534 1.988 0.107 43.943 42.686
-29.400 -20.494 -0.035 -20.495 -0.035 -20.507 -0.037 -20.454 -0.034 -20.431 -0.034 -20.389 -0.039 -20.158 -0.062 13.304 0.535 1.983 0.106 43.943 42.688
-29.000 -20.494 -0.035 -20.494 -0.035 -20.507 -0.037 -20.452 -0.034 -20.430 -0.034 -20.387 -0.039 -20.157 -0.062 13.325 0.535 1.977 0.106 43.944 42.689
-28.600 -20.494 -0.035 -20.494 -0.035 -20.506 -0.037 -20.451 -0.034 -20.428 -0.034 -20.386 -0.039 -20.155 -0.062 13.347 0.536 1.972 0.106 43.944 42.690
-28.200 -20.493 -0.035 -20.494 -0.035 -20.505 -0.037 -20.450 -0.034 -20.427 -0.034 -20.384 -0.039 -20.154 -0.062 13.369 0.537 1.967 0.105 43.945 42.692
-27.800 -20.493 -0.035 -20.493 -0.035 -20.505 -0.037 -20.448 -0.034 -20.426 -0.035 -20.383 -0.039 -20.153 -0.061 13.391 0.538 1.962 0.105 43.945 42.693
-27.400 -20.493 -0.035 -20.493 -0.035 -20.504 -0.037 -20.447 -0.034 -20.424 -0.035 -20.382 -0.039 -20.151 -0.061 13.412 0.538 1.957 0.104 43.946 42.694
-27.000 -20.492 -0.035 -20.493 -0.035 -20.504 -0.037 -20.446 -0.034 -20.423 -0.035 -20.380 -0.039 -20.150 -0.061 13.434 0.539 1.952 0.104 43.947 42.696
-26.600 -20.492 -0.035 -20.493 -0.035 -20.504 -0.037 -20.445 -0.034 -20.422 -0.035 -20.379 -0.039 -20.149 -0.061 13.456 0.540 1.947 0.104 43.947 42.697
-26.200 -20.492 -0.035 -20.493 -0.035 -20.503 -0.037 -20.444 -0.034 -20.421 -0.035 -20.378 -0.039 -20.148 -0.061 13.479 0.541 1.942 0.103 43.948 42.699
-25.800 -20.492 -0.035 -20.493 -0.034 -20.503 -0.037 -20.443 -0.034 -20.420 -0.035 -20.377 -0.039 -20.146 -0.060 13.501 0.542 1.937 0.103 43.949 42.700
-25.400 -20.492 -0.035 -20.492 -0.034 -20.503 -0.037 -20.442 -0.034 -20.418 -0.034 -20.375 -0.039 -20.145 -0.060 13.524 0.543 1.933 0.102 43.949 42.702
-25.000 -20.492 -0.034 -20.493 -0.034 -20.503 -0.037 -20.441 -0.034 -20.417 -0.034 -20.374 -0.039 -20.144 -0.060 13.547 0.544 1.928 0.102 43.950 42.704
-24.600 -20.492 -0.034 -20.493 -0.034 -20.502 -0.037 -20.440 -0.034 -20.416 -0.034 -20.373 -0.038 -20.143 -0.060 13.570 0.545 1.923 0.102 43.951 42.705
-24.200 -20.493 -0.034 -20.493 -0.034 -20.502 -0.036 -20.439 -0.034 -20.415 -0.034 -20.372 -0.038 -20.141 -0.060 13.594 0.546 1.918 0.101 43.952 42.707
-23.800 -20.493 -0.034 -20.493 -0.034 -20.502 -0.036 -20.438 -0.034 -20.414 -0.034 -20.371 -0.038 -20.140 -0.059 13.618 0.547 1.913 0.101 43.953 42.709
-23.400 -20.493 -0.034 -20.493 -0.034 -20.502 -0.036 -20.437 -0.034 -20.414 -0.034 -20.370 -0.038 -20.139 -0.059 13.642 0.549 1.908 0.101 43.954 42.712
-23.000 -20.494 -0.034 -20.494 -0.034 -20.503 -0.036 -20.437 -0.033 -20.413 -0.034 -20.369 -0.038 -20.138 -0.059 13.667 0.551 1.904 0.101 43.955 42.714
-22.600 -20.494 -0.034 -20.494 -0.033 -20.503 -0.036 -20.436 -0.033 -20.412 -0.034 -20.368 -0.038 -20.137 -0.059 13.693 0.552 1.899 0.100 43.956 42.716
-22.200 -20.495 -0.033 -20.495 -0.033 -20.503 -0.036 -20.436 -0.033 -20.411 -0.034 -20.368 -0.038 -20.136 -0.059 13.720 0.554 1.894 0.100 43.957 42.719
-21.800 -20.495 -0.033 -20.495 -0.033 -20.504 -0.036 -20.435 -0.033 -20.411 -0.034 -20.367 -0.038 -20.135 -0.058 13.747 0.556 1.889 0.100 43.958 42.722
-21.400 -20.496 -0.033 -20.496 -0.033 -20.504 -0.036 -20.435 -0.033 -20.410 -0.034 -20.366 -0.038 -20.134 -0.058 13.774 0.559 1.884 0.100 43.959 42.725
-21.000 -20.497 -0.033 -20.497 -0.033 -20.504 -0.036 -20.434 -0.033 -20.410 -0.034 -20.366 -0.038 -20.133 -0.058 13.802 0.561 1.879 0.100 43.960 42.728
-20.600 -20.498 -0.033 -20.498 -0.033 -20.505 -0.036 -20.434 -0.033 -20.409 -0.034 -20.365 -0.038 -20.132 -0.058 13.831 0.564 1.874 0.099 43.962 42.732
-20.200 -20.499 -0.033 -20.499 -0.033 -20.506 -0.036 -20.434 -0.033 -20.409 -0.034 -20.365 -0.038 -20.131 -0.058 13.861 0.567 1.869 0.099 43.963 42.736
-19.800 -20.500 -0.033 -20.500 -0.032 -20.507 -0.036 -20.434 -0.033 -20.409 -0.034 -20.364 -0.038 -20.130 -0.057 13.891 0.570 1.864 0.099 43.965 42.740
-19.400 -20.501 -0.032 -20.501 -0.032 -20.507 -0.036 -20.434 -0.033 -20.408 -0.034 -20.364 -0.038 -20.129 -0.057 13.923 0.573 1.859 0.099 43.966 42.744
-19.000 -20.502 -0.032 -20.502 -0.032 -20.508 -0.036 -20.434 -0.033 -20.408 -0.034 -20.363 -0.038 -20.128 -0.057 13.955 0.577 1.854 0.099 43.968 42.748
-18.600 -20.503 -0.032 -20.504 -0.032 -20.509 -0.036 -20.434 -0.033 -20.408 -0.034 -20.363 -0.038 -20.127 -0.057 13.987 0.581 1.849 0.099 43.969 42.753
-18.200 -20.505 -0.032 -20.505 -0.032 -20.511 -0.035 -20.434 -0.033 -20.408 -0.033 -20.363 -0.038 -20.126 -0.057 14.021 0.585 1.843 0.099 43.971 42.758
-17.800 -20.506 -0.032 -20.507 -0.032 -20.512 -0.035 -20.434 -0.033 -20.408 -0.033 -20.363 -0.038 -20.126 -0.057 14.055 0.589 1.838 0.099 43.973 42.763
-17.400 -20.508 -0.032 -20.508 -0.032 -20.513 -0.035 -20.434 -0.033 -20.409 -0.033 -20.363 -0.038 -20.125 -0.056 14.091 0.594 1.833 0.099 43.975 42.768
-17.000 -20.510 -0.032 -20.510 -0.031 -20.514 -0.035 -20.435 -0.033 -20.409 -0.033 -20.363 -0.038 -20.124 -0.056 14.127 0.599 1.828 0.099 43.977 42.774
-16.600 -20.512 -0.031 -20.512 -0.031 -20.516 -0.035 -20.435 -0.032 -20.409 -0.033 -20.363 -0.037 -20.123 -0.056 14.164 0.604 1.822 0.100 43.979 42.779
-16.200 -20.513 -0.031 -20.514 -0.031 -20.517 -0.035 -20.436 -0.032 -20.409 -0.033 -20.363 -0.037 -20.123 -0.056 14.203 0.609 1.817 0.100 43.981 42.785
-15.800 -20.515 -0.031 -20.516 -0.031 -20.519 -0.035 -20.436 -0.032 -20.410 -0.033 -20.363 -0.037 -20.122 -0.056 14.242 0.615 1.811 0.100 43.983 42.792
-15.400 -20.517 -0.031 -20.518 -0.031 -20.521 -0.035 -20.437 -0.032 -20.410 -0.033 -20.363 -0.037 -20.121 -0.055 14.282 0.621 1.806 0.100 43.985 42.798
-15.000 -20.520 -0.031 -20.520 -0.031 -20.522 -0.035 -20.438 -0.032 -20.411 -0.033 -20.364 -0.037 -20.121 -0.055 14.323 0.627 1.800 0.100 43.988 42.805
-14.600 -20.522 -0.031 -20.522 -0.031 -20.524 -0.035 -20.438 -0.032 -20.412 -0.033 -20.364 -0.037 -20.120 -0.055 14.365 0.634 1.795 0.100 43.990 42.812
-14.200 -20.524 -0.031 -20.524 -0.030 -20.526 -0.035 -20.439 -0.032 -20.412 -0.033 -20.364 -0.037 -20.120 -0.055 14.408 0.640 1.789 0.101 43.992 42.819
-13.800 -20.527 -0.030 -20.527 -0.030 -20.528 -0.035 -20.440 -0.032 -20.413 -0.033 -20.365 -0.037 -20.119 -0.055 14.452 0.647 1.783 0.101 43.995 42.826
-13.400 -20.529 -0.030 -20.529 -0.030 -20.530 -0.034 -20.441 -0.032 -20.414 -0.033 -20.365 -0.037 -20.119 -0.055 14.496 0.654 1.778 0.101 43.997 42.833
-13.000 -20.532 -0.030 -20.532 -0.030 -20.532 -0.034 -20.442 -0.032 -20.415 -0.033 -20.366 -0.037 -20.118 -0.054 14.541 0.662 1.772 0.102 44.000 42.841
-12.600 -20.534 -0.030 -20.534 -0.030 -20.535 -0.034 -20.444 -0.032 -20.416 -0.033 -20.367 -0.037 -20.118 -0.054 14.587 0.670 1.766 0.102 44.003 42.849
-12.200 -20.537 -0.030 -20.537 -0.030 -20.537 -0.034 -20.445 -0.032 -20.417 -0.033 -20.367 -0.037 -20.117 -0.054 14.633 0.677 1.761 0.102 44.006 42.856
-11.800 -20.540 -0.030 -20.540 -0.030 -20.539 -0.034 -20.446 -0.032 -20.418 -0.033 -20.368 -0.037 -20.117 -0.054 14.680 0.685 1.755 0.103 44.008 42.864
-11.400 -20.542 -0.030 -20.542 -0.030 -20.542 -0.034 -20.447 -0.032 -20.419 -0.033 -20.369 -0.037 -20.117 -0.054 14.728 0.694 1.749 0.103 44.011 42.872
-11.000 -20.545 -0.029 -20.545 -0.029 -20.544 -0.034 -20.449 -0.032 -20.420 -0.033 -20.370 -0.037 -20.116 -0.054 14.776 0.702 1.744 0.103 44.014 42.880
-10.600 -20.548 -0.029 -20.548 -0.029 -20.546 -0.034 -20.450 -0.032 -20.421 -0.033 -20.370 -0.037 -20.116 -0.053 14.824 0.711 1.738 0.104 44.017 42.888
-10.200 -20.551 -0.029 -20.551 -0.029 -20.549 -0.034 -20.451 -0.032 -20.423 -0.033 -20.371 -0.037 -20.116 -0.053 14.873 0.719 1.733 0.104 44.020 42.897
-9.800 -20.554 -0.029 -20.554 -0.029 -20.552 -0.034 -20.453 -0.032 -20.424 -0.032 -20.372 -0.037 -20.115 -0.053 14.922 0.728 1.727 0.104 44.023 42.905
-9.400 -20.557 -0.029 -20.557 -0.029 -20.554 -0.034 -20.454 -0.032 -20.425 -0.032 -20.373 -0.036 -20.115 -0.053 14.970 0.737 1.722 0.105 44.026 42.913
-9.000 -20.560 -0.029 -20.560 -0.029 -20.557 -0.033 -20.456 -0.032 -20.427 -0.032 -20.374 -0.036 -20.115 -0.053 15.019 0.746 1.717 0.105 44.029 42.921
-8.600 -20.563 -0.029 -20.563 -0.029 -20.559 -0.033 -20.457 -0.031 -20.428 -0.032 -20.375 -0.036 -20.115 -0.053 15.067 0.755 1.711 0.106 44.032 42.929
-8.200 -20.566 -0.029 -20.566 -0.028 -20.562 -0.033 -20.459 -0.031 -20.429 -0.032 -20.376 -0.036 -20.115 -0.053 15.115 0.764 1.706 0.106 44.035 42.937
-7.800 -20.569 -0.028 -20.569 -0.028 -20.565 -0.033 -20.461 -0.031 -20.431 -0.032 -20.377 -0.036 -20.115 -0.052 15.163 0.773 1.701 0.106 44.038 42.945
-7.400 -20.572 -0.028 -20.572 -0.028 -20.567 -0.033 -20.462 -0.031 -20.432 -0.032 -20.378 -0.036 -20.115 -0.052 15.211 0.782 1.697 0.107 44.041 42.953
-7.000 -20.575 -0.028 -20.575 -0.028 -20.570 -0.033 -20.464 -0.031 -20.434 -0.032 -20.379 -0.036 -20.115 -0.052 15.257 0.791 1.692 0.107 44.043 42.961
-6.600 -20.578 -0.028 -20.578 -0.028 -20.573 -0.033 -20.466 -0.031 -20.435 -0.032 -20.380 -0.036 -20.115 -0.052 15.304 0.800 1.687 0.108 44.046 42.969
-6.200 -20.581 -0.028 -20.581 -0.028 -20.575 -0.033 -20.467 -0.031 -20.437 -0.032 -20.382 -0.036 -20.115 -0.052 15.349 0.809 1.683 0.108 44.049 42.976
-5.800 -20.584 -0.028 -20.584 -0.028 -20.578 -0.033 -20.469 -0.031 -20.438 -0.032 -20.383 -0.036 -20.115 -0.052 15.394 0.818 1.679 0.108 44.052 42.984
-5.400 -20.586 -0.027 -20.587 -0.027 -20.580 -0.033 -20.471 -0.031 -20.440 -0.032 -20.384 -0.036 -20.115 -0.052 15.437 0.827 1.674 0.109 44.055 42.991
-5.000 -20.589 -0.027 -20.589 -0.027 -20.583 -0.032 -20.472 -0.031 -20.441 -0.032 -20.385 -0.036 -20.115 -0.052 15.480 0.836 1.670 0.109 44.058 42.998
-4.600 -20.592 -0.027 -20.592 -0.027 -20.586 -0.032 -20.474 -0.031 -20.443 -0.031 -20.386 -0.036 -20.115 -0.052 15.522 0.844 1.667 0.110 44.060 43.005
-4.200 -20.595 -0.027 -20.595 -0.027 -20.588 -0.032 -20.476 -0.030 -20.444 -0.031 -20.387 -0.036 -20.115 -0.051 15.562 0.853 1.663 0.110 44.063 43.012
-3.800 -20.598 -0.027 -20.598 -0.027 -20.591 -0.032 -20.477 -0.030 -20.445 -0.031 -20.388 -0.035 -20.115 -0.051 15.601 0.861 1.660 0.110 44.065 43.018
-3.400 -20.600 -0.027 -20.601 -0.027 -20.593 -0.032 -20.479 -0.030 -20.447 -0.031 -20.389 -0.035 -20.115 -0.051 15.639 0.869 1.656 0.111 44.068 43.025
-3.000 -20.603 -0.027 -20.603 -0.026 -20.596 -0.032 -20.481 -0.030 -20.448 -0.031 -20.391 -0.035 -20.115 -0.051 15.676 0.878 1.653 0.111 44.070 43.031
-2.600 -20.606 -0.026 -20.606 -0.026 -20.598 -0.032 -20.482 -0.030 -20.450 -0.031 -20.392 -0.035 -20.115 -0.051 15.712 0.885 1.650 0.112 44.073 43.037
-2.200 -20.608 -0.026 -20.608 -0.026 -20.601 -0.032 -20.484 -0.030 -20.451 -0.031 -20.393 -0.035 -20.116 -0.051 15.746 0.893 1.647 0.112 44.075 43.043
-1.800 -20.611 -0.026 -20.611 -0.026 -20.603 -0.032 -20.485 -0.030 -20.453 -0.031 -20.394 -0.035 -20.116 -0.051 15.780 0.901 1.645 0.112 44.077 43.049
-1.400 -20.613 -0.026 -20.613 -0.026 -20.605 -0.032 -20.487 -0.030 -20.454 -0.031 -20.395 -0.035 -20.116 -0.051 15.812 0.908 1.642 0.113 44.080 43.055
-1.000 -20.615 -0.026 -20.616 -0.026 -20.608 -0.031 -20.489 -0.030 -20.455 -0.031 -20.396 -0.035 -20.116 -0.051 15.843 0.916 1.640 0.113 44.082 43.060
-0.600 -20.618 -0.026 -20.618 -0.026 -20.610 -0.031 -20.490 -0.030 -20.457 -0.031 -20.397 -0.035 -20.116 -0.051 15.874 0.923 1.637 0.113 44.084 43.066
-0.200 -20.620 -0.026 -20.620 -0.026 -20.612 -0.031 -20.491 -0.029 -20.458 -0.030 -20.398 -0.035 -20.117 -0.051 15.904 0.930 1.635 0.114 44.086 43.071
0.200 -20.622 -0.026 -20.622 -0.026 -20.614 -0.031 -20.493 -0.029 -20.459 -0.030 -20.399 -0.035 -20.117 -0.051 15.933 0.937 1.633 0.114 44.088 43.076
0.600 -20.624 -0.026 -20.625 -0.026 -20.616 -0.031 -20.494 -0.029 -20.461 -0.030 -20.400 -0.035 -20.117 -0.051 15.962 0.944 1.630 0.114 44.090 43.081
1.000 -20.626 -0.026 -20.627 -0.026 -20.618 -0.031 -20.496 -0.029 -20.462 -0.030 -20.401 -0.035 -20.117 -0.051 15.990 0.951 1.628 0.115 44.092 43.086
1.400 -20.629 -0.026 -20.629 -0.026 -20.620 -0.031 -20.497 -0.029 -20.463 -0.030 -20.402 -0.035 -20.118 -0.051 16.017 0.958 1.626 0.115 44.094 43.091
1.800 -20.631 -0.026 -20.631 -0.026 -20.622 -0.031 -20.498 -0.029 -20.464 -0.030 -20.403 -0.035 -20.118 -0.052 16.044 0.964 1.624 0.115 44.095 43.096
2.200 -20.632 -0.026 -20.633 -0.026 -20.624 -0.031 -20.500 -0.029 -20.465 -0.030 -20.404 -0.035 -20.118 -0.052 16.071 0.971 1.622 0.116 44.097 43.101
2.600 -20.634 -0.026 -20.634 -0.026 -20.625 -0.031 -20.501 -0.029 -20.467 -0.030 -20.405 -0.035 -20.119 -0.052 16.097 0.978 1.620 0.116 44.099 43.106
3.000 -20.636 -0.026 -20.636 -0.026 -20.627 -0.031 -20.502 -0.029 -20.468 -0.030 -20.406 -0.035 -20.119 -0.052 16.123 0.984 1.618 0.116 44.101 43.111
3.400 -20.638 -0.026 -20.638 -0.026 -20.629 -0.031 -20.503 -0.029 -20.469 -0.030 -20.407 -0.035 -20.119 -0.052 16.149 0.991 1.616 0.117 44.103 43.116
3.800 -20.640 -0.027 -20.640 -0.027 -20.630 -0.032 -20.504 -0.029 -20.470 -0.031 -20.408 -0.035 -20.120 -0.053 16.174 0.998 1.615 0.117 44.104 43.121
4.200 -20.641 -0.027 -20.641 -0.027 -20.632 -0.032 -20.505 -0.030 -20.471 -0.031 -20.409 -0.035 -20.120 -0.053 16.200 1.005 1.613 0.117 44.106 43.126
4.600 -20.643 -0.027 -20.643 -0.027 -20.633 -0.032 -20.506 -0.030 -20.472 -0.031 -20.410 -0.035 -20.120 -0.053 16.226 1.012 1.611 0.117 44.108 43.131
5.000 -20.645 -0.027 -20.645 -0.027 -20.635 -0.032 -20.507 -0.030 -20.473 -0.031 -20.410 -0.036 -20.121 -0.053 16.252 1.019 1.609 0.118 44.109 43.136
5.400 -20.646 -0.028 -20.646 -0.028 -20.636 -0.032 -20.508 -0.030 -20.473 -0.031 -20.411 -0.036 -20.121 -0.054 16.278 1.026 1.606 0.118 44.111 43.141
5.800 -20.647 -0.028 -20.648 -0.028 -20.637 -0.032 -20.509 -0.030 -20.474 -0.031 -20.412 -0.036 -20.121 -0.054 16.304 1.034 1.604 0.118 44.113 43.146
6.200 -20.649 -0.029 -20.649 -0.028 -20.639 -0.033 -20.510 -0.030 -20.475 -0.031 -20.413 -0.036 -20.122 -0.054 16.331 1.041 1.602 0.119 44.114 43.151
6.600 -20.650 -0.029 -20.650 -0.029 -20.640 -0.033 -20.511 -0.031 -20.476 -0.032 -20.413 -0.036 -20.122 -0.055 16.358 1.049 1.600 0.119 44.116 43.156
7.000 -20.652 -0.030 -20.652 -0.029 -20.641 -0.033 -20.512 -0.031 -20.476 -0.032 -20.414 -0.037 -20.122 -0.055 16.385 1.057 1.598 0.119 44.118 43.161
7.400 -20.653 -0.030 -20.653 -0.030 -20.642 -0.034 -20.512 -0.031 -20.477 -0.032 -20.415 -0.037 -20.123 -0.056 16.412 1.065 1.595 0.120 44.119 43.167
7.800 -20.654 -0.031 -20.654 -0.030 -20.643 -0.034 -20.513 -0.031 -20.478 -0.033 -20.415 -0.037 -20.123 -0.056 16.440 1.073 1.593 0.120 44.121 43.172
8.200 -20.655 -0.031 -20.655 -0.031 -20.644 -0.034 -20.514 -0.032 -20.478 -0.033 -20.416 -0.038 -20.123 -0.057 16.469 1.082 1.590 0.120 44.122 43.177
8.600 -20.656 -0.032 -20.656 -0.032 -20.645 -0.035 -20.514 -0.032 -20.479 -0.033 -20.416 -0.038 -20.124 -0.057 16.498 1.090 1.588 0.121 44.124 43.183
9.000 -20.657 -0.033 -20.657 -0.032 -20.646 -0.035 -20.515 -0.033 -20.480 -0.034 -20.417 -0.039 -20.124 -0.058 16.527 1.099 1.585 0.121 44.126 43.188
9.400 -20.658 -0.033 -20.658 -0.033 -20.647 -0.036 -20.515 -0.033 -20.480 -0.034 -20.417 -0.039 -20.125 -0.059 16.556 1.108 1.583 0.121 44.127 43.193
9.800 -20.659 -0.034 -20.659 -0.034 -20.648 -0.036 -20.516 -0.034 -20.481 -0.035 -20.418 -0.040 -20.125 -0.059 16.585 1.117 1.580 0.121 44.129 43.199
10.200 -20.660 -0.035 -20.660 -0.035 -20.649 -0.037 -20.516 -0.034 -20.481 -0.036 -20.418 -0.040 -20.125 -0.060 16.615 1.125 1.577 0.122 44.131 43.204
10.600 -20.661 -0.036 -20.661 -0.035 -20.649 -0.037 -20.517 -0.035 -20.481 -0.036 -20.419 -0.041 -20.126 -0.061 16.645 1.134 1.574 0.122 44.132 43.209
11.000 -20.662 -0.037 -20.662 -0.036 -20.650 -0.038 -20.517 -0.036 -20.482 -0.037 -20.419 -0.041 -20.126 -0.061 16.674 1.143 1.572 0.122 44.134 43.214
11.400 -20.663 -0.037 -20.663 -0.037 -20.651 -0.039 -20.517 -0.036 -20.482 -0.037 -20.419 -0.042 -20.126 -0.062 16.704 1.151 1.569 0.123 44.135 43.219
11.800 -20.663 -0.038 -20.663 -0.038 -20.651 -0.039 -20.518 -0.037 -20.482 -0.038 -20.420 -0.042 -20.127 -0.063 16.733 1.160 1.566 0.123 44.137 43.224
12.200 -20.664 -0.039 -20.664 -0.039 -20.652 -0.040 -20.518 -0.038 -20.483 -0.039 -20.420 -0.043 -20.127 -0.064 16.762 1.168 1.563 0.123 44.138 43.229
12.600 -20.665 -0.040 -20.665 -0.040 -20.652 -0.041 -20.518 -0.039 -20.483 -0.040 -20.420 -0.044 -20.128 -0.065 16.791 1.176 1.561 0.123 44.140 43.234
13.000 -20.665 -0.041 -20.665 -0.041 -20.653 -0.042 -20.519 -0.040 -20.483 -0.041 -20.420 -0.045 -20.128 -0.065 16.819 1.184 1.558 0.123 44.141 43.238
13.400 -20.666 -0.043 -20.666 -0.042 -20.653 -0.042 -20.519 -0.040 -20.483 -0.041 -20.421 -0.045 -20.128 -0.066 16.847 1.191 1.555 0.124 44.143 43.243
13.800 -20.666 -0.044 -20.666 -0.043 -20.653 -0.043 -20.519 -0.041 -20.484 -0.042 -20.421 -0.046 -20.129 -0.067 16.874 1.199 1.553 0.124 44.144 43.247
14.200 -20.667 -0.045 -20.667 -0.045 -20.654 -0.044 -20.519 -0.042 -20.484 -0.043 -20.421 -0.047 -20.129 -0.068 16.901 1.205 1.550 0.124 44.145 43.251
14.600 -20.667 -0.046 -20.667 -0.046 -20.654 -0.045 -20.519 -0.043 -20.484 -0.044 -20.421 -0.048 -20.129 -0.069 16.927 1.212 1.548 0.124 44.146 43.254
15.000 -20.668 -0.047 -20.668 -0.047 -20.654 -0.046 -20.519 -0.044 -20.484 -0.045 -20.421 -0.049 -20.130 -0.070 16.952 1.218 1.545 0.124 44.148 43.258
15.400 -20.668 -0.048 -20.668 -0.048 -20.654 -0.047 -20.519 -0.045 -20.484 -0.046 -20.421 -0.050 -20.130 -0.071 16.976 1.224 1.543 0.124 44.149 43.261
15.800 -20.668 -0.050 -20.668 -0.049 -20.655 -0.048 -20.519 -0.046 -20.484 -0.047 -20.421 -0.051 -20.130 -0.072 16.999 1.229 1.541 0.124 44.150 43.264
16.200 -20.669 -0.051 -20.669 -0.051 -20.655 -0.049 -20.519 -0.047 -20.484 -0.048 -20.421 -0.052 -20.131 -0.073 17.022 1.234 1.538 0.124 44.151 43.267
16.600 -20.669 -0.052 -20.669 -0.052 -20.655 -0.050 -20.519 -0.048 -20.484 -0.049 -20.421 -0.053 -20.131 -0.074 17.043 1.239 1.536 0.124 44.152 43.270
17.000 -20.669 -0.053 -20.669 -0.053 -20.655 -0.051 -20.519 -0.049 -20.484 -0.050 -20.421 -0.054 -20.131 -0.075 17.064 1.243 1.534 0.124 44.153 43.272
17.400 -20.669 -0.055 -20.669 -0.054 -20.655 -0.052 -20.519 -0.051 -20.484 -0.051 -20.421 -0.055 -20.131 -0.077 17.084 1.246 1.532 0.124 44.154 43.275
17.800 -20.669 -0.056 -20.669 -0.056 -20.655 -0.053 -20.519 -0.052 -20.484 -0.053 -20.421 -0.056 -20.132 -0.078 17.102 1.250 1.530 0.124 44.155 43.277
18.200 -20.669 -0.057 -20.669 -0.057 -20.655 -0.054 -20.519 -0.053 -20.483 -0.054 -20.421 -0.057 -20.132 -0.079 17.120 1.252 1.528 0.124 44.155 43.278
18.600 -20.670 -0.059 -20.669 -0.058 -20.655 -0.055 -20.519 -0.054 -20.483 -0.055 -20.421 -0.058 -20.132 -0.080 17.136 1.255 1.527 0.123 44.156 43.280
19.000 -20.670 -0.060 -20.669 -0.060 -20.654 -0.057 -20.518 -0.055 -20.483 -0.056 -20.421 -0.059 -20.132 -0.081 17.152 1.257 1.525 0.123 44.157 43.281
19.400 -20.669 -0.061 -20.669 -0.061 -20.654 -0.058 -20.518 -0.056 -20.483 -0.057 -20.421 -0.060 -20.133 -0.082 17.166 1.258 1.524 0.123 44.157 43.283
19.800 -20.669 -0.063 -20.669 -0.062 -20.654 -0.059 -20.518 -0.058 -20.482 -0.058 -20.420 -0.061 -20.133 -0.084 17.180 1.259 1.522 0.123 44.158 43.284
20.200 -20.669 -0.064 -20.669 -0.064 -20.654 -0.060 -20.517 -0.059 -20.482 -0.060 -20.420 -0.063 -20.133 -0.085 17.192 1.260 1.521 0.123 44.158 43.284
20.600 -20.669 -0.066 -20.669 -0.065 -20.653 -0.061 -20.517 -0.060 -20.482 -0.061 -20.420 -0.064 -20.133 -0.086 17.204 1.260 1.519 0.122 44.159 43.285
21.000 -20.669 -0.067 -20.669 -0.067 -20.653 -0.063 -20.517 -0.061 -20.481 -0.062 -20.420 -0.065 -20.133 -0.087 17.215 1.260 1.518 0.122 44.159 43.285
21.400 -20.669 -0.068 -20.669 -0.068 -20.653 -0.064 -20.516 -0.063 -20.481 -0.063 -20.419 -0.066 -20.134 -0.088 17.224 1.260 1.517 0.122 44.159 43.285
21.800 -20.668 -0.070 -20.668 -0.069 -20.652 -0.065 -20.516 -0.064 -20.481 -0.065 -20.419 -0.067 -20.134 -0.090 17.233 1.259 1.516 0.122 44.159 43.286
22.200 -20.668 -0.071 -20.668 -0.071 -20.652 -0.066 -20.515 -0.065 -20.480 -0.066 -20.419 -0.069 -20.134 -0.091 17.241 1.258 1.515 0.121 44.160 43.285
22.600 -20.668 -0.073 -20.668 -0.072 -20.651 -0.068 -20.515 -0.066 -20.480 -0.067 -20.418 -0.070 -20.134 -0.092 17.248 1.256 1.514 0.121 44.160 43.285
23.000 -20.667 -0.074 -20.667 -0.074 -20.651 -0.069 -20.514 -0.068 -20.479 -0.068 -20.418 -0.071 -20.134 -0.094 17.254 1.254 1.513 0.121 44.160 43.285
23.400 -20.667 -0.075 -20.667 -0.075 -20.650 -0.070 -20.514 -0.069 -20.479 -0.070 -20.417 -0.072 -20.134 -0.095 17.259 1.252 1.512 0.120 44.160 43.284
23.800 -20.666 -0.077 -20.666 -0.077 -20.650 -0.072 -20.513 -0.070 -20.478 -0.071 -20.417 -0.074 -20.134 -0.096 17.263 1.249 1.511 0.120 44.160 43.283
24.200 -20.666 -0.078 -20.666 -0.078 -20.649 -0.073 -20.513 -0.071 -20.478 -0.072 -20.416 -0.075 -20.134 -0.097 17.267 1.246 1.510 0.119 44.160 43.282
24.600 -20.665 -0.080 -20.665 -0.079 -20.648 -0.074 -20.512 -0.073 -20.477 -0.074 -20.416 -0.076 -20.135 -0.099 17.269 1.243 1.510 0.119 44.160 43.281
25.000 -20.665 -0.081 -20.665 -0.081 -20.648 -0.076 -20.511 -0.074 -20.476 -0.075 -20.415 -0.077 -20.135 -0.100 17.271 1.240 1.509 0.119 44.160 43.280
25.400 -20.664 -0.083 -20.664 -0.082 -20.647 -0.077 -20.511 -0.075 -20.476 -0.076 -20.415 -0.079 -20.135 -0.101 17.272 1.236 1.509 0.118 44.159 43.278
25.800 -20.664 -0.084 -20.664 -0.084 -20.646 -0.078 -20.510 -0.077 -20.475 -0.078 -20.414 -0.080 -20.135 -0.103 17.272 1.232 1.508 0.118 44.159 43.277
26.200 -20.663 -0.086 -20.663 -0.085 -20.645 -0.080 -20.509 -0.078 -20.474 -0.079 -20.414 -0.081 -20.135 -0.104 17.271 1.228 1.508 0.117 44.159 43.275
26.600 -20.662 -0.087 -20.662 -0.087 -20.644 -0.081 -20.508 -0.079 -20.474 -0.080 -20.413 -0.083 -20.135 -0.105 17.270 1.223 1.507 0.117 44.158 43.273
27.000 -20.662 -0.088 -20.661 -0.088 -20.644 -0.082 -20.508 -0.081 -20.473 -0.082 -20.412 -0.084 -20.135 -0.107 17.268 1.219 1.507 0.116 44.158 43.271
27.400 -20.661 -0.090 -20.661 -0.090 -20.643 -0.084 -20.507 -0.082 -20.472 -0.083 -20.412 -0.085 -20.135 -0.108 17.265 1.214 1.507 0.116 44.158 43.269
27.800 -20.660 -0.091 -20.660 -0.091 -20.642 -0.085 -20.506 -0.083 -20.471 -0.084 -20.411 -0.087 -20.135 -0.109 17.261 1.208 1.507 0.115 44.157 43.267
28.200 -20.659 -0.093 -20.659 -0.092 -20.641 -0.086 -20.505 -0.085 -20.471 -0.086 -20.410 -0.088 -20.134 -0.111 17.257 1.203 1.506 0.115 44.157 43.264
28.600 -20.658 -0.094 -20.658 -0.094 -20.640 -0.088 -20.504 -0.086 -20.470 -0.087 -20.410 -0.089 -20.134 -0.112 17.252 1.197 1.506 0.114 44.156 43.262
29.000 -20.657 -0.096 -20.657 -0.095 -20.639 -0.089 -20.503 -0.087 -20.469 -0.088 -20.409 -0.091 -20.134 -0.113 17.247 1.192 1.506 0.114 44.155 43.259
29.400 -20.657 -0.097 -20.656 -0.097 -20.638 -0.090 -20.502 -0.089 -20.468 -0.090 -20.408 -0.092 -20.134 -0.115 17.241 1.186 1.506 0.113 44.155 43.257
29.800 -20.656 -0.099 -20.655 -0.098 -20.637 -0.092 -20.501 -0.090 -20.467 -0.091 -20.407 -0.093 -20.134 -0.116 17.234 1.180 1.506 0.113 44.154 43.254
30.200 -20.655 -0.100 -20.654 -0.100 -20.636 -0.093 -20.500 -0.091 -20.466 -0.092 -20.407 -0.095 -20.134 -0.117 17.227 1.173 1.506 0.112 44.153 43.251
30.600 -20.654 -0.101 -20.653 -0.101 -20.634 -0.095 -20.499 -0.093 -20.465 -0.094 -20.406 -0.096 -20.134 -0.119 17.219 1.167 1.506 0.112 44.153 43.248
31.000 -20.652 -0.103 -20.652 -0.103 -20.633 -0.096 -20.498 -0.094 -20.464 -0.095 -20.405 -0.097 -20.134 -0.120 17.211 1.160 1.506 0.111 44.152 43.245
31.400 -20.651 -0.104 -20.651 -0.104 -20.632 -0.097 -20.497 -0.095 -20.463 -0.096 -20.404 -0.099 -20.133 -0.121 17.202 1.153 1.507 0.111 44.151 43.241
31.800 -20.650 -0.106 -20.650 -0.105 -20.631 -0.099 -20.496 -0.097 -20.462 -0.097 -20.403 -0.100 -20.133 -0.123 17.192 1.147 1.507 0.110 44.150 43.238
32.200 -20.649 -0.107 -20.649 -0.107 -20.630 -0.100 -20.495 -0.098 -20.461 -0.099 -20.402 -0.101 -20.133 -0.124 17.182 1.140 1.507 0.110 44.149 43.235
32.600 -20.648 -0.109 -20.648 -0.108 -20.628 -0.101 -20.494 -0.099 -20.460 -0.100 -20.401 -0.102 -20.133 -0.125 17.171 1.132 1.507 0.109 44.148 43.231
33.000 -20.647 -0.110 -20.647 -0.110 -20.627 -0.103 -20.493 -0.101 -20.459 -0.101 -20.400 -0.104 -20.132 -0.127 17.160 1.125 1.508 0.108 44.148 43.227
33.400 -20.646 -0.111 -20.645 -0.111 -20.626 -0.104 -20.491 -0.102 -20.458 -0.103 -20.399 -0.105 -20.132 -0.128 17.149 1.118 1.508 0.108 44.147 43.224
33.800 -20.644 -0.113 -20.644 -0.113 -20.624 -0.105 -20.490 -0.103 -20.457 -0.104 -20.398 -0.106 -20.132 -0.129 17.137 1.110 1.508 0.107 44.146 43.220
34.200 -20.643 -0.114 -20.643 -0.114 -20.623 -0.107 -20.489 -0.105 -20.455 -0.105 -20.397 -0.108 -20.132 -0.131 17.125 1.103 1.509 0.107 44.145 43.216
34.600 -20.642 -0.116 -20.641 -0.115 -20.622 -0.108 -20.488 -0.106 -20.454 -0.107 -20.396 -0.109 -20.131 -0.132 17.112 1.095 1.509 0.106 44.143 43.212
35.000 -20.640 -0.117 -20.640 -0.117 -20.620 -0.109 -20.486 -0.107 -20.453 -0.108 -20.395 -0.110 -20.131 -0.133 17.099 1.087 1.510 0.106 44.142 43.208
35.400 -20.639 -0.118 -20.639 -0.118 -20.619 -0.111 -20.485 -0.108 -20.452 -0.109 -20.394 -0.112 -20.131 -0.135 17.085 1.080 1.510 0.105 44.141 43.204
35.800 -20.638 -0.120 -20.637 -0.119 -20.617 -0.112 -20.484 -0.110 -20.451 -0.111 -20.393 -0.113 -20.130 -0.136 17.071 1.072 1.511 0.104 44.140 43.200
36.200 -20.636 -0.121 -20.636 -0.121 -20.616 -0.113 -20.482 -0.111 -20.449 -0.112 -20.392 -0.114 -20.130 -0.137 17.056 1.064 1.511 0.104 44.139 43.195
36.600 -20.635 -0.122 -20.634 -0.122 -20.614 -0.115 -20.481 -0.112 -20.448 -0.113 -20.391 -0.116 -20.130 -0.138 17.042 1.056 1.512 0.103 44.138 43.191
37.000 -20.633 -0.124 -20.633 -0.124 -20.613 -0.116 -20.480 -0.114 -20.447 -0.114 -20.390 -0.117 -20.129 -0.140 17.026 1.048 1.512 0.103 44.137 43.187
37.400 -20.632 -0.125 -20.631 -0.125 -20.611 -0.117 -20.478 -0.115 -20.446 -0.116 -20.389 -0.118 -20.129 -0.141 17.011 1.040 1.513 0.102 44.135 43.182
37.800 -20.630 -0.127 -20.630 -0.126 -20.609 -0.119 -20.477 -0.116 -20.444 -0.117 -20.388 -0.119 -20.128 -0.142 16.995 1.031 1.513 0.101 44.134 43.178
38.200 -20.629 -0.128 -20.628 -0.128 -20.608 -0.120 -20.475 -0.117 -20.443 -0.118 -20.386 -0.121 -20.128 -0.144 16.979 1.023 1.514 0.101 44.133 43.173
38.600 -20.627 -0.129 -20.627 -0.129 -20.606 -0.121 -20.474 -0.119 -20.441 -0.119 -20.385 -0.122 -20.127 -0.145 16.962 1.015 1.515 0.100 44.131 43.168
39.000 -20.625 -0.131 -20.625 -0.130 -20.604 -0.123 -20.472 -0.120 -20.440 -0.121 -20.384 -0.123 -20.127 -0.146 16.946 1.007 1.515 0.099 44.130 43.164
39.400 -20.624 -0.132 -20.624 -0.132 -20.603 -0.124 -20.471 -0.121 -20.439 -0.122 -20.383 -0.124 -20.126 -0.147 16.929 0.998 1.516 0.099 44.129 43.159
39.800 -20.622 -0.133 -20.622 -0.133 -20.601 -0.125 -20.469 -0.122 -20.437 -0.123 -20.381 -0.126 -20.126 -0.149 16.911 0.990 1.517 0.098 44.127 43.154
40.200 -20.620 -0.134 -20.620 -0.134 -20.599 -0.126 -20.468 -0.123 -20.436 -0.124 -20.380 -0.127 -20.125 -0.150 16.893 0.982 1.517 0.098 44.126 43.149
40.600 -20.619 -0.136 -20.618 -0.135 -20.597 -0.128 -20.466 -0.125 -20.434 -0.126 -20.379 -0.128 -20.125 -0.151 16.876 0.973 1.518 0.097 44.125 43.144
41.000 -20.617 -0.137 -20.617 -0.137 -20.596 -0.129 -20.465 -0.126 -20.433 -0.127 -20.377 -0.129 -20.124 -0.152 16.857 0.965 1.519 0.096 44.123 43.139
41.400 -20.615 -0.138 -20.615 -0.138 -20.594 -0.130 -20.463 -0.127 -20.431 -0.128 -20.376 -0.130 -20.124 -0.153 16.839 0.957 1.520 0.096 44.122 43.134
41.800 -20.613 -0.140 -20.613 -0.139 -20.592 -0.131 -20.462 -0.128 -20.430 -0.129 -20.375 -0.132 -20.123 -0.155 16.820 0.948 1.521 0.095 44.120 43.129
42.200 -20.612 -0.141 -20.611 -0.141 -20.590 -0.133 -20.460 -0.129 -20.428 -0.130 -20.373 -0.133 -20.122 -0.156 16.801 0.940 1.521 0.095 44.119 43.123
42.600 -20.610 -0.142 -20.610 -0.142 -20.588 -0.134 -20.458 -0.131 -20.427 -0.132 -20.372 -0.134 -20.122 -0.157 16.782 0.931 1.522 0.094 44.117 43.118
43.000 -20.608 -0.143 -20.608 -0.143 -20.586 -0.135 -20.457 -0.132 -20.425 -0.133 -20.371 -0.135 -20.121 -0.158 16.763 0.923 1.523 0.093 44.116 43.113
43.400 -20.606 -0.145 -20.606 -0.144 -20.584 -0.136 -20.455 -0.133 -20.424 -0.134 -20.369 -0.136 -20.120 -0.159 16.743 0.914 1.524 0.093 44.114 43.107
43.800 -20.604 -0.146 -20.604 -0.146 -20.582 -0.138 -20.453 -0.134 -20.422 -0.135 -20.368 -0.138 -20.120 -0.161 16.724 0.906 1.525 0.092 44.112 43.102
44.200 -20.602 -0.147 -20.602 -0.147 -20.581 -0.139 -20.452 -0.135 -20.420 -0.136 -20.366 -0.139 -20.119 -0.162 16.704 0.898 1.526 0.091 44.111 43.096
44.600 -20.600 -0.148 -20.600 -0.148 -20.579 -0.140 -20.450 -0.136 -20.419 -0.137 -20.365 -0.140 -20.118 -0.163 16.684 0.889 1.526 0.091 44.109 43.091
45.000 -20.598 -0.149 -20.598 -0.149 -20.577 -0.141 -20.448 -0.138 -20.417 -0.138 -20.363 -0.141 -20.118 -0.164 16.663 0.881 1.527 0.090 44.108 43.085
45.400 -20.596 -0.151 -20.596 -0.150 -20.574 -0.142 -20.446 -0.139 -20.415 -0.140 -20.362 -0.142 -20.117 -0.165 16.643 0.872 1.528 0.090 44.106 43.080
45.800 -20.594 -0.152 -20.594 -0.152 -20.572 -0.143 -20.445 -0.140 -20.414 -0.141 -20.360 -0.143 -20.116 -0.166 16.622 0.864 1.529 0.089 44.104 43.074
46.200 -20.592 -0.153 -20.592 -0.153 -20.570 -0.145 -20.443 -0.141 -20.412 -0.142 -20.359 -0.144 -20.115 -0.168 16.601 0.856 1.530 0.088 44.103 43.068
46.600 -20.590 -0.154 -20.590 -0.154 -20.568 -0.146 -20.441 -0.142 -20.410 -0.143 -20.357 -0.145 -20.115 -0.169 16.580 0.847 1.531 0.088 44.101 43.062
47.000 -20.588 -0.155 -20.588 -0.155 -20.566 -0.147 -20.439 -0.143 -20.409 -0.144 -20.356 -0.146 -20.114 -0.170 16.559 0.839 1.532 0.087 44.099 43.056
47.400 -20.586 -0.156 -20.586 -0.156 -20.564 -0.148 -20.437 -0.144 -20.407 -0.145 -20.354 -0.147 -20.113 -0.171 16.538 0.831 1.533 0.086 44.098 43.051
47.800 -20.584 -0.157 -20.584 -0.157 -20.562 -0.149 -20.435 -0.145 -20.405 -0.146 -20.352 -0.149 -20.112 -0.172 16.517 0.823 1.534 0.086 44.096 43.045
48.200 -20.582 -0.159 -20.582 -0.158 -20.560 -0.150 -20.434 -0.146 -20.403 -0.147 -20.351 -0.150 -20.111 -0.173 16.495 0.814 1.535 0.085 44.094 43.039
48.600 -20.580 -0.160 -20.579 -0.159 -20.558 -0.151 -20.432 -0.147 -20.401 -0.148 -20.349 -0.151 -20.111 -0.174 16.474 0.806 1.536 0.085 44.093 43.033
49.000 -20.578 -0.161 -20.577 -0.161 -20.555 -0.152 -20.430 -0.148 -20.400 -0.149 -20.348 -0.152 -20.110 -0.175 16.452 0.798 1.537 0.084 44.091 43.027
49.400 -20.575 -0.162 -20.575 -0.162 -20.553 -0.153 -20.428 -0.149 -20.398 -0.150 -20.346 -0.153 -20.109 -0.176 16.430 0.790 1.538 0.083 44.089 43.021
49.800 -20.573 -0.163 -20.573 -0.163 -20.551 -0.154 -20.426 -0.150 -20.396 -0.151 -20.344 -0.154 -20.108 -0.177 16.408 0.782 1.538 0.083 44.087 43.014
50.200 -20.571 -0.164 -20.571 -0.164 -20.549 -0.155 -20.424 -0.151 -20.394 -0.152 -20.343 -0.155 -20.107 -0.178 16.386 0.773 1.539 0.082 44.085 43.008
50.600 -20.569 -0.165 -20.568 -0.165 -20.546 -0.156 -20.422 -0.152 -20.392 -0.153 -20.341 -0.156 -20.106 -0.179 16.364 0.765 1.540 0.081 44.084 43.002
51.000 -20.566 -0.166 -20.566 -0.166 -20.544 -0.157 -20.420 -0.153 -20.390 -0.154 -20.339 -0.157 -20.105 -0.180 16.342 0.757 1.541 0.081 44.082 42.996
51.400 -20.564 -0.167 -20.564 -0.167 -20.542 -0.158 -20.418 -0.154 -20.388 -0.155 -20.337 -0.158 -20.104 -0.181 16.320 0.749 1.542 0.080 44.080 42.989
51.800 -20.562 -0.168 -20.561 -0.168 -20.539 -0.159 -20.416 -0.155 -20.386 -0.156 -20.336 -0.159 -20.103 -0.182 16.297 0.741 1.543 0.080 44.078 42.983
52.200 -20.559 -0.169 -20.559 -0.169 -20.537 -0.160 -20.414 -0.156 -20.385 -0.157 -20.334 -0.159 -20.102 -0.183 16.275 0.734 1.544 0.079 44.076 42.977
52.600 -20.557 -0.170 -20.557 -0.170 -20.535 -0.161 -20.412 -0.157 -20.383 -0.158 -20.332 -0.160 -20.101 -0.184 16.252 0.726 1.545 0.078 44.075 42.970
53.000 -20.555 -0.171 -20.554 -0.171 -20.532 -0.162 -20.410 -0.158 -20.381 -0.159 -20.330 -0.161 -20.100 -0.185 16.230 0.718 1.546 0.078 44.073 42.964
53.400 -20.552 -0.172 -20.552 -0.172 -20.530 -0.163 -20.408 -0.159 -20.379 -0.160 -20.329 -0.162 -20.099 -0.186 16.207 0.710 1.547 0.077 44.071 42.957
53.800 -20.550 -0.173 -20.550 -0.173 -20.528 -0.164 -20.406 -0.160 -20.377 -0.161 -20.327 -0.163 -20.098 -0.187 16.184 0.702 1.548 0.076 44.069 42.951
54.200 -20.548 -0.174 -20.547 -0.174 -20.525 -0.165 -20.404 -0.160 -20.375 -0.161 -20.325 -0.164 -20.097 -0.188 16.162 0.695 1.549 0.076 44.067 42.944
54.600 -20.545 -0.175 -20.545 -0.175 -20.523 -0.166 -20.401 -0.161 -20.373 -0.162 -20.323 -0.165 -20.096 -0.189 16.139 0.687 1.550 0.075 44.065 42.938
55.000 -20.543 -0.176 -20.542 -0.175 -20.520 -0.167 -20.399 -0.162 -20.371 -0.163 -20.321 -0.166 -20.095 -0.190 16.116 0.679 1.551 0.075 44.063 42.931
55.400 -20.540 -0.177 -20.540 -0.176 -20.518 -0.168 -20.397 -0.163 -20.369 -0.164 -20.319 -0.167 -20.094 -0.191 16.093 0.672 1.552 0.074 44.061 42.924
55.800 -20.538 -0.178 -20.537 -0.177 -20.515 -0.169 -20.395 -0.164 -20.367 -0.165 -20.318 -0.167 -20.093 -0.192 16.070 0.664 1.553 0.073 44.059 42.918
56.200 -20.535 -0.178 -20.535 -0.178 -20.513 -0.169 -20.393 -0.165 -20.365 -0.166 -20.316 -0.168 -20.092 -0.192 16.047 0.657 1.554 0.073 44.058 42.911
56.600 -20.533 -0.179 -20.532 -0.179 -20.510 -0.170 -20.391 -0.165 -20.362 -0.166 -20.314 -0.169 -20.091 -0.193 16.024 0.649 1.555 0.072 44.056 42.904
57.000 -20.530 -0.180 -20.530 -0.180 -20.508 -0.171 -20.389 -0.166 -20.360 -0.167 -20.312 -0.170 -20.090 -0.194 16.001 0.642 1.556 0.072 44.054 42.897
57.400 -20.528 -0.181 -20.527 -0.181 -20.505 -0.172 -20.386 -0.167 -20.358 -0.168 -20.310 -0.170 -20.088 -0.195 15.978 0.634 1.557 0.071 44.052 42.891
57.800 -20.525 -0.182 -20.525 -0.181 -20.503 -0.173 -20.384 -0.168 -20.356 -0.169 -20.308 -0.171 -20.087 -0.196 15.955 0.627 1.559 0.070 44.050 42.884
58.200 -20.522 -0.183 -20.522 -0.182 -20.500 -0.173 -20.382 -0.168 -20.354 -0.169 -20.306 -0.172 -20.086 -0.197 15.932 0.620 1.560 0.070 44.048 42.877
58.600 -20.520 -0.183 -20.520 -0.183 -20.497 -0.174 -20.380 -0.169 -20.352 -0.170 -20.304 -0.173 -20.085 -0.197 15.909 0.613 1.561 0.069 44.046 42.870
59.000 -20.517 -0.184 -20.517 -0.184 -20.495 -0.175 -20.377 -0.170 -20.350 -0.171 -20.302 -0.173 -20.084 -0.198 15.886 0.606 1.562 0.069 44.044 42.863
59.400 -20.515 -0.185 -20.514 -0.185 -20.492 -0.176 -20.375 -0.170 -20.348 -0.171 -20.300 -0.174 -20.082 -0.199 15.863 0.598 1.563 0.068 44.042 42.856
59.800 -20.512 -0.186 -20.512 -0.185 -20.490 -0.176 -20.373 -0.171 -20.345 -0.172 -20.298 -0.175 -20.081 -0.200 15.839 0.591 1.564 0.067 44.040 42.849
60.200 -20.509 -0.186 -20.509 -0.186 -20.487 -0.177 -20.371 -0.172 -20.343 -0.173 -20.296 -0.176 -20.080 -0.200 15.816 0.584 1.565 0.067 44.038 42.842
60.600 -20.507 -0.187 -20.506 -0.187 -20.484 -0.178 -20.368 -0.172 -20.341 -0.173 -20.294 -0.176 -20.079 -0.201 15.793 0.577 1.566 0.066 44.036 42.835
61.000 -20.504 -0.188 -20.504 -0.188 -20.482 -0.179 -20.366 -0.173 -20.339 -0.174 -20.292 -0.177 -20.077 -0.202 15.770 0.570 1.567 0.066 44.034 42.827
61.400 -20.501 -0.189 -20.501 -0.188 -20.479 -0.179 -20.364 -0.174 -20.337 -0.175 -20.290 -0.177 -20.076 -0.203 15.747 0.564 1.568 0.065 44.032 42.820
61.800 -20.499 -0.189 -20.498 -0.189 -20.476 -0.180 -20.361 -0.174 -20.334 -0.175 -20.288 -0.178 -20.075 -0.203 15.724 0.557 1.569 0.064 44.030 42.813
62.200 -20.496 -0.190 -20.496 -0.190 -20.474 -0.180 -20.359 -0.175 -20.332 -0.176 -20.286 -0.179 -20.074 -0.204 15.701 0.550 1.570 0.064 44.028 42.806
62.600 -20.493 -0.191 -20.493 -0.190 -20.471 -0.181 -20.357 -0.175 -20.330 -0.177 -20.284 -0.179 -20.072 -0.205 15.678 0.543 1.571 0.063 44.026 42.799
63.000 -20.490 -0.191 -20.490 -0.191 -20.468 -0.182 -20.354 -0.176 -20.328 -0.177 -20.282 -0.180 -20.071 -0.205 15.654 0.537 1.572 0.063 44.024 42.791
63.400 -20.488 -0.192 -20.487 -0.192 -20.465 -0.182 -20.352 -0.177 -20.325 -0.178 -20.280 -0.180 -20.070 -0.206 15.631 0.530 1.573 0.062 44.022 42.784
63.800 -20.485 -0.192 -20.485 -0.192 -20.463 -0.183 -20.350 -0.177 -20.323 -0.178 -20.278 -0.181 -20.068 -0.207 15.608 0.523 1.574 0.062 44.020 42.777
64.200 -20.482 -0.193 -20.482 -0.193 -20.460 -0.183 -20.347 -0.178 -20.321 -0.179 -20.275 -0.182 -20.067 -0.207 15.585 0.517 1.575 0.061 44.018 42.769
64.600 -20.479 -0.194 -20.479 -0.193 -20.457 -0.184 -20.345 -0.178 -20.318 -0.179 -20.273 -0.182 -20.066 -0.208 15.562 0.510 1.576 0.060 44.016 42.762
65.000 -20.476 -0.194 -20.476 -0.194 -20.454 -0.185 -20.342 -0.179 -20.316 -0.180 -20.271 -0.183 -20.064 -0.209 15.539 0.504 1.577 0.060 44.014 42.754
65.400 -20.474 -0.195 -20.473 -0.194 -20.452 -0.185 -20.340 -0.179 -20.314 -0.180 -20.269 -0.183 -20.063 -0.209 15.516 0.498 1.577 0.059 44.012 42.747
65.800 -20.471 -0.195 -20.470 -0.195 -20.449 -0.186 -20.337 -0.180 -20.312 -0.181 -20.267 -0.184 -20.062 -0.210 15.493 0.491 1.578 0.059 44.010 42.739
66.200 -20.468 -0.196 -20.468 -0.196 -20.446 -0.186 -20.335 -0.180 -20.309 -0.181 -20.265 -0.184 -20.060 -0.210 15.470 0.485 1.579 0.058 44.008 42.732
66.600 -20.465 -0.196 -20.465 -0.196 -20.443 -0.187 -20.333 -0.181 -20.307 -0.182 -20.263 -0.184 -20.059 -0.211 15.447 0.479 1.580 0.058 44.006 42.724
67.000 -20.462 -0.197 -20.462 -0.197 -20.440 -0.187 -20.330 -0.181 -20.304 -0.182 -20.260 -0.185 -20.057 -0.211 15.424 0.473 1.581 0.057 44.004 42.716
67.400 -20.459 -0.197 -20.459 -0.197 -20.437 -0.188 -20.328 -0.181 -20.302 -0.182 -20.258 -0.185 -20.056 -0.212 15.401 0.466 1.582 0.056 44.002 42.709
67.800 -20.456 -0.198 -20.456 -0.198 -20.435 -0.188 -20.325 -0.182 -20.300 -0.183 -20.256 -0.186 -20.054 -0.212 15.379 0.460 1.583 0.056 44.000 42.701
68.200 -20.453 -0.198 -20.453 -0.198 -20.432 -0.188 -20.323 -0.182 -20.297 -0.183 -20.254 -0.186 -20.053 -0.213 15.356 0.454 1.584 0.055 43.998 42.693
68.600 -20.451 -0.199 -20.450 -0.198 -20.429 -0.189 -20.320 -0.182 -20.295 -0.184 -20.252 -0.186 -20.051 -0.213 15.333 0.448 1.585 0.055 43.996 42.686
69.000 -20.448 -0.199 -20.447 -0.199 -20.426 -0.189 -20.318 -0.183 -20.293 -0.184 -20.249 -0.187 -20.050 -0.214 15.310 0.442 1.586 0.054 43.993 42.678
69.400 -20.445 -0.200 -20.444 -0.199 -20.423 -0.190 -20.315 -0.183 -20.290 -0.184 -20.247 -0.187 -20.049 -0.214 15.288 0.436 1.587 0.054 43.991 42.670
69.800 -20.442 -0.200 -20.441 -0.200 -20.420 -0.190 -20.313 -0.183 -20.288 -0.185 -20.245 -0.188 -20.047 -0.215 15.265 0.431 1.588 0.053 43.989 42.662
70.200 -20.439 -0.200 -20.438 -0.200 -20.417 -0.190 -20.310 -0.184 -20.285 -0.185 -20.243 -0.188 -20.046 -0.215 15.242 0.425 1.589 0.052 43.987 42.654
70.600 -20.436 -0.201 -20.435 -0.201 -20.414 -0.191 -20.308 -0.184 -20.283 -0.185 -20.240 -0.188 -20.044 -0.216 15.220 0.419 1.590 0.052 43.985 42.646
71.000 -20.433 -0.201 -20.432 -0.201 -20.411 -0.191 -20.305 -0.184 -20.280 -0.185 -20.238 -0.188 -20.042 -0.216 15.197 0.413 1.591 0.051 43.983 42.638
71.400 -20.430 -0.202 -20.429 -0.201 -20.408 -0.191 -20.303 -0.185 -20.278 -0.186 -20.236 -0.189 -20.041 -0.216 15.175 0.408 1.592 0.051 43.981 42.630
71.800 -20.427 -0.202 -20.426 -0.202 -20.405 -0.192 -20.300 -0.185 -20.275 -0.186 -20.233 -0.189 -20.039 -0.217 15.153 0.402 1.593 0.050 43.979 42.622
72.200 -20.424 -0.202 -20.423 -0.202 -20.402 -0.192 -20.297 -0.185 -20.273 -0.186 -20.231 -0.189 -20.038 -0.217 15.130 0.397 1.594 0.050 43.977 42.614
72.600 -20.421 -0.202 -20.420 -0.202 -20.399 -0.192 -20.295 -0.185 -20.271 -0.186 -20.229 -0.189 -20.036 -0.217 15.108 0.391 1.594 0.049 43.975 42.606
73.000 -20.418 -0.203 -20.417 -0.202 -20.396 -0.192 -20.292 -0.185 -20.268 -0.187 -20.226 -0.190 -20.035 -0.218 15.086 0.386 1.595 0.049 43.973 42.598
73.400 -20.415 -0.203 -20.414 -0.203 -20.394 -0.193 -20.290 -0.186 -20.266 -0.187 -20.224 -0.190 -20.033 -0.218 15.063 0.380 1.596 0.048 43.971 42.590
73.800 -20.412 -0.203 -20.411 -0.203 -20.391 -0.193 -20.287 -0.186 -20.263 -0.187 -20.222 -0.190 -20.032 -0.218 15.041 0.375 1.597 0.048 43.969 42.582
74.200 -20.409 -0.204 -20.408 -0.203 -20.387 -0.193 -20.284 -0.186 -20.261 -0.187 -20.219 -0.190 -20.030 -0.219 15.019 0.370 1.598 0.047 43.967 42.573
74.600 -20.406 -0.204 -20.405 -0.204 -20.384 -0.193 -20.282 -0.186 -20.258 -0.187 -20.217 -0.190 -20.028 -0.219 14.997 0.364 1.599 0.047 43.964 42.565
75.000 -20.402 -0.204 -20.402 -0.204 -20.381 -0.193 -20.279 -0.186 -20.255 -0.187 -20.215 -0.190 -20.027 -0.219 14.975 0.359 1.600 0.046 43.962 42.557
75.400 -20.399 -0.204 -20.399 -0.204 -20.378 -0.194 -20.277 -0.186 -20.253 -0.187 -20.212 -0.191 -20.025 -0.220 14.953 0.354 1.601 0.046 43.960 42.548
75.800 -20.396 -0.204 -20.396 -0.204 -20.375 -0.194 -20.274 -0.186 -20.250 -0.187 -20.210 -0.191 -20.023 -0.220 14.931 0.349 1.601 0.045 43.958 42.540
76.200 -20.393 -0.205 -20.393 -0.204 -20.372 -0.194 -20.271 -0.186 -20.248 -0.188 -20.208 -0.191 -20.022 -0.220 14.909 0.344 1.602 0.044 43.956 42.532
76.600 -20.390 -0.205 -20.390 -0.204 -20.369 -0.194 -20.269 -0.186 -20.245 -0.188 -20.205 -0.191 -20.020 -0.220 14.887 0.339 1.603 0.044 43.954 42.523
77.000 -20.387 -0.205 -20.387 -0.205 -20.366 -0.194 -20.266 -0.186 -20.243 -0.188 -20.203 -0.191 -20.018 -0.221 14.866 0.334 1.604 0.043 43.952 42.515
77.400 -20.384 -0.205 -20.383 -0.205 -20.363 -0.194 -20.263 -0.187 -20.240 -0.188 -20.200 -0.191 -20.017 -0.221 14.844 0.329 1.605 0.043 43.950 42.506
77.800 -20.381 -0.205 -20.380 -0.205 -20.360 -0.194 -20.261 -0.187 -20.238 -0.188 -20.198 -0.191 -20.015 -0.221 14.822 0.324 1.606 0.042 43.948 42.497
78.200 -20.378 -0.205 -20.377 -0.205 -20.357 -0.194 -20.258 -0.187 -20.235 -0.188 -20.196 -0.191 -20.013 -0.221 14.801 0.319 1.607 0.042 43.946 42.489
78.600 -20.374 -0.205 -20.374 -0.205 -20.354 -0.194 -20.255 -0.186 -20.232 -0.188 -20.193 -0.191 -20.012 -0.221 14.779 0.314 1.607 0.041 43.944 42.480
79.000 -20.371 -0.205 -20.371 -0.205 -20.351 -0.194 -20.253 -0.186 -20.230 -0.188 -20.191 -0.191 -20.010 -0.221 14.758 0.309 1.608 0.041 43.942 42.471
79.400 -20.368 -0.206 -20.368 -0.205 -20.348 -0.194 -20.250 -0.186 -20.227 -0.188 -20.188 -0.191 -20.008 -0.222 14.736 0.305 1.609 0.040 43.939 42.463
79.800 -20.365 -0.206 -20.365 -0.205 -20.345 -0.194 -20.247 -0.186 -20.225 -0.188 -20.186 -0.191 -20.007 -0.222 14.715 0.300 1.610 0.040 43.937 42.454
80.200 -20.362 -0.206 -20.361 -0.205 -20.342 -0.194 -20.244 -0.186 -20.222 -0.187 -20.184 -0.191 -20.005 -0.222 14.694 0.295 1.611 0.039 43.935 42.445
80.600 -20.358 -0.206 -20.358 -0.205 -20.338 -0.194 -20.242 -0.186 -20.219 -0.187 -20.181 -0.191 -20.003 -0.222 14.672 0.291 1.611 0.039 43.933 42.436
81.000 -20.355 -0.206 -20.355 -0.205 -20.335 -0.194 -20.239 -0.186 -20.217 -0.187 -20.179 -0.191 -20.001 -0.222 14.651 0.286 1.612 0.038 43.931 42.427
81.400 -20.352 -0.206 -20.352 -0.205 -20.332 -0.194 -20.236 -0.186 -20.214 -0.187 -20.176 -0.191 -20.000 -0.222 14.630 0.282 1.613 0.038 43.929 42.418
81.800 -20.349 -0.206 -20.349 -0.205 -20.329 -0.194 -20.234 -0.186 -20.212 -0.187 -20.174 -0.190 -19.998 -0.222 14.609 0.277 1.614 0.037 43.927 42.409
82.200 -20.346 -0.206 -20.345 -0.205 -20.326 -0.194 -20.231 -0.186 -20.209 -0.187 -20.171 -0.190 -19.996 -0.222 14.588 0.273 1.615 0.037 43.925 42.400
82.600 -20.342 -0.206 -20.342 -0.205 -20.323 -0.194 -20.228 -0.185 -20.206 -0.187 -20.169 -0.190 -19.994 -0.222 14.567 0.268 1.615 0.036 43.923 42.391
83.000 -20.339 -0.205 -20.339 -0.205 -20.320 -0.194 -20.225 -0.185 -20.204 -0.186 -20.166 -0.190 -19.993 -0.222 14.547 0.264 1.616 0.036 43.921 42.382
83.400 -20.336 -0.205 -20.336 -0.205 -20.316 -0.194 -20.223 -0.185 -20.201 -0.186 -20.164 -0.190 -19.991 -0.222 14.526 0.260 1.617 0.035 43.919 42.372
83.800 -20.333 -0.205 -20.332 -0.205 -20.313 -0.194 -20.220 -0.185 -20.198 -0.186 -20.161 -0.190 -19.989 -0.222 14.505 0.256 1.618 0.035 43.917 42.363
84.200 -20.329 -0.205 -20.329 -0.205 -20.310 -0.193 -20.217 -0.185 -20.196 -0.186 -20.159 -0.189 -19.987 -0.222 14.484 0.251 1.618 0.034 43.915 42.354
84.600 -20.326 -0.205 -20.326 -0.205 -20.307 -0.193 -20.214 -0.184 -20.193 -0.186 -20.156 -0.189 -19.986 -0.222 14.464 0.247 1.619 0.034 43.913 42.345
85.000 -20.323 -0.205 -20.323 -0.205 -20.304 -0.193 -20.212 -0.184 -20.190 -0.185 -20.154 -0.189 -19.984 -0.222 14.443 0.243 1.620 0.034 43.910 42.335
85.400 -20.320 -0.205 -20.319 -0.204 -20.300 -0.193 -20.209 -0.184 -20.188 -0.185 -20.151 -0.189 -19.982 -0.222 14.423 0.239 1.621 0.033 43.908 42.326
85.800 -20.316 -0.205 -20.316 -0.204 -20.297 -0.193 -20.206 -0.183 -20.185 -0.185 -20.149 -0.189 -19.980 -0.222 14.403 0.235 1.621 0.033 43.906 42.316
86.200 -20.313 -0.204 -20.313 -0.204 -20.294 -0.192 -20.203 -0.183 -20.182 -0.184 -20.146 -0.188 -19.978 -0.222 14.382 0.231 1.622 0.032 43.904 42.307
86.600 -20.310 -0.204 -20.310 -0.204 -20.291 -0.192 -20.201 -0.183 -20.180 -0.184 -20.144 -0.188 -19.976 -0.222 14.362 0.227 1.623 0.032 43.902 42.297
87.000 -20.307 -0.204 -20.306 -0.204 -20.288 -0.192 -20.198 -0.182 -20.177 -0.184 -20.141 -0.188 -19.975 -0.222 14.342 0.223 1.623 0.031 43.900 42.287
87.400 -20.303 -0.204 -20.303 -0.204 -20.285 -0.192 -20.195 -0.182 -20.174 -0.183 -20.139 -0.187 -19.973 -0.222 14.322 0.219 1.624 0.031 43.898 42.277
87.800 -20.300 -0.204 -20.300 -0.203 -20.281 -0.191 -20.192 -0.182 -20.172 -0.183 -20.136 -0.187 -19.971 -0.222 14.302 0.215 1.625 0.030 43.896 42.268
88.200 -20.297 -0.203 -20.296 -0.203 -20.278 -0.191 -20.189 -0.181 -20.169 -0.183 -20.134 -0.187 -19.969 -0.222 14.282 0.211 1.625 0.030 43.894 42.258
88.600 -20.293 -0.203 -20.293 -0.203 -20.275 -0.191 -20.187 -0.181 -20.166 -0.182 -20.131 -0.186 -19.967 -0.222 14.262 0.208 1.626 0.029 43.892 42.248
89.000 -20.290 -0.203 -20.290 -0.203 -20.272 -0.190 -20.184 -0.181 -20.163 -0.182 -20.128 -0.186 -19.965 -0.221 14.242 0.204 1.627 0.029 43.890 42.238
89.400 -20.287 -0.203 -20.286 -0.202 -20.268 -0.190 -20.181 -0.180 -20.161 -0.181 -20.126 -0.185 -19.963 -0.221 14.220 0.200 1.628 0.029 43.888 42.228
89.800 -20.283 -0.202 -20.283 -0.202 -20.265 -0.190 -20.178 -0.180 -20.158 -0.181 -20.123 -0.185 -19.962 -0.221 14.202 0.197 1.628 0.028 43.886 42.218
90.200 -20.280 -0.202 -20.280 -0.202 -20.262 -0.189 -20.175 -0.179 -20.155 -0.181 -20.121 -0.185 -19.960 -0.221 14.181 0.193 1.629 0.028 43.884 42.207
90.600 -20.277 -0.202 -20.277 -0.201 -20.259 -0.189 -20.172 -0.179 -20.153 -0.180 -20.118 -0.184 -19.958 -0.221 14.162 0.189 1.630 0.027 43.882 42.197
91.000 -20.273 -0.201 -20.273 -0.201 -20.255 -0.188 -20.170 -0.178 -20.150 -0.180 -20.116 -0.184 -19.956 -0.221 14.144 0.186 1.630 0.027 43.880 42.187
91.400 -20.270 -0.201 -20.270 -0.201 -20.252 -0.188 -20.167 -0.178 -20.147 -0.179 -20.113 -0.183 -19.954 -0.220 14.125 0.182 1.631 0.026 43.878 42.177
91.800 -20.267 -0.201 -20.267 -0.200 -20.249 -0.188 -20.164 -0.177 -20.144 -0.179 -20.111 -0.183 -19.952 -0.220 14.105 0.179 1.631 0.026 43.875 42.166
92.200 -20.263 -0.200 -20.263 -0.200 -20.246 -0.187 -20.161 -0.177 -20.142 -0.178 -20.108 -0.182 -19.950 -0.220 14.084 0.175 1.632 0.025 43.873 42.156
92.600 -20.260 -0.200 -20.260 -0.200 -20.242 -0.187 -20.158 -0.176 -20.139 -0.178 -20.105 -0.182 -19.948 -0.220 14.065 0.172 1.633 0.025 43.871 42.145
93.000 -20.257 -0.200 -20.256 -0.199 -20.239 -0.186 -20.156 -0.176 -20.136 -0.177 -20.103 -0.181 -19.946 -0.219 14.047 0.169 1.633 0.025 43.869 42.135
93.400 -20.253 -0.199 -20.253 -0.199 -20.236 -0.186 -20.153 -0.175 -20.133 -0.177 -20.100 -0.181 -19.944 -0.219 14.029 0.165 1.634 0.024 43.867 42.124
93.800 -20.250 -0.199 -20.250 -0.198 -20.233 -0.185 -20.150 -0.174 -20.131 -0.176 -20.098 -0.180 -19.943 -0.219 14.010 0.162 1.634 0.024 43.865 42.113
94.200 -20.247 -0.198 -20.246 -0.198 -20.229 -0.185 -20.147 -0.174 -20.128 -0.175 -20.095 -0.180 -19.941 -0.219 13.989 0.159 1.635 0.023 43.863 42.102
94.600 -20.243 -0.198 -20.243 -0.198 -20.226 -0.184 -20.144 -0.173 -20.125 -0.175 -20.092 -0.179 -19.939 -0.218 13.972 0.156 1.636 0.023 43.861 42.092
95.000 -20.240 -0.197 -20.240 -0.197 -20.223 -0.184 -20.141 -0.173 -20.122 -0.174 -20.090 -0.179 -19.937 -0.218 13.951 0.153 1.637 0.023 43.859 42.080
95.400 -20.237 -0.197 -20.236 -0.197 -20.220 -0.183 -20.138 -0.172 -20.120 -0.174 -20.087 -0.178 -19.935 -0.218 13.933 0.149 1.637 0.022 43.857 42.069
95.800 -20.233 -0.197 -20.233 -0.196 -20.216 -0.183 -20.136 -0.171 -20.117 -0.173 -20.085 -0.177 -19.933 -0.217 13.914 0.146 1.638 0.022 43.855 42.058
96.200 -20.230 -0.196 -20.230 -0.196 -20.213 -0.182 -20.133 -0.171 -20.114 -0.172 -20.082 -0.177 -19.931 -0.217 13.897 0.143 1.638 0.021 43.853 42.047
96.600 -20.227 -0.196 -20.226 -0.195 -20.210 -0.181 -20.130 -0.170 -20.111 -0.172 -20.079 -0.176 -19.929 -0.217 13.879 0.140 1.639 0.021 43.851 42.036
97.000 -20.223 -0.195 -20.223 -0.195 -20.207 -0.181 -20.127 -0.169 -20.109 -0.171 -20.077 -0.176 -19.927 -0.216 13.860 0.137 1.639 0.021 43.849 42.025
97.400 -20.220 -0.195 -20.219 -0.194 -20.203 -0.180 -20.124 -0.169 -20.106 -0.170 -20.074 -0.175 -19.925 -0.216 13.842 0.134 1.640 0.020 43.847 42.013
97.800 -20.216 -0.194 -20.216 -0.194 -20.200 -0.180 -20.121 -0.168 -20.103 -0.170 -20.072 -0.174 -19.923 -0.216 13.824 0.132 1.640 0.020 43.845 42.002
98.200 -20.213 -0.193 -20.213 -0.193 -20.197 -0.179 -20.119 -0.167 -20.100 -0.169 -20.069 -0.174 -19.921 -0.215 13.804 0.129 1.641 0.019 43.843 41.990
98.600 -20.210 -0.193 -20.209 -0.193 -20.193 -0.178 -20.116 -0.166 -20.098 -0.168 -20.066 -0.173 -19.919 -0.215 13.787 0.126 1.641 0.019 43.841 41.979
99.000 -20.206 -0.192 -20.206 -0.192 -20.190 -0.178 -20.113 -0.166 -20.095 -0.167 -20.064 -0.172 -19.917 -0.215 13.768 0.123 1.642 0.019 43.839 41.967
99.400 -20.203 -0.192 -20.203 -0.191 -20.187 -0.177 -20.110 -0.165 -20.092 -0.167 -20.061 -0.172 -19.915 -0.214 13.751 0.120 1.642 0.018 43.837 41.955
99.800 -20.199 -0.191 -20.199 -0.191 -20.184 -0.176 -20.107 -0.164 -20.089 -0.166 -20.058 -0.171 -19.913 -0.214 13.733 0.118 1.643 0.018 43.835 41.943
100.200 -20.196 -0.191 -20.196 -0.190 -20.180 -0.176 -20.104 -0.163 -20.086 -0.165 -20.056 -0.170 -19.911 -0.213 13.716 0.115 1.643 0.018 43.833 41.931
100.600 -20.193 -0.190 -20.192 -0.190 -20.177 -0.175 -20.101 -0.163 -20.084 -0.164 -20.053 -0.169 -19.909 -0.213 13.698 0.113 1.644 0.017 43.831 41.919
101.000 -20.189 -0.189 -20.189 -0.189 -20.174 -0.174 -20.098 -0.162 -20.081 -0.164 -20.051 -0.169 -19.907 -0.213 13.680 0.110 1.644 0.017 43.829 41.907
101.400 -20.186 -0.189 -20.186 -0.188 -20.170 -0.174 -20.096 -0.161 -20.078 -0.163 -20.048 -0.168 -19.905 -0.212 13.663 0.108 1.645 0.017 43.827 41.895
101.800 -20.182 -0.188 -20.182 -0.188 -20.167 -0.173 -20.093 -0.160 -20.075 -0.162 -20.045 -0.167 -19.903 -0.212 13.643 0.105 1.646 0.016 43.825 41.883
102.200 -20.179 -0.187 -20.179 -0.187 -20.164 -0.172 -20.090 -0.159 -20.073 -0.161 -20.043 -0.166 -19.901 -0.211 13.626 0.103 1.646 0.016 43.823 41.871
102.600 -20.176 -0.187 -20.175 -0.186 -20.161 -0.172 -20.087 -0.159 -20.070 -0.160 -20.040 -0.166 -19.899 -0.211 13.608 0.100 1.647 0.016 43.821 41.858
103.000 -20.172 -0.186 -20.172 -0.186 -20.157 -0.171 -20.084 -0.158 -20.067 -0.159 -20.037 -0.165 -19.897 -0.210 13.591 0.098 1.647 0.015 43.819 41.846
103.400 -20.169 -0.185 -20.169 -0.185 -20.154 -0.170 -20.081 -0.157 -20.064 -0.159 -20.035 -0.164 -19.895 -0.210 13.574 0.096 1.647 0.015 43.817 41.834
103.800 -20.165 -0.185 -20.165 -0.184 -20.151 -0.169 -20.078 -0.156 -20.061 -0.158 -20.032 -0.163 -19.893 -0.210 13.557 0.093 1.648 0.015 43.815 41.821
104.200 -20.162 -0.184 -20.162 -0.184 -20.147 -0.168 -20.076 -0.155 -20.059 -0.157 -20.030 -0.162 -19.891 -0.209 13.540 0.091 1.648 0.014 43.813 41.809
104.600 -20.159 -0.183 -20.158 -0.183 -20.144 -0.168 -20.073 -0.154 -20.056 -0.156 -20.027 -0.161 -19.889 -0.209 13.523 0.089 1.649 0.014 43.811 41.796
105.000 -20.155 -0.183 -20.155 -0.182 -20.141 -0.167 -20.070 -0.153 -20.053 -0.155 -20.024 -0.161 -19.887 -0.208 13.506 0.087 1.649 0.014 43.809 41.784
105.400 -20.152 -0.182 -20.152 -0.182 -20.137 -0.166 -20.067 -0.152 -20.050 -0.154 -20.022 -0.160 -19.885 -0.208 13.489 0.085 1.650 0.013 43.807 41.771
105.800 -20.148 -0.181 -20.148 -0.181 -20.134 -0.165 -20.064 -0.151 -20.048 -0.153 -20.019 -0.159 -19.883 -0.207 13.472 0.083 1.650 0.013 43.806 41.759
106.200 -20.145 -0.181 -20.145 -0.180 -20.131 -0.164 -20.061 -0.150 -20.045 -0.152 -20.016 -0.158 -19.881 -0.207 13.455 0.081 1.650 0.013 43.804 41.746
106.600 -20.142 -0.180 -20.141 -0.179 -20.128 -0.164 -20.058 -0.149 -20.042 -0.151 -20.014 -0.157 -19.879 -0.206 13.439 0.079 1.651 0.013 43.802 41.734
107.000 -20.138 -0.179 -20.138 -0.179 -20.124 -0.163 -20.055 -0.149 -20.039 -0.150 -20.011 -0.156 -19.877 -0.206 13.422 0.077 1.651 0.012 43.800 41.721
107.400 -20.135 -0.178 -20.135 -0.178 -20.121 -0.162 -20.053 -0.148 -20.036 -0.149 -20.008 -0.155 -19.875 -0.205 13.405 0.075 1.652 0.012 43.798 41.709
107.800 -20.131 -0.178 -20.131 -0.177 -20.118 -0.161 -20.050 -0.147 -20.034 -0.149 -20.006 -0.155 -19.873 -0.205 13.389 0.073 1.652 0.012 43.796 41.697
108.200 -20.128 -0.177 -20.128 -0.176 -20.114 -0.160 -20.047 -0.146 -20.031 -0.148 -20.003 -0.154 -19.871 -0.204 13.373 0.072 1.652 0.012 43.794 41.684
108.600 -20.125 -0.176 -20.124 -0.176 -20.111 -0.159 -20.044 -0.145 -20.028 -0.147 -20.001 -0.153 -19.869 -0.204 13.356 0.070 1.653 0.011 43.792 41.672
109.000 -20.121 -0.175 -20.121 -0.175 -20.108 -0.159 -20.041 -0.144 -20.025 -0.146 -19.998 -0.152 -19.867 -0.203 13.340 0.068 1.653 0.011 43.790 41.660
109.400 -20.118 -0.174 -20.118 -0.174 -20.105 -0.158 -20.038 -0.143 -20.023 -0.145 -19.995 -0.151 -19.865 -0.203 13.324 0.067 1.654 0.011 43.788 41.649
109.800 -20.114 -0.174 -20.114 -0.173 -20.101 -0.157 -20.035 -0.142 -20.020 -0.144 -19.993 -0.150 -19.862 -0.202 13.308 0.065 1.654 0.011 43.786 41.637
110.200 -20.111 -0.173 -20.111 -0.172 -20.098 -0.156 -20.033 -0.141 -20.017 -0.143 -19.990 -0.149 -19.860 -0.201 13.292 0.064 1.654 0.010 43.784 41.625
110.600 -20.108 -0.172 -20.107 -0.172 -20.095 -0.155 -20.030 -0.140 -20.014 -0.142 -19.987 -0.148 -19.858 -0.201 13.276 0.063 1.655 0.010 43.783 41.614
111.000 -20.104 -0.171 -20.104 -0.171 -20.091 -0.154 -20.027 -0.139 -20.012 -0.141 -19.985 -0.147 -19.856 -0.200 13.260 0.061 1.655 0.010 43.781 41.603
111.400 -20.101 -0.170 -20.101 -0.170 -20.088 -0.153 -20.024 -0.138 -20.009 -0.140 -19.982 -0.146 -19.854 -0.200 13.244 0.060 1.655 0.010 43.779 41.593
111.800 -20.097 -0.170 -20.097 -0.169 -20.085 -0.152 -20.021 -0.137 -20.006 -0.139 -19.980 -0.145 -19.852 -0.199 13.229 0.059 1.656 0.010 43.777 41.582
112.200 -20.094 -0.169 -20.094 -0.168 -20.082 -0.151 -20.018 -0.136 -20.003 -0.138 -19.977 -0.144 -19.850 -0.199 13.213 0.058 1.656 0.010 43.775 41.572
112.600 -20.091 -0.168 -20.090 -0.167 -20.078 -0.150 -20.016 -0.135 -20.000 -0.137 -19.974 -0.143 -19.848 -0.198 13.197 0.057 1.656 0.009 43.773 41.563
113.000 -20.087 -0.167 -20.087 -0.167 -20.075 -0.149 -20.013 -0.133 -19.998 -0.136 -19.972 -0.142 -19.846 -0.198 13.182 0.056 1.657 0.009 43.771 41.554
113.400 -20.084 -0.166 -20.084 -0.166 -20.072 -0.149 -20.010 -0.132 -19.995 -0.135 -19.969 -0.141 -19.844 -0.197 13.167 0.055 1.657 0.009 43.769 41.545
113.800 -20.080 -0.165 -20.080 -0.165 -20.069 -0.148 -20.007 -0.131 -19.992 -0.134 -19.966 -0.140 -19.842 -0.196 13.151 0.054 1.657 0.009 43.767 41.537
114.200 -20.077 -0.164 -20.077 -0.164 -20.065 -0.147 -20.004 -0.130 -19.989 -0.133 -19.964 -0.140 -19.840 -0.196 13.136 0.054 1.658 0.009 43.766 41.529
114.600 -20.074 -0.164 -20.074 -0.163 -20.062 -0.146 -20.001 -0.129 -19.987 -0.131 -19.961 -0.139 -19.838 -0.195 13.121 0.053 1.658 0.009 43.764 41.522
115.000 -20.070 -0.163 -20.070 -0.162 -20.059 -0.145 -19.998 -0.128 -19.984 -0.130 -19.959 -0.138 -19.836 -0.195 13.106 0.052 1.658 0.009 43.762 41.515
115.400 -20.067 -0.162 -20.067 -0.161 -20.056 -0.144 -19.996 -0.127 -19.981 -0.129 -19.956 -0.137 -19.834 -0.194 13.091 0.052 1.658 0.009 43.760 41.509
115.800 -20.064 -0.161 -20.063 -0.161 -20.052 -0.143 -19.993 -0.126 -19.978 -0.128 -19.953 -0.136 -19.832 -0.194 13.076 0.052 1.659 0.009 43.758 41.503
116.200 -20.060 -0.160 -20.060 -0.160 -20.049 -0.142 -19.990 -0.125 -19.976 -0.127 -19.951 -0.135 -19.829 -0.193 13.061 0.051 1.659 0.009 43.756 41.498
116.600 -20.057 -0.159 -20.057 -0.159 -20.046 -0.141 -19.987 -0.124 -19.973 -0.126 -19.948 -0.134 -19.827 -0.193 13.046 0.051 1.659 0.009 43.754 41.493
117.000 -20.053 -0.158 -20.053 -0.158 -20.043 -0.140 -19.984 -0.123 -19.970 -0.125 -19.945 -0.133 -19.825 -0.192 13.031 0.051 1.659 0.009 43.753 41.490
117.400 -20.050 -0.158 -20.050 -0.157 -20.039 -0.139 -19.982 -0.122 -19.967 -0.124 -19.943 -0.132 -19.823 -0.191 13.017 0.050 1.660 0.009 43.751 41.486
117.800 -20.047 -0.157 -20.047 -0.156 -20.036 -0.138 -19.979 -0.121 -19.965 -0.123 -19.940 -0.131 -19.821 -0.191 13.002 0.050 1.660 0.009 43.749 41.483
118.200 -20.043 -0.156 -20.043 -0.155 -20.033 -0.137 -19.976 -0.120 -19.962 -0.122 -19.938 -0.130 -19.819 -0.190 12.987 0.050 1.660 0.009 43.747 41.481
118.600 -20.040 -0.155 -20.040 -0.154 -20.030 -0.136 -19.973 -0.119 -19.959 -0.121 -19.935 -0.129 -19.817 -0.190 12.973 0.050 1.660 0.009 43.745 41.479
119.000 -20.037 -0.154 -20.036 -0.153 -20.026 -0.135 -19.970 -0.118 -19.956 -0.120 -19.932 -0.128 -19.815 -0.189 12.959 0.050 1.661 0.009 43.744 41.478
119.400 -20.033 -0.153 -20.033 -0.153 -20.023 -0.134 -19.967 -0.117 -19.954 -0.119 -19.930 -0.127 -19.813 -0.189 12.944 0.051 1.661 0.009 43.742 41.477
119.800 -20.030 -0.152 -20.030 -0.152 -20.020 -0.133 -19.965 -0.115 -19.951 -0.118 -19.927 -0.126 -19.811 -0.188 12.930 0.051 1.661 0.009 43.740 41.477
120.200 -20.027 -0.151 -20.026 -0.151 -20.017 -0.132 -19.962 -0.114 -19.948 -0.117 -19.925 -0.125 -19.809 -0.187 12.916 0.051 1.661 0.009 43.738 41.477
120.600 -20.023 -0.150 -20.023 -0.150 -20.013 -0.131 -19.959 -0.113 -19.946 -0.116 -19.922 -0.124 -19.807 -0.187 12.902 0.051 1.661 0.009 43.736 41.477
121.000 -20.020 -0.150 -20.020 -0.149 -20.010 -0.130 -19.956 -0.112 -19.943 -0.115 -19.919 -0.123 -19.805 -0.186 12.888 0.052 1.662 0.009 43.735 41.478
121.400 -20.017 -0.149 -20.016 -0.148 -20.007 -0.130 -19.953 -0.111 -19.940 -0.114 -19.917 -0.122 -19.802 -0.186 12.874 0.052 1.662 0.009 43.733 41.479
121.800 -20.013 -0.148 -20.013 -0.147 -20.004 -0.129 -19.951 -0.110 -19.937 -0.113 -19.914 -0.121 -19.800 -0.185 12.860 0.052 1.662 0.009 43.731 41.480
122.200 -20.010 -0.147 -20.010 -0.146 -20.001 -0.128 -19.948 -0.109 -19.935 -0.112 -19.912 -0.120 -19.798 -0.185 12.846 0.053 1.662 0.009 43.729 41.482
122.600 -20.007 -0.146 -20.006 -0.145 -19.997 -0.127 -19.945 -0.108 -19.932 -0.111 -19.909 -0.119 -19.796 -0.184 12.833 0.053 1.662 0.009 43.727 41.484
123.000 -20.003 -0.145 -20.003 -0.145 -19.994 -0.126 -19.942 -0.107 -19.929 -0.110 -19.906 -0.119 -19.794 -0.183 12.819 0.054 1.662 0.009 43.726 41.486
123.400 -20.000 -0.144 -20.000 -0.144 -19.991 -0.125 -19.940 -0.106 -19.927 -0.109 -19.904 -0.118 -19.792 -0.183 12.806 0.054 1.662 0.009 43.724 41.488
123.800 -19.997 -0.143 -19.996 -0.143 -19.988 -0.124 -19.937 -0.105 -19.924 -0.108 -19.901 -0.117 -19.790 -0.182 12.792 0.055 1.663 0.010 43.722 41.490
124.200 -19.993 -0.142 -19.993 -0.142 -19.985 -0.123 -19.934 -0.104 -19.921 -0.107 -19.899 -0.116 -19.788 -0.182 12.779 0.055 1.663 0.010 43.720 41.493
124.600 -19.990 -0.142 -19.990 -0.141 -19.981 -0.122 -19.931 -0.103 -19.919 -0.106 -19.896 -0.115 -19.786 -0.181 12.765 0.056 1.663 0.010 43.719 41.496
125.000 -19.987 -0.141 -19.986 -0.140 -19.978 -0.121 -19.928 -0.102 -19.916 -0.105 -19.894 -0.114 -19.784 -0.181 12.752 0.056 1.663 0.010 43.717 41.498
125.400 -19.983 -0.140 -19.983 -0.139 -19.975 -0.120 -19.926 -0.101 -19.913 -0.104 -19.891 -0.113 -19.782 -0.180 12.739 0.057 1.663 0.010 43.715 41.501
125.800 -19.980 -0.139 -19.980 -0.138 -19.972 -0.119 -19.923 -0.100 -19.910 -0.103 -19.888 -0.112 -19.780 -0.180 12.726 0.058 1.663 0.010 43.713 41.504
126.200 -19.977 -0.138 -19.977 -0.138 -19.969 -0.118 -19.920 -0.099 -19.908 -0.102 -19.886 -0.112 -19.777 -0.179 12.713 0.058 1.663 0.010 43.712 41.507
126.600 -19.973 -0.137 -19.973 -0.137 -19.966 -0.117 -19.917 -0.098 -19.905 -0.101 -19.883 -0.111 -19.775 -0.179 12.700 0.059 1.663 0.010 43.710 41.510
127.000 -19.970 -0.136 -19.970 -0.136 -19.962 -0.117 -19.915 -0.098 -19.902 -0.101 -19.881 -0.110 -19.773 -0.178 12.687 0.060 1.663 0.011 43.708 41.513
127.400 -19.967 -0.135 -19.967 -0.135 -19.959 -0.116 -19.912 -0.097 -19.900 -0.100 -19.878 -0.109 -19.771 -0.177 12.674 0.060 1.664 0.011 43.707 41.516
127.800 -19.963 -0.135 -19.963 -0.134 -19.956 -0.115 -19.909 -0.096 -19.897 -0.099 -19.876 -0.108 -19.769 -0.177 12.661 0.061 1.664 0.011 43.705 41.519
128.200 -19.960 -0.134 -19.960 -0.133 -19.953 -0.114 -19.907 -0.095 -19.894 -0.098 -19.873 -0.108 -19.767 -0.176 12.648 0.062 1.664 0.011 43.703 41.521
128.600 -19.957 -0.133 -19.957 -0.132 -19.950 -0.113 -19.904 -0.094 -19.892 -0.097 -19.871 -0.107 -19.765 -0.176 12.636 0.062 1.664 0.011 43.701 41.524
129.000 -19.954 -0.132 -19.954 -0.132 -19.947 -0.112 -19.901 -0.093 -19.889 -0.096 -19.868 -0.106 -19.763 -0.175 12.623 0.063 1.664 0.011 43.700 41.527
129.400 -19.950 -0.131 -19.950 -0.131 -19.944 -0.111 -19.898 -0.092 -19.887 -0.095 -19.866 -0.105 -19.761 -0.175 12.611 0.064 1.664 0.011 43.698 41.530
129.800 -19.947 -0.131 -19.947 -0.130 -19.940 -0.111 -19.896 -0.091 -19.884 -0.095 -19.863 -0.105 -19.759 -0.174 12.598 0.064 1.664 0.012 43.696 41.533
130.200 -19.944 -0.130 -19.944 -0.129 -19.937 -0.110 -19.893 -0.091 -19.881 -0.094 -19.860 -0.104 -19.757 -0.174 12.586 0.065 1.664 0.012 43.695 41.535
130.600 -19.941 -0.129 -19.941 -0.128 -19.934 -0.109 -19.890 -0.090 -19.879 -0.093 -19.858 -0.103 -19.755 -0.173 12.574 0.066 1.664 0.012 43.693 41.538
131.000 -19.937 -0.128 -19.937 -0.128 -19.931 -0.108 -19.888 -0.089 -19.876 -0.092 -19.855 -0.102 -19.752 -0.173 12.562 0.066 1.664 0.012 43.691 41.541
131.400 -19.934 -0.127 -19.934 -0.127 -19.928 -0.108 -19.885 -0.088 -19.873 -0.092 -19.853 -0.102 -19.750 -0.172 12.550 0.067 1.664 0.012 43.690 41.543
131.800 -19.931 -0.127 -19.931 -0.126 -19.925 -0.107 -19.882 -0.088 -19.871 -0.091 -19.850 -0.101 -19.748 -0.172 12.538 0.068 1.664 0.012 43.688 41.546
132.200 -19.928 -0.126 -19.928 -0.125 -19.922 -0.106 -19.879 -0.087 -19.868 -0.090 -19.848 -0.100 -19.746 -0.171 12.526 0.068 1.664 0.012 43.686 41.548
132.600 -19.924 -0.125 -19.924 -0.125 -19.919 -0.105 -19.877 -0.086 -19.865 -0.089 -19.845 -0.100 -19.744 -0.171 12.514 0.069 1.664 0.013 43.685 41.551
133.000 -19.921 -0.124 -19.921 -0.124 -19.916 -0.105 -19.874 -0.085 -19.863 -0.089 -19.843 -0.099 -19.742 -0.170 12.502 0.070 1.664 0.013 43.683 41.553
133.400 -19.918 -0.124 -19.918 -0.123 -19.913 -0.104 -19.871 -0.085 -19.860 -0.088 -19.840 -0.099 -19.740 -0.170 12.491 0.070 1.664 0.013 43.681 41.555
133.800 -19.915 -0.123 -19.915 -0.122 -19.909 -0.103 -19.869 -0.084 -19.858 -0.087 -19.838 -0.098 -19.738 -0.169 12.479 0.071 1.664 0.013 43.680 41.558
134.200 -19.912 -0.122 -19.912 -0.122 -19.906 -0.103 -19.866 -0.083 -19.855 -0.087 -19.835 -0.097 -19.736 -0.169 12.468 0.072 1.664 0.013 43.678 41.560
134.600 -19.908 -0.122 -19.908 -0.121 -19.903 -0.102 -19.863 -0.083 -19.852 -0.086 -19.833 -0.097 -19.734 -0.169 12.457 0.072 1.664 0.013 43.677 41.562
135.000 -19.905 -0.121 -19.905 -0.120 -19.900 -0.101 -19.861 -0.082 -19.850 -0.086 -19.830 -0.096 -19.732 -0.168 12.445 0.073 1.664 0.013 43.675 41.564
135.400 -19.902 -0.120 -19.902 -0.120 -19.897 -0.101 -19.858 -0.082 -19.847 -0.085 -19.828 -0.096 -19.730 -0.168 12.434 0.074 1.663 0.013 43.673 41.566
135.800 -19.899 -0.120 -19.899 -0.119 -19.894 -0.100 -19.855 -0.081 -19.845 -0.085 -19.825 -0.095 -19.728 -0.167 12.423 0.074 1.663 0.014 43.672 41.568
136.200 -19.896 -0.119 -19.896 -0.118 -19.891 -0.099 -19.853 -0.080 -19.842 -0.084 -19.823 -0.095 -19.725 -0.167 12.412 0.075 1.663 0.014 43.670 41.570
136.600 -19.893 -0.118 -19.892 -0.118 -19.888 -0.099 -19.850 -0.080 -19.839 -0.083 -19.820 -0.094 -19.723 -0.166 12.402 0.076 1.663 0.014 43.669 41.572
137.000 -19.889 -0.118 -19.889 -0.117 -19.885 -0.098 -19.847 -0.079 -19.837 -0.083 -19.818 -0.094 -19.721 -0.166 12.391 0.076 1.663 0.014 43.667 41.574
137.400 -19.886 -0.117 -19.886 -0.117 -19.882 -0.098 -19.845 -0.079 -19.834 -0.082 -19.815 -0.093 -19.719 -0.165 12.381 0.077 1.663 0.014 43.665 41.576
137.800 -19.883 -0.117 -19.883 -0.116 -19.879 -0.097 -19.842 -0.078 -19.832 -0.082 -19.813 -0.093 -19.717 -0.165 12.370 0.078 1.663 0.014 43.664 41.578
138.200 -19.880 -0.116 -19.880 -0.115 -19.876 -0.097 -19.839 -0.078 -19.829 -0.082 -19.810 -0.092 -19.715 -0.164 12.360 0.078 1.662 0.014 43.662 41.580
138.600 -19.877 -0.115 -19.877 -0.115 -19.873 -0.096 -19.837 -0.078 -19.826 -0.081 -19.808 -0.092 -19.713 -0.164 12.350 0.079 1.662 0.015 43.661 41.582
139.000 -19.874 -0.115 -19.874 -0.114 -19.870 -0.096 -19.834 -0.077 -19.824 -0.081 -19.805 -0.092 -19.711 -0.164 12.340 0.080 1.662 0.015 43.659 41.584
139.400 -19.871 -0.114 -19.870 -0.114 -19.867 -0.095 -19.831 -0.077 -19.821 -0.080 -19.803 -0.091 -19.709 -0.163 12.330 0.080 1.662 0.015 43.658 41.586
139.800 -19.867 -0.114 -19.867 -0.113 -19.864 -0.095 -19.829 -0.076 -19.819 -0.080 -19.800 -0.091 -19.707 -0.163 12.320 0.081 1.661 0.015 43.656 41.588
140.200 -19.864 -0.114 -19.864 -0.113 -19.861 -0.094 -19.826 -0.076 -19.816 -0.080 -19.798 -0.091 -19.705 -0.162 12.310 0.082 1.661 0.015 43.655 41.590
140.600 -19.861 -0.113 -19.861 -0.113 -19.858 -0.094 -19.823 -0.076 -19.813 -0.079 -19.795 -0.090 -19.703 -0.162 12.301 0.083 1.661 0.015 43.653 41.593
141.000 -19.858 -0.113 -19.858 -0.112 -19.855 -0.094 -19.821 -0.076 -19.811 -0.079 -19.793 -0.090 -19.701 -0.162 12.291 0.083 1.660 0.016 43.652 41.595
141.400 -19.855 -0.112 -19.855 -0.112 -19.852 -0.093 -19.818 -0.075 -19.808 -0.079 -19.790 -0.090 -19.699 -0.161 12.282 0.084 1.660 0.016 43.650 41.597
141.800 -19.852 -0.112 -19.852 -0.111 -19.849 -0.093 -19.815 -0.075 -19.806 -0.079 -19.788 -0.089 -19.697 -0.161 12.273 0.085 1.660 0.016 43.649 41.599
142.200 -19.849 -0.111 -19.849 -0.111 -19.846 -0.093 -19.813 -0.075 -19.803 -0.078 -19.785 -0.089 -19.694 -0.160 12.263 0.086 1.659 0.016 43.647 41.601
142.600 -19.846 -0.111 -19.846 -0.111 -19.843 -0.092 -19.810 -0.075 -19.800 -0.078 -19.783 -0.089 -19.692 -0.160 12.254 0.086 1.659 0.016 43.646 41.603
143.000 -19.843 -0.111 -19.843 -0.110 -19.840 -0.092 -19.807 -0.075 -19.798 -0.078 -19.780 -0.089 -19.690 -0.160 12.245 0.087 1.658 0.016 43.644 41.605
143.400 -19.840 -0.110 -19.840 -0.110 -19.837 -0.092 -19.805 -0.074 -19.795 -0.078 -19.778 -0.088 -19.688 -0.159 12.237 0.088 1.658 0.017 43.643 41.608
143.800 -19.837 -0.110 -19.837 -0.110 -19.834 -0.092 -19.802 -0.074 -19.793 -0.078 -19.775 -0.088 -19.686 -0.159 12.228 0.089 1.658 0.017 43.641 41.610
144.200 -19.834 -0.110 -19.834 -0.109 -19.831 -0.092 -19.799 -0.074 -19.790 -0.078 -19.773 -0.088 -19.684 -0.158 12.219 0.090 1.657 0.017 43.640 41.612
144.600 -19.831 -0.110 -19.831 -0.109 -19.828 -0.091 -19.797 -0.074 -19.787 -0.078 -19.770 -0.088 -19.682 -0.158 12.210 0.090 1.657 0.017 43.638 41.614
145.000 -19.828 -0.109 -19.828 -0.109 -19.825 -0.091 -19.794 -0.074 -19.785 -0.078 -19.768 -0.088 -19.680 -0.158 12.202 0.091 1.656 0.017 43.637 41.616
145.400 -19.825 -0.109 -19.825 -0.108 -19.822 -0.091 -19.791 -0.074 -19.782 -0.077 -19.765 -0.088 -19.678 -0.157 12.193 0.092 1.656 0.017 43.635 41.619
145.800 -19.822 -0.109 -19.822 -0.108 -19.820 -0.091 -19.789 -0.074 -19.780 -0.077 -19.763 -0.088 -19.676 -0.157 12.185 0.093 1.655 0.018 43.634 41.621
146.200 -19.819 -0.109 -19.819 -0.108 -19.817 -0.091 -19.786 -0.074 -19.777 -0.077 -19.760 -0.087 -19.674 -0.156 12.176 0.094 1.655 0.018 43.632 41.623
146.600 -19.816 -0.108 -19.816 -0.108 -19.814 -0.091 -19.784 -0.074 -19.774 -0.077 -19.758 -0.087 -19.672 -0.156 12.168 0.094 1.654 0.018 43.631 41.625
147.000 -19.813 -0.108 -19.813 -0.108 -19.811 -0.091 -19.781 -0.074 -19.772 -0.077 -19.755 -0.087 -19.670 -0.156 12.160 0.095 1.654 0.018 43.630 41.627
147.400 -19.810 -0.108 -19.810 -0.107 -19.808 -0.090 -19.778 -0.074 -19.769 -0.077 -19.753 -0.087 -19.668 -0.155 12.151 0.096 1.653 0.018 43.628 41.629
147.800 -19.807 -0.108 -19.807 -0.107 -19.805 -0.090 -19.776 -0.074 -19.767 -0.077 -19.750 -0.087 -19.666 -0.155 12.143 0.097 1.653 0.018 43.627 41.631
148.200 -19.804 -0.108 -19.804 -0.107 -19.802 -0.090 -19.773 -0.074 -19.764 -0.077 -19.748 -0.087 -19.664 -0.155 12.135 0.098 1.652 0.019 43.625 41.633
148.600 -19.801 -0.108 -19.801 -0.107 -19.799 -0.090 -19.770 -0.074 -19.762 -0.077 -19.746 -0.087 -19.662 -0.154 12.127 0.099 1.652 0.019 43.624 41.635
149.000 -19.798 -0.107 -19.798 -0.107 -19.796 -0.090 -19.768 -0.075 -19.759 -0.078 -19.743 -0.087 -19.660 -0.154 12.119 0.099 1.652 0.019 43.622 41.638
149.400 -19.795 -0.107 -19.795 -0.107 -19.793 -0.090 -19.765 -0.075 -19.756 -0.078 -19.741 -0.087 -19.658 -0.153 12.110 0.100 1.651 0.019 43.621 41.640
149.800 -19.792 -0.107 -19.792 -0.107 -19.791 -0.090 -19.762 -0.075 -19.754 -0.078 -19.738 -0.087 -19.656 -0.153 12.102 0.101 1.651 0.019 43.620 41.641
150.200 -19.789 -0.107 -19.789 -0.107 -19.788 -0.090 -19.760 -0.075 -19.751 -0.078 -19.736 -0.087 -19.654 -0.153 12.094 0.102 1.650 0.019 43.618 41.643
150.600 -19.786 -0.107 -19.786 -0.107 -19.785 -0.090 -19.757 -0.075 -19.749 -0.078 -19.733 -0.087 -19.652 -0.152 12.086 0.103 1.650 0.020 43.617 41.645
151.000 -19.783 -0.107 -19.783 -0.107 -19.782 -0.090 -19.755 -0.075 -19.746 -0.078 -19.731 -0.087 -19.650 -0.152 12.077 0.104 1.649 0.020 43.615 41.647
151.400 -19.780 -0.107 -19.780 -0.106 -19.779 -0.090 -19.752 -0.075 -19.744 -0.078 -19.728 -0.087 -19.648 -0.152 12.069 0.105 1.649 0.020 43.614 41.649
151.800 -19.777 -0.107 -19.777 -0.106 -19.776 -0.090 -19.749 -0.075 -19.741 -0.078 -19.726 -0.087 -19.646 -0.151 12.061 0.105 1.648 0.020 43.612 41.651
152.200 -19.774 -0.107 -19.774 -0.106 -19.773 -0.091 -19.747 -0.076 -19.739 -0.078 -19.723 -0.087 -19.644 -0.151 12.053 0.106 1.648 0.020 43.611 41.653
152.600 -19.771 -0.107 -19.771 -0.106 -19.771 -0.091 -19.744 -0.076 -19.736 -0.078 -19.721 -0.087 -19.642 -0.151 12.045 0.107 1.648 0.021 43.610 41.654
153.000 -19.768 -0.107 -19.768 -0.106 -19.768 -0.091 -19.742 -0.076 -19.734 -0.079 -19.719 -0.087 -19.640 -0.150 12.036 0.108 1.647 0.021 43.608 41.656
153.400 -19.765 -0.107 -19.765 -0.106 -19.765 -0.091 -19.739 -0.076 -19.731 -0.079 -19.716 -0.087 -19.638 -0.150 12.028 0.109 1.647 0.021 43.607 41.658
153.800 -19.762 -0.107 -19.762 -0.106 -19.762 -0.091 -19.736 -0.076 -19.728 -0.079 -19.714 -0.087 -19.636 -0.149 12.020 0.109 1.646 0.021 43.605 41.660
154.200 -19.759 -0.107 -19.759 -0.106 -19.759 -0.091 -19.734 -0.076 -19.726 -0.079 -19.711 -0.087 -19.634 -0.149 12.011 0.110 1.646 0.021 43.604 41.661
154.600 -19.756 -0.107 -19.756 -0.106 -19.756 -0.091 -19.731 -0.077 -19.723 -0.079 -19.709 -0.087 -19.632 -0.149 12.003 0.111 1.646 0.021 43.603 41.663
155.000 -19.753 -0.107 -19.753 -0.106 -19.753 -0.091 -19.729 -0.077 -19.721 -0.079 -19.707 -0.087 -19.630 -0.148 11.995 0.112 1.645 0.022 43.601 41.664
155.400 -19.750 -0.107 -19.750 -0.106 -19.751 -0.091 -19.726 -0.077 -19.718 -0.079 -19.704 -0.087 -19.628 -0.148 11.986 0.113 1.645 0.022 43.600 41.666
155.800 -19.747 -0.107 -19.747 -0.106 -19.748 -0.091 -19.724 -0.077 -19.716 -0.079 -19.702 -0.087 -19.626 -0.148 11.978 0.114 1.645 0.022 43.598 41.668
156.200 -19.744 -0.107 -19.745 -0.106 -19.745 -0.092 -19.721 -0.077 -19.713 -0.080 -19.699 -0.087 -19.624 -0.147 11.969 0.114 1.644 0.022 43.597 41.669
156.600 -19.742 -0.107 -19.742 -0.107 -19.742 -0.092 -19.719 -0.078 -19.711 -0.080 -19.697 -0.087 -19.622 -0.147 11.961 0.115 1.644 0.022 43.596 41.670
157.000 -19.739 -0.107 -19.739 -0.107 -19.739 -0.092 -19.716 -0.078 -19.708 -0.080 -19.695 -0.087 -19.620 -0.146 11.952 0.116 1.644 0.023 43.594 41.672
157.400 -19.736 -0.107 -19.736 -0.107 -19.737 -0.092 -19.713 -0.078 -19.706 -0.080 -19.692 -0.087 -19.618 -0.146 11.944 0.117 1.643 0.023 43.593 41.673
157.800 -19.733 -0.107 -19.733 -0.107 -19.734 -0.092 -19.711 -0.078 -19.704 -0.080 -19.690 -0.087 -19.616 -0.146 11.935 0.118 1.643 0.023 43.591 41.675
158.200 -19.730 -0.107 -19.730 -0.107 -19.731 -0.092 -19.708 -0.078 -19.701 -0.080 -19.687 -0.087 -19.614 -0.145 11.927 0.118 1.643 0.023 43.590 41.676
158.600 -19.727 -0.107 -19.727 -0.107 -19.728 -0.092 -19.706 -0.078 -19.699 -0.080 -19.685 -0.087 -19.612 -0.145 11.918 0.119 1.642 0.023 43.589 41.677
159.000 -19.724 -0.107 -19.724 -0.107 -19.725 -0.092 -19.703 -0.079 -19.696 -0.080 -19.683 -0.087 -19.610 -0.145 11.910 0.120 1.642 0.023 43.587 41.678
159.400 -19.721 -0.107 -19.721 -0.107 -19.723 -0.093 -19.701 -0.079 -19.694 -0.081 -19.680 -0.087 -19.608 -0.144 11.901 0.121 1.642 0.024 43.586 41.680
159.800 -19.718 -0.107 -19.718 -0.107 -19.720 -0.093 -19.698 -0.079 -19.691 -0.081 -19.678 -0.087 -19.606 -0.144 11.892 0.121 1.642 0.024 43.584 41.681
160.200 -19.715 -0.107 -19.716 -0.107 -19.717 -0.093 -19.696 -0.079 -19.689 -0.081 -19.676 -0.087 -19.604 -0.143 11.884 0.122 1.641 0.024 43.583 41.682
160.600 -19.713 -0.107 -19.713 -0.107 -19.714 -0.093 -19.693 -0.079 -19.686 -0.081 -19.673 -0.087 -19.602 -0.143 11.875 0.123 1.641 0.024 43.582 41.683
161.000 -19.710 -0.107 -19.710 -0.107 -19.712 -0.093 -19.691 -0.079 -19.684 -0.081 -19.671 -0.087 -19.600 -0.143 11.866 0.124 1.641 0.024 43.580 41.684
161.400 -19.707 -0.107 -19.707 -0.107 -19.709 -0.093 -19.689 -0.080 -19.682 -0.081 -19.669 -0.087 -19.598 -0.142 11.857 0.124 1.641 0.024 43.579 41.685
161.800 -19.704 -0.107 -19.704 -0.107 -19.706 -0.093 -19.686 -0.080 -19.679 -0.081 -19.666 -0.087 -19.596 -0.142 11.848 0.125 1.641 0.025 43.578 41.686
162.200 -19.701 -0.107 -19.701 -0.107 -19.703 -0.093 -19.684 -0.080 -19.677 -0.081 -19.664 -0.087 -19.595 -0.141 11.839 0.126 1.641 0.025 43.576 41.686
162.600 -19.698 -0.107 -19.698 -0.107 -19.701 -0.093 -19.681 -0.080 -19.674 -0.081 -19.662 -0.087 -19.593 -0.141 11.831 0.126 1.640 0.025 43.575 41.687
163.000 -19.695 -0.107 -19.695 -0.107 -19.698 -0.093 -19.679 -0.080 -19.672 -0.082 -19.660 -0.087 -19.591 -0.141 11.822 0.127 1.640 0.025 43.573 41.688
163.400 -19.692 -0.107 -19.693 -0.107 -19.695 -0.094 -19.676 -0.080 -19.670 -0.082 -19.657 -0.087 -19.589 -0.140 11.812 0.128 1.640 0.025 43.572 41.689
163.800 -19.690 -0.107 -19.690 -0.107 -19.692 -0.094 -19.674 -0.080 -19.667 -0.082 -19.655 -0.087 -19.587 -0.140 11.803 0.128 1.640 0.025 43.571 41.689
164.200 -19.687 -0.107 -19.687 -0.107 -19.690 -0.094 -19.671 -0.080 -19.665 -0.082 -19.653 -0.087 -19.585 -0.139 11.794 0.129 1.640 0.026 43.569 41.690
164.600 -19.684 -0.107 -19.684 -0.107 -19.687 -0.094 -19.669 -0.081 -19.663 -0.082 -19.651 -0.087 -19.583 -0.139 11.785 0.129 1.640 0.026 43.568 41.690
165.000 -19.681 -0.107 -19.681 -0.107 -19.684 -0.094 -19.667 -0.081 -19.660 -0.082 -19.648 -0.087 -19.581 -0.139 11.776 0.130 1.640 0.026 43.567 41.691
165.400 -19.678 -0.107 -19.678 -0.107 -19.682 -0.094 -19.664 -0.081 -19.658 -0.082 -19.646 -0.087 -19.579 -0.138 11.767 0.131 1.640 0.026 43.565 41.691
165.800 -19.675 -0.107 -19.675 -0.107 -19.679 -0.094 -19.662 -0.081 -19.656 -0.082 -19.644 -0.087 -19.578 -0.138 11.757 0.131 1.640 0.026 43.564 41.691
166.200 -19.672 -0.107 -19.673 -0.107 -19.676 -0.094 -19.660 -0.081 -19.653 -0.082 -19.642 -0.087 -19.576 -0.137 11.748 0.132 1.640 0.026 43.562 41.691
166.600 -19.670 -0.107 -19.670 -0.107 -19.673 -0.094 -19.657 -0.081 -19.651 -0.082 -19.639 -0.087 -19.574 -0.137 11.738 0.132 1.640 0.027 43.561 41.691
167.000 -19.667 -0.107 -19.667 -0.107 -19.671 -0.094 -19.655 -0.081 -19.649 -0.082 -19.637 -0.087 -19.572 -0.136 11.729 0.133 1.640 0.027 43.560 41.691
167.400 -19.664 -0.107 -19.664 -0.106 -19.668 -0.094 -19.652 -0.081 -19.646 -0.082 -19.635 -0.087 -19.570 -0.136 11.719 0.133 1.640 0.027 43.558 41.691
167.800 -19.661 -0.107 -19.661 -0.106 -19.665 -0.094 -19.650 -0.081 -19.644 -0.082 -19.633 -0.087 -19.568 -0.135 11.710 0.134 1.640 0.027 43.557 41.691
168.200 -19.658 -0.107 -19.659 -0.106 -19.663 -0.094 -19.648 -0.081 -19.642 -0.082 -19.631 -0.087 -19.567 -0.135 11.700 0.134 1.641 0.027 43.556 41.691
168.600 -19.656 -0.107 -19.656 -0.106 -19.660 -0.094 -19.646 -0.081 -19.640 -0.082 -19.629 -0.087 -19.565 -0.135 11.690 0.134 1.641 0.027 43.554 41.690
169.000 -19.653 -0.106 -19.653 -0.106 -19.657 -0.094 -19.643 -0.082 -19.637 -0.083 -19.627 -0.087 -19.563 -0.134 11.680 0.135 1.641 0.027 43.553 41.690
169.400 -19.650 -0.106 -19.650 -0.106 -19.655 -0.094 -19.641 -0.082 -19.635 -0.083 -19.624 -0.087 -19.561 -0.134 11.671 0.135 1.641 0.027 43.551 41.689
169.800 -19.647 -0.106 -19.647 -0.106 -19.652 -0.094 -19.639 -0.082 -19.633 -0.083 -19.622 -0.087 -19.559 -0.133 11.661 0.135 1.641 0.028 43.550 41.689
170.200 -19.644 -0.106 -19.644 -0.106 -19.649 -0.094 -19.636 -0.082 -19.631 -0.083 -19.620 -0.087 -19.557 -0.133 11.651 0.136 1.642 0.028 43.549 41.688
170.600 -19.642 -0.106 -19.642 -0.106 -19.647 -0.094 -19.634 -0.082 -19.629 -0.083 -19.618 -0.087 -19.556 -0.132 11.640 0.136 1.642 0.028 43.547 41.687
171.000 -19.639 -0.106 -19.639 -0.105 -19.644 -0.094 -19.632 -0.082 -19.626 -0.083 -19.616 -0.087 -19.554 -0.132 11.630 0.136 1.642 0.028 43.546 41.686
171.400 -19.636 -0.106 -19.636 -0.105 -19.641 -0.094 -19.630 -0.082 -19.624 -0.083 -19.614 -0.087 -19.552 -0.131 11.620 0.136 1.642 0.028 43.545 41.685
171.800 -19.633 -0.105 -19.633 -0.105 -19.639 -0.093 -19.627 -0.082 -19.622 -0.083 -19.612 -0.087 -19.550 -0.131 11.610 0.137 1.643 0.028 43.543 41.684
172.200 -19.630 -0.105 -19.631 -0.105 -19.636 -0.093 -19.625 -0.082 -19.620 -0.083 -19.610 -0.087 -19.549 -0.130 11.600 0.137 1.643 0.028 43.542 41.683
172.600 -19.628 -0.105 -19.628 -0.105 -19.634 -0.093 -19.623 -0.082 -19.618 -0.083 -19.608 -0.087 -19.547 -0.130 11.589 0.137 1.643 0.028 43.541 41.682
173.000 -19.625 -0.105 -19.625 -0.104 -19.631 -0.093 -19.621 -0.082 -19.616 -0.083 -19.606 -0.087 -19.545 -0.129 11.579 0.137 1.644 0.028 43.539 41.681
173.400 -19.622 -0.105 -19.622 -0.104 -19.628 -0.093 -19.619 -0.082 -19.614 -0.083 -19.604 -0.086 -19.543 -0.129 11.568 0.137 1.644 0.028 43.538 41.679
173.800 -19.619 -0.104 -19.619 -0.104 -19.626 -0.093 -19.617 -0.082 -19.611 -0.083 -19.602 -0.086 -19.542 -0.128 11.558 0.137 1.645 0.028 43.536 41.678
174.200 -19.616 -0.104 -19.617 -0.104 -19.623 -0.093 -19.614 -0.082 -19.609 -0.083 -19.600 -0.086 -19.540 -0.128 11.548 0.137 1.645 0.028 43.535 41.676
174.600 -19.614 -0.104 -19.614 -0.103 -19.621 -0.092 -19.612 -0.082 -19.607 -0.082 -19.598 -0.086 -19.538 -0.127 11.537 0.137 1.645 0.029 43.534 41.675
175.000 -19.611 -0.103 -19.611 -0.103 -19.618 -0.092 -19.610 -0.082 -19.605 -0.082 -19.596 -0.086 -19.536 -0.127 11.527 0.137 1.646 0.029 43.532 41.673
175.400 -19.608 -0.103 -19.608 -0.103 -19.615 -0.092 -19.608 -0.082 -19.603 -0.082 -19.594 -0.086 -19.535 -0.126 11.516 0.137 1.646 0.029 43.531 41.671
175.800 -19.605 -0.103 -19.606 -0.103 -19.613 -0.092 -19.606 -0.082 -19.601 -0.082 -19.592 -0.086 -19.533 -0.126 11.505 0.137 1.647 0.029 43.530 41.669
176.200 -19.603 -0.103 -19.603 -0.102 -19.610 -0.092 -19.604 -0.082 -19.599 -0.082 -19.590 -0.086 -19.531 -0.125 11.494 0.137 1.648 0.029 43.528 41.667
176.600 -19.600 -0.102 -19.600 -0.102 -19.608 -0.091 -19.602 -0.082 -19.597 -0.082 -19.588 -0.085 -19.529 -0.125 11.483 0.137 1.648 0.029 43.527 41.665
177.000 -19.597 -0.102 -19.597 -0.102 -19.605 -0.091 -19.600 -0.081 -19.595 -0.082 -19.586 -0.085 -19.528 -0.124 11.472 0.137 1.649 0.029 43.526 41.663
177.400 -19.594 -0.102 -19.595 -0.101 -19.603 -0.091 -19.597 -0.081 -19.593 -0.082 -19.584 -0.085 -19.526 -0.123 11.461 0.137 1.649 0.029 43.524 41.661
177.800 -19.592 -0.101 -19.592 -0.101 -19.600 -0.091 -19.595 -0.081 -19.591 -0.082 -19.582 -0.085 -19.524 -0.123 11.450 0.137 1.650 0.029 43.523 41.659
178.200 -19.589 -0.101 -19.589 -0.101 -19.597 -0.090 -19.593 -0.081 -19.589 -0.082 -19.580 -0.085 -19.523 -0.122 11.439 0.137 1.651 0.029 43.522 41.657
178.600 -19.586 -0.101 -19.586 -0.100 -19.595 -0.090 -19.591 -0.081 -19.587 -0.082 -19.578 -0.085 -19.521 -0.122 11.428 0.136 1.651 0.029 43.520 41.654
179.000 -19.583 -0.100 -19.584 -0.100 -19.592 -0.090 -19.589 -0.081 -19.585 -0.081 -19.576 -0.084 -19.519 -0.121 11.417 0.136 1.652 0.029 43.519 41.652
179.400 -19.581 -0.100 -19.581 -0.099 -19.590 -0.090 -19.587 -0.081 -19.583 -0.081 -19.574 -0.084 -19.518 -0.121 11.406 0.136 1.653 0.029 43.518 41.649
179.800 -19.578 -0.099 -19.578 -0.099 -19.587 -0.089 -19.585 -0.081 -19.581 -0.081 -19.573 -0.084 -19.516 -0.120 11.394 0.136 1.653 0.029 43.516 41.647
180.200 -19.575 -0.099 -19.575 -0.099 -19.585 -0.089 -19.583 -0.080 -19.579 -0.081 -19.571 -0.084 -19.514 -0.120 11.383 0.135 1.654 0.029 43.515 41.644
180.600 -19.572 -0.099 -19.573 -0.098 -19.582 -0.089 -19.581 -0.080 -19.577 -0.081 -19.569 -0.083 -19.513 -0.119 11.372 0.135 1.655 0.029 43.514 41.642
181.000 -19.570 -0.098 -19.570 -0.098 -19.580 -0.088 -19.579 -0.080 -19.575 -0.081 -19.567 -0.083 -19.511 -0.118 11.361 0.135 1.656 0.029 43.512 41.639
181.400 -19.567 -0.098 -19.567 -0.097 -19.577 -0.088 -19.577 -0.080 -19.573 -0.080 -19.565 -0.083 -19.509 -0.118 11.349 0.135 1.656 0.029 43.511 41.636
181.800 -19.564 -0.097 -19.564 -0.097 -19.574 -0.087 -19.575 -0.080 -19.571 -0.080 -19.563 -0.083 -19.508 -0.117 11.338 0.134 1.657 0.029 43.510 41.633
182.200 -19.561 -0.097 -19.562 -0.097 -19.572 -0.087 -19.573 -0.079 -19.570 -0.080 -19.562 -0.082 -19.506 -0.117 11.326 0.134 1.658 0.029 43.508 41.630
182.600 -19.559 -0.096 -19.559 -0.096 -19.569 -0.087 -19.571 -0.079 -19.568 -0.080 -19.560 -0.082 -19.504 -0.116 11.315 0.134 1.659 0.029 43.507 41.627
183.000 -19.556 -0.096 -19.556 -0.096 -19.567 -0.086 -19.569 -0.079 -19.566 -0.079 -19.558 -0.082 -19.503 -0.116 11.303 0.133 1.660 0.029 43.506 41.624
183.400 -19.553 -0.095 -19.554 -0.095 -19.564 -0.086 -19.567 -0.079 -19.564 -0.079 -19.556 -0.082 -19.501 -0.115 11.292 0.133 1.660 0.029 43.504 41.621
183.800 -19.551 -0.095 -19.551 -0.095 -19.562 -0.085 -19.565 -0.078 -19.562 -0.079 -19.554 -0.081 -19.500 -0.114 11.280 0.133 1.661 0.029 43.503 41.618
184.200 -19.548 -0.094 -19.548 -0.094 -19.559 -0.085 -19.563 -0.078 -19.560 -0.079 -19.553 -0.081 -19.498 -0.114 11.268 0.132 1.662 0.029 43.502 41.615
184.600 -19.545 -0.094 -19.545 -0.094 -19.557 -0.085 -19.561 -0.078 -19.558 -0.078 -19.551 -0.081 -19.496 -0.113 11.257 0.132 1.663 0.029 43.500 41.612
185.000 -19.542 -0.093 -19.543 -0.093 -19.554 -0.084 -19.559 -0.078 -19.556 -0.078 -19.549 -0.080 -19.495 -0.113 11.245 0.131 1.664 0.029 43.499 41.609
185.400 -19.540 -0.093 -19.540 -0.093 -19.552 -0.084 -19.558 -0.077 -19.555 -0.078 -19.547 -0.080 -19.493 -0.112 11.233 0.131 1.665 0.029 43.498 41.606
185.800 -19.537 -0.092 -19.537 -0.092 -19.549 -0.083 -19.556 -0.077 -19.553 -0.077 -19.545 -0.080 -19.492 -0.111 11.222 0.130 1.666 0.029 43.496 41.602
186.200 -19.534 -0.092 -19.534 -0.092 -19.547 -0.083 -19.554 -0.077 -19.551 -0.077 -19.544 -0.079 -19.490 -0.111 11.210 0.130 1.667 0.029 43.495 41.599
186.600 -19.531 -0.091 -19.532 -0.091 -19.544 -0.082 -19.552 -0.076 -19.549 -0.077 -19.542 -0.079 -19.488 -0.110 11.198 0.130 1.668 0.029 43.494 41.596
187.000 -19.529 -0.091 -19.529 -0.091 -19.542 -0.082 -19.550 -0.076 -19.547 -0.076 -19.540 -0.078 -19.487 -0.110 11.186 0.129 1.669 0.029 43.492 41.592
187.400 -19.526 -0.090 -19.526 -0.090 -19.539 -0.081 -19.548 -0.076 -19.545 -0.076 -19.538 -0.078 -19.485 -0.109 11.175 0.129 1.670 0.029 43.491 41.589
187.800 -19.523 -0.090 -19.524 -0.090 -19.537 -0.081 -19.546 -0.075 -19.544 -0.076 -19.537 -0.078 -19.484 -0.109 11.163 0.128 1.671 0.029 43.490 41.585
188.200 -19.520 -0.089 -19.521 -0.089 -19.534 -0.080 -19.544 -0.075 -19.542 -0.075 -19.535 -0.077 -19.482 -0.108 11.151 0.128 1.672 0.029 43.488 41.582
188.600 -19.518 -0.089 -19.518 -0.088 -19.532 -0.080 -19.542 -0.075 -19.540 -0.075 -19.533 -0.077 -19.481 -0.108 11.139 0.127 1.673 0.029 43.487 41.579
189.000 -19.515 -0.088 -19.515 -0.088 -19.529 -0.079 -19.540 -0.074 -19.538 -0.075 -19.532 -0.076 -19.479 -0.107 11.127 0.127 1.674 0.029 43.486 41.575
189.400 -19.512 -0.088 -19.513 -0.087 -19.527 -0.079 -19.539 -0.074 -19.536 -0.074 -19.530 -0.076 -19.477 -0.106 11.116 0.126 1.675 0.029 43.484 41.572
189.800 -19.510 -0.087 -19.510 -0.087 -19.524 -0.078 -19.537 -0.073 -19.534 -0.074 -19.528 -0.076 -19.476 -0.106 11.104 0.126 1.676 0.029 43.483 41.568
190.200 -19.507 -0.087 -19.507 -0.086 -19.522 -0.078 -19.535 -0.073 -19.533 -0.073 -19.526 -0.075 -19.474 -0.105 11.092 0.126 1.677 0.029 43.482 41.565
190.600 -19.504 -0.086 -19.504 -0.086 -19.519 -0.077 -19.533 -0.073 -19.531 -0.073 -19.525 -0.075 -19.473 -0.105 11.080 0.125 1.678 0.029 43.481 41.561
191.000 -19.501 -0.086 -19.502 -0.085 -19.517 -0.077 -19.531 -0.072 -19.529 -0.072 -19.523 -0.074 -19.471 -0.104 11.069 0.125 1.679 0.029 43.479 41.558
191.400 -19.499 -0.085 -19.499 -0.085 -19.514 -0.076 -19.529 -0.072 -19.527 -0.072 -19.521 -0.074 -19.470 -0.104 11.057 0.124 1.680 0.029 43.478 41.555
191.800 -19.496 -0.084 -19.496 -0.084 -19.512 -0.075 -19.527 -0.071 -19.526 -0.072 -19.520 -0.073 -19.468 -0.103 11.045 0.124 1.681 0.029 43.477 41.551
192.200 -19.493 -0.084 -19.494 -0.084 -19.509 -0.075 -19.526 -0.071 -19.524 -0.071 -19.518 -0.073 -19.466 -0.103 11.034 0.123 1.682 0.029 43.475 41.548
192.600 -19.490 -0.083 -19.491 -0.083 -19.507 -0.074 -19.524 -0.070 -19.522 -0.071 -19.516 -0.073 -19.465 -0.102 11.022 0.123 1.683 0.029 43.474 41.545
193.000 -19.488 -0.083 -19.488 -0.082 -19.504 -0.074 -19.522 -0.070 -19.520 -0.070 -19.514 -0.072 -19.463 -0.102 11.011 0.123 1.684 0.029 43.473 41.542
193.400 -19.485 -0.082 -19.485 -0.082 -19.502 -0.073 -19.520 -0.070 -19.518 -0.070 -19.513 -0.072 -19.462 -0.102 10.999 0.122 1.685 0.029 43.471 41.538
193.800 -19.482 -0.082 -19.483 -0.081 -19.499 -0.073 -19.518 -0.069 -19.517 -0.069 -19.511 -0.071 -19.460 -0.101 10.988 0.122 1.686 0.029 43.470 41.535
194.200 -19.480 -0.081 -19.480 -0.081 -19.497 -0.072 -19.516 -0.069 -19.515 -0.069 -19.509 -0.071 -19.459 -0.101 10.977 0.122 1.687 0.029 43.469 41.532
194.600 -19.477 -0.081 -19.477 -0.080 -19.494 -0.072 -19.514 -0.068 -19.513 -0.069 -19.508 -0.070 -19.457 -0.100 10.965 0.121 1.688 0.029 43.468 41.529
195.000 -19.474 -0.080 -19.475 -0.080 -19.492 -0.071 -19.513 -0.068 -19.511 -0.068 -19.506 -0.070 -19.456 -0.100 10.954 0.121 1.689 0.029 43.466 41.526
195.400 -19.472 -0.080 -19.472 -0.079 -19.489 -0.071 -19.511 -0.067 -19.509 -0.068 -19.504 -0.070 -19.454 -0.099 10.943 0.121 1.690 0.029 43.465 41.523
195.800 -19.469 -0.079 -19.469 -0.079 -19.487 -0.070 -19.509 -0.067 -19.508 -0.067 -19.502 -0.069 -19.453 -0.099 10.932 0.121 1.691 0.029 43.464 41.521
196.200 -19.466 -0.079 -19.467 -0.079 -19.484 -0.070 -19.507 -0.067 -19.506 -0.067 -19.501 -0.069 -19.451 -0.099 10.921 0.120 1.692 0.029 43.463 41.518
196.600 -19.463 -0.078 -19.464 -0.078 -19.482 -0.069 -19.505 -0.066 -19.504 -0.067 -19.499 -0.069 -19.449 -0.098 10.910 0.120 1.693 0.029 43.461 41.515
197.000 -19.461 -0.078 -19.461 -0.078 -19.479 -0.069 -19.503 -0.066 -19.502 -0.066 -19.497 -0.068 -19.448 -0.098 10.899 0.120 1.693 0.029 43.460 41.513
197.400 -19.458 -0.078 -19.459 -0.077 -19.477 -0.068 -19.501 -0.065 -19.500 -0.066 -19.496 -0.068 -19.446 -0.098 10.889 0.120 1.694 0.029 43.459 41.510
197.800 -19.455 -0.077 -19.456 -0.077 -19.474 -0.068 -19.499 -0.065 -19.499 -0.065 -19.494 -0.067 -19.445 -0.098 10.878 0.120 1.695 0.029 43.457 41.508
198.200 -19.453 -0.077 -19.453 -0.077 -19.472 -0.068 -19.497 -0.065 -19.497 -0.065 -19.492 -0.067 -19.443 -0.097 10.868 0.119 1.696 0.029 43.456 41.505
198.600 -19.450 -0.077 -19.451 -0.076 -19.469 -0.067 -19.496 -0.064 -19.495 -0.065 -19.490 -0.067 -19.442 -0.097 10.857 0.119 1.697 0.029 43.455 41.503
199.000 -19.447 -0.076 -19.448 -0.076 -19.467 -0.067 -19.494 -0.064 -19.493 -0.065 -19.489 -0.067 -19.440 -0.097 10.847 0.119 1.698 0.029 43.454 41.501
199.400 -19.445 -0.076 -19.445 -0.076 -19.464 -0.067 -19.492 -0.064 -19.491 -0.064 -19.487 -0.066 -19.439 -0.097 10.837 0.119 1.698 0.029 43.453 41.499
199.800 -19.442 -0.076 -19.443 -0.075 -19.462 -0.066 -19.490 -0.064 -19.489 -0.064 -19.485 -0.066 -19.437 -0.097 10.827 0.119 1.699 0.029 43.451 41.497
200.200 -19.439 -0.076 -19.440 -0.075 -19.459 -0.066 -19.488 -0.063 -19.488 -0.064 -19.483 -0.066 -19.436 -0.097 10.817 0.119 1.700 0.029 43.450 41.495
200.600 -19.437 -0.075 -19.437 -0.075 -19.457 -0.066 -19.486 -0.063 -19.486 -0.064 -19.481 -0.066 -19.434 -0.097 10.807 0.119 1.701 0.029 43.449 41.493
201.000 -19.434 -0.075 -19.435 -0.075 -19.454 -0.066 -19.484 -0.063 -19.484 -0.064 -19.480 -0.066 -19.432 -0.097 10.797 0.119 1.701 0.029 43.448 41.491
201.400 -19.431 -0.075 -19.432 -0.075 -19.452 -0.066 -19.482 -0.063 -19.482 -0.063 -19.478 -0.066 -19.431 -0.097 10.788 0.119 1.702 0.029 43.446 41.490
201.800 -19.429 -0.075 -19.429 -0.075 -19.449 -0.065 -19.480 -0.063 -19.480 -0.063 -19.476 -0.066 -19.429 -0.097 10.778 0.119 1.702 0.029 43.445 41.488
202.200 -19.426 -0.075 -19.427 -0.075 -19.447 -0.065 -19.478 -0.063 -19.478 -0.063 -19.474 -0.066 -19.428 -0.097 10.769 0.119 1.703 0.029 43.444 41.487
202.600 -19.424 -0.075 -19.424 -0.075 -19.445 -0.065 -19.476 -0.063 -19.476 -0.063 -19.472 -0.066 -19.426 -0.097 10.760 0.119 1.703 0.029 43.443 41.486
203.000 -19.421 -0.075 -19.422 -0.075 -19.442 -0.065 -19.474 -0.063 -19.474 -0.063 -19.471 -0.066 -19.425 -0.097 10.751 0.119 1.704 0.029 43.442 41.484
203.400 -19.418 -0.075 -19.419 -0.075 -19.440 -0.065 -19.472 -0.063 -19.472 -0.063 -19.469 -0.066 -19.423 -0.097 10.742 0.120 1.704 0.030 43.440 41.483
203.800 -19.416 -0.076 -19.416 -0.075 -19.437 -0.065 -19.470 -0.063 -19.470 -0.064 -19.467 -0.066 -19.421 -0.097 10.734 0.120 1.705 0.030 43.439 41.482
204.200 -19.413 -0.076 -19.414 -0.075 -19.435 -0.066 -19.468 -0.063 -19.468 -0.064 -19.465 -0.066 -19.420 -0.098 10.725 0.120 1.705 0.030 43.438 41.482
204.600 -19.411 -0.076 -19.411 -0.076 -19.432 -0.066 -19.466 -0.064 -19.466 -0.064 -19.463 -0.066 -19.418 -0.098 10.717 0.120 1.706 0.030 43.437 41.481
205.000 -19.408 -0.076 -19.409 -0.076 -19.430 -0.066 -19.464 -0.064 -19.465 -0.064 -19.461 -0.067 -19.417 -0.098 10.709 0.120 1.706 0.030 43.436 41.480
205.400 -19.405 -0.077 -19.406 -0.076 -19.427 -0.066 -19.462 -0.064 -19.463 -0.065 -19.459 -0.067 -19.415 -0.099 10.701 0.121 1.706 0.030 43.435 41.480
205.800 -19.403 -0.077 -19.403 -0.077 -19.425 -0.067 -19.460 -0.064 -19.461 -0.065 -19.458 -0.067 -19.414 -0.099 10.693 0.121 1.706 0.030 43.433 41.479
206.200 -19.400 -0.078 -19.401 -0.077 -19.423 -0.067 -19.458 -0.065 -19.459 -0.065 -19.456 -0.068 -19.412 -0.100 10.686 0.121 1.707 0.030 43.432 41.479
206.600 -19.398 -0.078 -19.398 -0.078 -19.420 -0.068 -19.456 -0.065 -19.456 -0.066 -19.454 -0.068 -19.411 -0.100 10.678 0.122 1.707 0.030 43.431 41.479
207.000 -19.395 -0.079 -19.396 -0.078 -19.418 -0.068 -19.454 -0.066 -19.454 -0.066 -19.452 -0.069 -19.409 -0.101 10.671 0.122 1.707 0.031 43.430 41.479
207.400 -19.393 -0.079 -19.393 -0.079 -19.415 -0.069 -19.452 -0.067 -19.452 -0.067 -19.450 -0.070 -19.407 -0.102 10.664 0.123 1.707 0.031 43.429 41.479
207.800 -19.390 -0.080 -19.391 -0.080 -19.413 -0.069 -19.450 -0.067 -19.450 -0.068 -19.448 -0.070 -19.406 -0.102 10.658 0.123 1.707 0.031 43.428 41.479
