"Time (MJD)" g-4769.9 g-4769.9_err i-7774.3 i-7774.3_err r-6370.44 r-6370.44_err z-9154.88 z-9154.88_err "Temp./1e3 (K)" "Temp. Err." "Radius/1e15 (cm)" "Radius Err." "Log10(Bol. Lum)" "Log10(Bol. Err)"
-15.000 -20.234 -0.226 -20.258 -0.179 -20.176 -0.187 -19.963 -0.254 9.000 227.878 1.000 70.015 42.670 44.286
-14.600 -20.342 -0.210 -20.377 -0.165 -20.296 -0.167 -20.066 -0.234 9.000 254.803 1.000 78.281 42.670 44.334
-14.200 -20.452 -0.198 -20.499 -0.155 -20.419 -0.151 -20.172 -0.217 9.000 285.851 1.000 87.745 42.670 44.382
-13.800 -20.564 -0.189 -20.622 -0.149 -20.543 -0.138 -20.279 -0.203 26.069 1.648 0.763 0.064 44.283 43.248
-13.400 -20.676 -0.184 -20.745 -0.146 -20.666 -0.129 -20.387 -0.193 26.062 1.909 0.807 0.078 44.330 43.362
-13.000 -20.789 -0.180 -20.868 -0.146 -20.788 -0.123 -20.493 -0.186 26.092 2.158 0.850 0.093 44.378 43.465
-12.600 -20.902 -0.177 -20.989 -0.146 -20.906 -0.122 -20.598 -0.181 26.166 2.377 0.893 0.107 44.425 43.556
-12.200 -21.012 -0.174 -21.108 -0.147 -21.020 -0.123 -20.700 -0.180 26.284 2.552 0.933 0.119 44.472 43.632
-11.800 -21.120 -0.170 -21.223 -0.146 -21.127 -0.127 -20.798 -0.180 26.428 2.687 0.973 0.130 44.517 43.698
-11.400 -21.225 -0.165 -21.334 -0.145 -21.229 -0.132 -20.893 -0.181 26.575 2.794 1.012 0.140 44.561 43.755
-11.000 -21.325 -0.159 -21.440 -0.142 -21.325 -0.137 -20.983 -0.182 26.707 2.881 1.052 0.150 44.603 43.805
-10.600 -21.421 -0.151 -21.541 -0.138 -21.416 -0.141 -21.070 -0.183 26.808 2.952 1.092 0.161 44.642 43.849
-10.200 -21.510 -0.143 -21.636 -0.132 -21.501 -0.145 -21.151 -0.184 26.863 3.008 1.134 0.171 44.678 43.886
-9.800 -21.593 -0.133 -21.724 -0.126 -21.581 -0.148 -21.228 -0.183 26.859 3.045 1.178 0.182 44.711 43.916
-9.400 -21.669 -0.123 -21.805 -0.118 -21.655 -0.150 -21.301 -0.182 26.788 3.062 1.224 0.193 44.740 43.939
-9.000 -21.737 -0.113 -21.879 -0.111 -21.723 -0.151 -21.368 -0.179 26.656 3.060 1.273 0.205 44.765 43.954
-8.600 -21.796 -0.105 -21.946 -0.106 -21.787 -0.153 -21.432 -0.175 26.490 3.048 1.321 0.216 44.787 43.966
-8.200 -21.846 -0.101 -22.004 -0.103 -21.844 -0.154 -21.490 -0.169 26.344 3.046 1.364 0.226 44.805 43.980
-7.800 -21.886 -0.103 -22.054 -0.106 -21.897 -0.156 -21.544 -0.161 26.269 3.068 1.397 0.233 44.821 44.004
-7.400 -21.916 -0.110 -22.097 -0.113 -21.943 -0.157 -21.594 -0.152 26.247 3.102 1.421 0.237 44.835 44.035
-7.000 -21.937 -0.122 -22.131 -0.123 -21.985 -0.159 -21.640 -0.141 26.214 3.119 1.442 0.237 44.845 44.065
-6.600 -21.950 -0.134 -22.159 -0.134 -22.021 -0.161 -21.683 -0.129 26.118 3.098 1.463 0.235 44.851 44.087
-6.200 -21.954 -0.147 -22.180 -0.146 -22.053 -0.162 -21.721 -0.116 25.928 3.033 1.488 0.231 44.853 44.100
-5.800 -21.952 -0.159 -22.194 -0.156 -22.080 -0.164 -21.756 -0.104 25.629 2.923 1.519 0.225 44.851 44.100
-5.400 -21.943 -0.169 -22.204 -0.166 -22.103 -0.166 -21.787 -0.093 25.207 2.777 1.560 0.220 44.845 44.087
-5.000 -21.928 -0.177 -22.208 -0.173 -22.122 -0.167 -21.816 -0.086 24.659 2.607 1.614 0.218 44.836 44.062
-4.600 -21.909 -0.183 -22.208 -0.178 -22.138 -0.168 -21.842 -0.085 23.994 2.428 1.681 0.220 44.824 44.022
-4.200 -21.885 -0.187 -22.204 -0.182 -22.151 -0.168 -21.865 -0.090 23.262 2.249 1.761 0.227 44.811 43.972
-3.800 -21.857 -0.188 -22.197 -0.183 -22.161 -0.167 -21.886 -0.098 22.518 2.075 1.849 0.235 44.797 43.916
-3.400 -21.826 -0.187 -22.188 -0.182 -22.169 -0.165 -21.905 -0.105 21.799 1.912 1.943 0.245 44.783 43.856
-3.000 -21.793 -0.184 -22.177 -0.179 -22.175 -0.161 -21.922 -0.112 21.122 1.761 2.038 0.253 44.770 43.796
-2.600 -21.758 -0.179 -22.165 -0.175 -22.179 -0.157 -21.937 -0.117 20.495 1.626 2.135 0.262 44.758 43.738
-2.200 -21.722 -0.172 -22.152 -0.169 -22.182 -0.151 -21.950 -0.120 19.925 1.508 2.229 0.270 44.747 43.683
-1.800 -21.686 -0.164 -22.139 -0.163 -22.185 -0.145 -21.962 -0.121 19.412 1.407 2.322 0.277 44.737 43.633
-1.400 -21.650 -0.156 -22.126 -0.156 -22.187 -0.138 -21.973 -0.121 18.919 1.318 2.418 0.286 44.727 43.588
-1.000 -21.615 -0.149 -22.115 -0.150 -22.188 -0.132 -21.982 -0.121 18.489 1.247 2.508 0.294 44.719 43.550
-0.600 -21.582 -0.143 -22.104 -0.145 -22.190 -0.127 -21.991 -0.121 18.105 1.191 2.595 0.304 44.712 43.520
-0.200 -21.551 -0.141 -22.095 -0.141 -22.192 -0.124 -21.999 -0.123 17.780 1.151 2.674 0.315 44.707 43.498
0.200 -21.523 -0.142 -22.088 -0.140 -22.195 -0.125 -22.007 -0.127 17.479 1.124 2.754 0.328 44.703 43.483
0.600 -21.497 -0.147 -22.082 -0.141 -22.199 -0.127 -22.014 -0.133 17.218 1.110 2.827 0.342 44.699 43.475
1.000 -21.473 -0.153 -22.078 -0.142 -22.203 -0.131 -22.020 -0.140 16.993 1.107 2.895 0.359 44.697 43.472
1.400 -21.452 -0.160 -22.076 -0.144 -22.208 -0.134 -22.026 -0.147 16.796 1.114 2.958 0.377 44.696 43.475
1.800 -21.432 -0.167 -22.077 -0.145 -22.213 -0.137 -22.032 -0.153 16.621 1.131 3.018 0.398 44.695 43.482
2.200 -21.414 -0.173 -22.079 -0.144 -22.219 -0.139 -22.038 -0.157 16.464 1.156 3.076 0.421 44.695 43.492
2.600 -21.396 -0.178 -22.082 -0.141 -22.225 -0.139 -22.044 -0.160 16.322 1.188 3.131 0.447 44.695 43.505
3.000 -21.380 -0.182 -22.087 -0.136 -22.232 -0.136 -22.049 -0.161 16.194 1.229 3.186 0.476 44.697 43.519
3.400 -21.364 -0.184 -22.093 -0.129 -22.239 -0.132 -22.055 -0.161 16.077 1.277 3.239 0.509 44.699 43.535
3.800 -21.348 -0.185 -22.100 -0.120 -22.246 -0.125 -22.061 -0.158 15.973 1.333 3.292 0.544 44.701 43.549
4.200 -21.333 -0.185 -22.106 -0.109 -22.252 -0.117 -22.067 -0.154 15.884 1.394 3.343 0.582 44.705 43.562
4.600 -21.318 -0.184 -22.113 -0.096 -22.258 -0.107 -22.073 -0.149 15.811 1.458 3.392 0.621 44.710 43.570
5.000 -21.302 -0.183 -22.118 -0.082 -22.264 -0.098 -22.080 -0.144 15.758 1.518 3.436 0.658 44.715 43.571
5.400 -21.286 -0.182 -22.121 -0.069 -22.268 -0.089 -22.087 -0.139 15.717 1.563 3.475 0.689 44.720 43.563
5.800 -21.271 -0.182 -22.121 -0.062 -22.272 -0.084 -22.096 -0.136 15.658 1.576 3.515 0.708 44.724 43.550
6.200 -21.255 -0.183 -22.117 -0.062 -22.275 -0.083 -22.105 -0.134 15.536 1.540 3.568 0.711 44.723 43.547
6.600 -21.240 -0.185 -22.109 -0.070 -22.276 -0.086 -22.115 -0.135 15.372 1.468 3.626 0.700 44.719 43.549
7.000 -21.224 -0.187 -22.099 -0.080 -22.277 -0.091 -22.126 -0.136 15.191 1.376 3.690 0.681 44.713 43.546
7.400 -21.207 -0.190 -22.085 -0.090 -22.275 -0.096 -22.136 -0.136 15.011 1.278 3.757 0.656 44.708 43.535
7.800 -21.189 -0.192 -22.069 -0.099 -22.271 -0.099 -22.146 -0.136 14.845 1.183 3.821 0.629 44.704 43.517
8.200 -21.169 -0.194 -22.051 -0.105 -22.265 -0.100 -22.154 -0.135 14.694 1.094 3.882 0.600 44.700 43.492
8.600 -21.149 -0.195 -22.032 -0.108 -22.257 -0.099 -22.162 -0.132 14.557 1.012 3.938 0.571 44.696 43.463
9.000 -21.126 -0.195 -22.010 -0.109 -22.246 -0.095 -22.168 -0.128 14.432 0.938 3.989 0.541 44.692 43.427
9.400 -21.103 -0.194 -21.987 -0.107 -22.233 -0.089 -22.172 -0.122 14.318 0.869 4.033 0.511 44.688 43.386
9.800 -21.078 -0.194 -21.962 -0.104 -22.218 -0.082 -22.173 -0.116 14.212 0.804 4.072 0.480 44.683 43.340
10.200 -21.053 -0.193 -21.934 -0.101 -22.200 -0.076 -22.172 -0.110 14.111 0.738 4.103 0.447 44.677 43.289
10.600 -21.026 -0.194 -21.904 -0.099 -22.181 -0.075 -22.169 -0.107 14.012 0.666 4.129 0.410 44.671 43.238
11.000 -21.000 -0.197 -21.872 -0.101 -22.159 -0.078 -22.162 -0.109 13.891 0.586 4.163 0.371 44.662 43.187
11.400 -20.974 -0.203 -21.838 -0.108 -22.136 -0.087 -22.152 -0.116 13.786 0.503 4.182 0.326 44.653 43.134
11.800 -20.948 -0.213 -21.801 -0.120 -22.111 -0.102 -22.140 -0.129 13.689 0.420 4.193 0.279 44.643 43.075
12.200 -20.923 -0.227 -21.764 -0.137 -22.084 -0.121 -22.124 -0.148 13.611 0.346 4.190 0.235 44.633 43.009
12.600 -20.899 -0.245 -21.725 -0.158 -22.056 -0.144 -22.107 -0.171 13.556 0.284 4.171 0.195 44.622 42.937
