"Time (MJD)" B-4369.53 B-4369.53_err g-4671.78 g-4671.78_err i-7457.89 i-7457.89_err r-6141.12 r-6141.12_err "Temp./1e3 (K)" "Temp. Err." "Radius/1e15 (cm)" "Radius Err." "Log10(Bol. Lum)" "Log10(Bol. Err)"
-44.000 -20.259 -0.172 -20.203 -0.156 -19.876 -0.178 -19.551 -0.262 21.668 3.185 0.866 0.139 44.072 43.504
-43.600 -20.313 -0.167 -20.258 -0.151 -19.930 -0.175 -19.601 -0.259 27.588 1.378 0.693 0.033 44.298 43.319
-43.200 -20.368 -0.163 -20.313 -0.147 -19.983 -0.172 -19.651 -0.257 27.747 1.474 0.707 0.036 44.324 43.374
-42.800 -20.422 -0.158 -20.368 -0.143 -20.037 -0.170 -19.701 -0.255 27.910 1.574 0.721 0.039 44.351 43.427
-42.400 -20.477 -0.154 -20.423 -0.139 -20.091 -0.168 -19.751 -0.253 28.078 1.678 0.735 0.042 44.378 43.480
-42.000 -20.531 -0.151 -20.478 -0.136 -20.144 -0.167 -19.801 -0.252 28.251 1.787 0.749 0.045 44.406 43.533
-41.600 -20.586 -0.147 -20.533 -0.132 -20.198 -0.166 -19.851 -0.250 28.427 1.899 0.763 0.048 44.433 43.585
-41.200 -20.641 -0.144 -20.588 -0.130 -20.252 -0.165 -19.902 -0.250 28.606 2.015 0.778 0.052 44.461 43.636
-40.800 -20.695 -0.141 -20.643 -0.127 -20.306 -0.164 -19.952 -0.249 28.786 2.135 0.793 0.055 44.488 43.686
-40.400 -20.750 -0.139 -20.698 -0.125 -20.359 -0.164 -20.002 -0.248 28.967 2.258 0.808 0.059 44.515 43.736
-40.000 -20.804 -0.136 -20.753 -0.122 -20.413 -0.163 -20.051 -0.248 29.147 2.384 0.824 0.063 44.543 43.785
-39.600 -20.858 -0.134 -20.808 -0.120 -20.466 -0.163 -20.101 -0.248 29.324 2.513 0.839 0.067 44.570 43.833
-39.200 -20.911 -0.132 -20.862 -0.118 -20.519 -0.163 -20.151 -0.248 29.498 2.644 0.855 0.072 44.596 43.880
-38.800 -20.965 -0.129 -20.916 -0.116 -20.572 -0.163 -20.200 -0.248 29.667 2.776 0.872 0.076 44.623 43.926
-38.400 -21.018 -0.127 -20.970 -0.114 -20.624 -0.164 -20.249 -0.248 29.828 2.909 0.889 0.081 44.649 43.971
-38.000 -21.070 -0.125 -21.023 -0.113 -20.676 -0.164 -20.298 -0.248 29.981 3.042 0.906 0.085 44.675 44.014
-37.600 -21.122 -0.123 -21.076 -0.111 -20.728 -0.164 -20.346 -0.249 30.123 3.174 0.924 0.090 44.700 44.056
-37.200 -21.174 -0.121 -21.128 -0.109 -20.779 -0.165 -20.395 -0.249 30.252 3.304 0.943 0.095 44.725 44.097
-36.800 -21.225 -0.120 -21.180 -0.108 -20.830 -0.165 -20.442 -0.250 30.366 3.431 0.962 0.101 44.748 44.136
-36.400 -21.275 -0.118 -21.231 -0.106 -20.880 -0.166 -20.490 -0.250 30.464 3.553 0.981 0.106 44.771 44.173
-36.000 -21.324 -0.116 -21.281 -0.104 -20.930 -0.166 -20.537 -0.250 30.542 3.670 1.001 0.111 44.794 44.208
-35.600 -21.373 -0.114 -21.331 -0.103 -20.979 -0.166 -20.584 -0.251 30.600 3.779 1.023 0.117 44.815 44.241
-35.200 -21.421 -0.112 -21.379 -0.101 -21.028 -0.167 -20.630 -0.251 30.634 3.880 1.044 0.122 44.835 44.272
-34.800 -21.468 -0.110 -21.427 -0.099 -21.075 -0.167 -20.676 -0.252 30.642 3.972 1.067 0.128 44.855 44.301
-34.400 -21.514 -0.109 -21.474 -0.097 -21.123 -0.168 -20.721 -0.252 30.623 4.052 1.091 0.134 44.873 44.328
-34.000 -21.559 -0.107 -21.520 -0.096 -21.169 -0.168 -20.766 -0.253 30.575 4.119 1.116 0.140 44.889 44.351
-33.600 -21.603 -0.105 -21.565 -0.094 -21.214 -0.168 -20.810 -0.253 30.496 4.171 1.142 0.145 44.905 44.373
-33.200 -21.646 -0.103 -21.609 -0.092 -21.259 -0.168 -20.854 -0.253 30.385 4.208 1.169 0.151 44.919 44.391
-32.800 -21.688 -0.102 -21.652 -0.091 -21.303 -0.168 -20.897 -0.253 30.242 4.227 1.197 0.157 44.932 44.406
-32.400 -21.729 -0.100 -21.693 -0.089 -21.346 -0.168 -20.939 -0.254 30.068 4.227 1.227 0.162 44.943 44.419
-32.000 -21.769 -0.098 -21.733 -0.088 -21.389 -0.168 -20.981 -0.254 29.863 4.209 1.258 0.168 44.953 44.428
-31.600 -21.807 -0.097 -21.772 -0.086 -21.430 -0.168 -21.022 -0.254 29.632 4.175 1.290 0.173 44.961 44.434
-31.200 -21.844 -0.095 -21.810 -0.085 -21.470 -0.168 -21.063 -0.253 29.377 4.126 1.324 0.178 44.969 44.438
-30.800 -21.880 -0.094 -21.847 -0.083 -21.510 -0.168 -21.103 -0.253 29.101 4.065 1.359 0.182 44.975 44.439
-30.400 -21.915 -0.092 -21.883 -0.082 -21.548 -0.168 -21.142 -0.253 28.808 3.992 1.395 0.187 44.980 44.439
-30.000 -21.949 -0.091 -21.917 -0.080 -21.586 -0.167 -21.181 -0.253 28.501 3.911 1.433 0.191 44.984 44.436
-29.600 -21.982 -0.089 -21.950 -0.079 -21.623 -0.167 -21.219 -0.252 28.182 3.821 1.471 0.196 44.988 44.431
-29.200 -22.014 -0.088 -21.983 -0.077 -21.659 -0.166 -21.256 -0.251 27.855 3.725 1.511 0.200 44.991 44.425
-28.800 -22.044 -0.086 -22.014 -0.076 -21.693 -0.166 -21.292 -0.251 27.521 3.624 1.551 0.203 44.993 44.417
-28.400 -22.074 -0.084 -22.044 -0.074 -21.727 -0.165 -21.328 -0.250 27.183 3.519 1.593 0.207 44.994 44.408
-28.000 -22.102 -0.083 -22.073 -0.072 -21.760 -0.165 -21.363 -0.249 26.843 3.411 1.635 0.210 44.995 44.397
-27.600 -22.129 -0.082 -22.101 -0.071 -21.792 -0.164 -21.397 -0.248 26.504 3.301 1.678 0.213 44.996 44.385
-27.200 -22.156 -0.080 -22.128 -0.069 -21.823 -0.163 -21.431 -0.247 26.167 3.190 1.722 0.216 44.996 44.372
-26.800 -22.181 -0.079 -22.154 -0.068 -21.853 -0.163 -21.464 -0.246 25.833 3.077 1.766 0.218 44.996 44.358
-26.400 -22.205 -0.078 -22.179 -0.066 -21.882 -0.162 -21.496 -0.244 25.505 2.965 1.811 0.220 44.995 44.343
-26.000 -22.229 -0.077 -22.202 -0.065 -21.910 -0.161 -21.527 -0.243 25.184 2.852 1.856 0.222 44.994 44.327
-25.600 -22.251 -0.076 -22.225 -0.064 -21.937 -0.160 -21.557 -0.241 24.871 2.739 1.901 0.223 44.993 44.310
-25.200 -22.272 -0.075 -22.247 -0.064 -21.964 -0.159 -21.587 -0.240 24.567 2.626 1.946 0.223 44.992 44.292
-24.800 -22.293 -0.075 -22.268 -0.063 -21.989 -0.158 -21.616 -0.238 24.272 2.514 1.991 0.223 44.991 44.274
-24.400 -22.312 -0.075 -22.288 -0.063 -22.013 -0.157 -21.644 -0.236 23.987 2.402 2.035 0.222 44.990 44.254
-24.000 -22.331 -0.075 -22.307 -0.064 -22.037 -0.156 -21.671 -0.234 23.711 2.291 2.080 0.220 44.989 44.234
-23.600 -22.348 -0.076 -22.326 -0.064 -22.059 -0.155 -21.698 -0.232 23.443 2.182 2.124 0.218 44.987 44.212
-23.200 -22.365 -0.077 -22.343 -0.065 -22.081 -0.154 -21.724 -0.229 23.183 2.074 2.168 0.216 44.986 44.190
-22.800 -22.381 -0.078 -22.359 -0.067 -22.101 -0.153 -21.749 -0.227 22.928 1.970 2.212 0.212 44.984 44.168
-22.400 -22.396 -0.079 -22.375 -0.068 -22.121 -0.151 -21.773 -0.225 22.679 1.868 2.256 0.209 44.982 44.144
-22.000 -22.410 -0.080 -22.390 -0.070 -22.140 -0.150 -21.797 -0.222 22.435 1.770 2.299 0.205 44.980 44.120
-21.600 -22.423 -0.081 -22.403 -0.072 -22.158 -0.149 -21.819 -0.219 22.195 1.675 2.343 0.201 44.977 44.096
-21.200 -22.436 -0.083 -22.416 -0.073 -22.175 -0.148 -21.842 -0.216 21.959 1.584 2.387 0.197 44.975 44.071
-20.800 -22.447 -0.084 -22.429 -0.075 -22.191 -0.146 -21.863 -0.213 21.727 1.496 2.430 0.193 44.972 44.045
-20.400 -22.458 -0.086 -22.440 -0.077 -22.207 -0.145 -21.883 -0.210 21.498 1.411 2.474 0.188 44.969 44.018
-20.000 -22.468 -0.087 -22.450 -0.078 -22.221 -0.143 -21.903 -0.207 21.273 1.329 2.517 0.183 44.966 43.991
-19.600 -22.477 -0.088 -22.460 -0.080 -22.235 -0.142 -21.922 -0.204 21.052 1.250 2.561 0.178 44.963 43.962
-19.200 -22.486 -0.089 -22.469 -0.081 -22.248 -0.140 -21.941 -0.200 20.835 1.174 2.604 0.173 44.959 43.933
-18.800 -22.493 -0.090 -22.477 -0.082 -22.260 -0.138 -21.959 -0.197 20.621 1.100 2.647 0.167 44.956 43.903
-18.400 -22.500 -0.091 -22.485 -0.083 -22.272 -0.136 -21.976 -0.193 20.411 1.028 2.690 0.161 44.952 43.871
-18.000 -22.507 -0.092 -22.492 -0.084 -22.282 -0.134 -21.992 -0.190 20.205 0.958 2.733 0.155 44.948 43.838
-17.600 -22.512 -0.092 -22.498 -0.085 -22.292 -0.132 -22.008 -0.186 20.003 0.890 2.775 0.148 44.944 43.803
-17.200 -22.517 -0.093 -22.503 -0.085 -22.301 -0.130 -22.023 -0.182 19.804 0.824 2.817 0.142 44.939 43.767
-16.800 -22.521 -0.093 -22.508 -0.086 -22.309 -0.128 -22.037 -0.178 19.610 0.759 2.859 0.134 44.935 43.728
-16.400 -22.525 -0.093 -22.512 -0.086 -22.317 -0.126 -22.051 -0.174 19.419 0.695 2.900 0.127 44.931 43.687
-16.000 -22.528 -0.092 -22.515 -0.085 -22.324 -0.123 -22.064 -0.169 19.232 0.633 2.941 0.119 44.926 43.643
-15.600 -22.530 -0.092 -22.518 -0.085 -22.330 -0.121 -22.076 -0.165 19.049 0.573 2.981 0.111 44.921 43.595
-15.200 -22.531 -0.091 -22.520 -0.084 -22.335 -0.118 -22.088 -0.160 18.869 0.513 3.021 0.102 44.916 43.544
-14.800 -22.532 -0.090 -22.522 -0.083 -22.340 -0.115 -22.099 -0.156 18.693 0.456 3.061 0.093 44.911 43.488
-14.400 -22.533 -0.089 -22.522 -0.082 -22.344 -0.113 -22.110 -0.151 18.520 0.399 3.100 0.084 44.906 43.426
-14.000 -22.532 -0.088 -22.523 -0.081 -22.347 -0.110 -22.120 -0.147 18.351 0.345 3.138 0.074 44.901 43.357
-13.600 -22.532 -0.086 -22.523 -0.079 -22.350 -0.107 -22.130 -0.142 18.185 0.292 3.176 0.065 44.895 43.280
-13.200 -22.530 -0.084 -22.522 -0.078 -22.352 -0.103 -22.139 -0.137 18.022 0.241 3.214 0.055 44.890 43.192
-12.800 -22.528 -0.083 -22.520 -0.076 -22.354 -0.100 -22.147 -0.132 17.863 0.194 3.250 0.045 44.884 43.092
-12.400 -22.526 -0.081 -22.518 -0.074 -22.355 -0.097 -22.155 -0.127 17.709 0.151 3.286 0.036 44.879 42.979
-12.000 -22.523 -0.079 -22.516 -0.072 -22.355 -0.093 -22.163 -0.122 17.558 0.118 3.321 0.029 44.873 42.865
-11.600 -22.519 -0.076 -22.513 -0.069 -22.355 -0.090 -22.170 -0.117 17.410 0.100 3.356 0.025 44.868 42.790
-11.200 -22.515 -0.074 -22.510 -0.067 -22.355 -0.087 -22.176 -0.112 17.263 0.105 3.390 0.027 44.862 42.804
-10.800 -22.511 -0.072 -22.506 -0.065 -22.353 -0.083 -22.182 -0.107 17.118 0.128 3.424 0.034 44.856 42.884
-10.400 -22.506 -0.069 -22.502 -0.062 -22.352 -0.079 -22.188 -0.101 16.974 0.160 3.458 0.043 44.850 42.975
-10.000 -22.501 -0.067 -22.497 -0.060 -22.350 -0.076 -22.193 -0.096 16.832 0.196 3.492 0.054 44.844 43.055
-9.600 -22.495 -0.064 -22.492 -0.057 -22.348 -0.072 -22.198 -0.091 16.690 0.232 3.526 0.066 44.837 43.123
-9.200 -22.488 -0.062 -22.486 -0.055 -22.345 -0.068 -22.202 -0.086 16.525 0.266 3.567 0.077 44.830 43.175
-8.800 -22.482 -0.059 -22.480 -0.053 -22.342 -0.065 -22.206 -0.081 16.383 0.300 3.601 0.089 44.823 43.221
-8.400 -22.475 -0.057 -22.474 -0.050 -22.339 -0.061 -22.210 -0.076 16.243 0.332 3.636 0.101 44.817 43.260
-8.000 -22.467 -0.054 -22.467 -0.048 -22.336 -0.057 -22.213 -0.071 16.104 0.362 3.671 0.113 44.810 43.292
-7.600 -22.460 -0.052 -22.460 -0.046 -22.333 -0.054 -22.216 -0.067 15.968 0.391 3.705 0.124 44.803 43.319
-7.200 -22.452 -0.050 -22.453 -0.044 -22.329 -0.050 -22.219 -0.062 15.834 0.416 3.739 0.135 44.797 43.342
-6.800 -22.444 -0.048 -22.446 -0.043 -22.326 -0.047 -22.221 -0.058 15.703 0.439 3.773 0.146 44.790 43.360
-6.400 -22.436 -0.046 -22.439 -0.041 -22.322 -0.044 -22.223 -0.054 15.575 0.459 3.806 0.155 44.784 43.375
-6.000 -22.427 -0.044 -22.432 -0.039 -22.319 -0.041 -22.224 -0.051 15.452 0.475 3.839 0.164 44.777 43.386
-5.600 -22.419 -0.042 -22.425 -0.038 -22.316 -0.038 -22.225 -0.048 15.332 0.487 3.872 0.171 44.771 43.393
-5.200 -22.411 -0.041 -22.417 -0.037 -22.313 -0.036 -22.226 -0.045 15.217 0.495 3.903 0.176 44.765 43.396
-4.800 -22.403 -0.040 -22.410 -0.036 -22.311 -0.034 -22.226 -0.043 15.106 0.498 3.934 0.181 44.759 43.395
-4.400 -22.395 -0.039 -22.404 -0.036 -22.309 -0.032 -22.226 -0.041 15.000 0.498 3.964 0.183 44.754 43.392
-4.000 -22.388 -0.039 -22.397 -0.036 -22.307 -0.031 -22.226 -0.040 14.899 0.494 3.994 0.185 44.748 43.386
-3.600 -22.381 -0.039 -22.391 -0.036 -22.305 -0.030 -22.226 -0.039 14.804 0.489 4.023 0.185 44.743 43.378
-3.200 -22.375 -0.040 -22.385 -0.037 -22.304 -0.030 -22.226 -0.039 14.715 0.481 4.050 0.185 44.739 43.368
-2.800 -22.369 -0.041 -22.380 -0.038 -22.303 -0.030 -22.226 -0.038 14.633 0.471 4.077 0.184 44.735 43.357
-2.400 -22.364 -0.042 -22.375 -0.039 -22.303 -0.030 -22.226 -0.039 14.562 0.460 4.100 0.182 44.731 43.345
-2.000 -22.359 -0.043 -22.371 -0.040 -22.303 -0.031 -22.226 -0.039 14.490 0.449 4.125 0.179 44.728 43.332
-1.600 -22.355 -0.045 -22.367 -0.041 -22.303 -0.031 -22.226 -0.040 14.422 0.436 4.149 0.176 44.725 43.318
-1.200 -22.351 -0.047 -22.363 -0.042 -22.303 -0.031 -22.227 -0.040 14.358 0.424 4.172 0.173 44.722 43.304
-0.800 -22.347 -0.048 -22.360 -0.044 -22.304 -0.032 -22.227 -0.041 14.297 0.410 4.194 0.169 44.719 43.288
-0.400 -22.344 -0.050 -22.357 -0.045 -22.304 -0.032 -22.228 -0.042 14.240 0.397 4.216 0.165 44.717 43.272
-0.000 -22.341 -0.051 -22.354 -0.046 -22.306 -0.033 -22.228 -0.042 14.185 0.382 4.237 0.161 44.714 43.254
0.400 -22.338 -0.053 -22.352 -0.048 -22.307 -0.033 -22.229 -0.043 14.133 0.367 4.259 0.156 44.712 43.235
0.800 -22.335 -0.054 -22.350 -0.049 -22.309 -0.033 -22.231 -0.044 14.083 0.350 4.280 0.151 44.710 43.213
1.200 -22.333 -0.055 -22.348 -0.050 -22.310 -0.034 -22.232 -0.045 14.034 0.333 4.301 0.145 44.709 43.188
1.600 -22.330 -0.056 -22.346 -0.050 -22.312 -0.034 -22.233 -0.047 13.986 0.315 4.323 0.138 44.707 43.160
2.000 -22.328 -0.057 -22.345 -0.051 -22.315 -0.035 -22.235 -0.048 13.939 0.295 4.345 0.132 44.706 43.129
2.400 -22.326 -0.058 -22.343 -0.052 -22.317 -0.036 -22.237 -0.049 13.892 0.276 4.367 0.125 44.704 43.095
2.800 -22.324 -0.058 -22.342 -0.052 -22.320 -0.037 -22.239 -0.051 13.845 0.256 4.390 0.117 44.703 43.059
3.200 -22.322 -0.059 -22.341 -0.052 -22.322 -0.038 -22.241 -0.052 13.799 0.237 4.414 0.110 44.702 43.020
3.600 -22.321 -0.059 -22.340 -0.052 -22.325 -0.039 -22.243 -0.054 13.752 0.218 4.438 0.103 44.701 42.979
4.000 -22.319 -0.059 -22.339 -0.052 -22.328 -0.040 -22.245 -0.055 13.705 0.200 4.462 0.096 44.699 42.937
4.400 -22.317 -0.059 -22.338 -0.052 -22.331 -0.041 -22.247 -0.056 13.659 0.183 4.486 0.089 44.698 42.893
4.800 -22.316 -0.059 -22.338 -0.052 -22.333 -0.042 -22.249 -0.058 13.613 0.167 4.511 0.082 44.697 42.847
5.200 -22.314 -0.059 -22.337 -0.052 -22.336 -0.042 -22.252 -0.059 13.567 0.151 4.535 0.076 44.696 42.800
5.600 -22.312 -0.059 -22.336 -0.051 -22.339 -0.043 -22.254 -0.060 13.521 0.137 4.560 0.070 44.695 42.752
6.000 -22.310 -0.059 -22.335 -0.051 -22.342 -0.043 -22.256 -0.061 13.476 0.124 4.584 0.064 44.694 42.702
6.400 -22.309 -0.059 -22.334 -0.050 -22.344 -0.044 -22.258 -0.062 13.432 0.112 4.608 0.059 44.692 42.653
6.800 -22.307 -0.058 -22.333 -0.050 -22.347 -0.044 -22.259 -0.063 13.389 0.101 4.632 0.054 44.691 42.605
7.200 -22.305 -0.058 -22.332 -0.049 -22.349 -0.044 -22.261 -0.063 13.347 0.092 4.655 0.049 44.690 42.558
7.600 -22.303 -0.058 -22.331 -0.049 -22.351 -0.044 -22.263 -0.064 13.306 0.084 4.677 0.046 44.689 42.515
8.000 -22.301 -0.058 -22.329 -0.048 -22.353 -0.043 -22.264 -0.065 13.266 0.078 4.698 0.043 44.688 42.477
8.400 -22.298 -0.058 -22.328 -0.048 -22.354 -0.043 -22.265 -0.065 13.227 0.073 4.719 0.040 44.686 42.445
8.800 -22.296 -0.058 -22.326 -0.048 -22.355 -0.043 -22.265 -0.065 13.188 0.069 4.739 0.039 44.685 42.419
9.200 -22.293 -0.058 -22.324 -0.048 -22.356 -0.042 -22.266 -0.066 13.152 0.067 4.757 0.038 44.683 42.400
9.600 -22.290 -0.058 -22.321 -0.048 -22.356 -0.042 -22.266 -0.066 13.115 0.065 4.775 0.037 44.682 42.388
10.000 -22.287 -0.058 -22.319 -0.048 -22.356 -0.041 -22.266 -0.066 13.081 0.064 4.791 0.037 44.680 42.382
10.400 -22.283 -0.059 -22.316 -0.048 -22.355 -0.041 -22.265 -0.066 13.046 0.064 4.807 0.037 44.678 42.378
10.800 -22.279 -0.059 -22.312 -0.049 -22.354 -0.040 -22.264 -0.066 13.016 0.063 4.819 0.037 44.677 42.376
11.200 -22.274 -0.060 -22.308 -0.049 -22.352 -0.040 -22.263 -0.065 12.983 0.063 4.832 0.037 44.675 42.373
11.600 -22.270 -0.060 -22.304 -0.050 -22.350 -0.040 -22.261 -0.065 12.954 0.063 4.841 0.037 44.672 42.368
12.000 -22.265 -0.061 -22.300 -0.051 -22.347 -0.040 -22.259 -0.065 12.927 0.062 4.849 0.036 44.670 42.360
12.400 -22.259 -0.062 -22.295 -0.051 -22.343 -0.041 -22.257 -0.064 12.902 0.060 4.855 0.035 44.668 42.350
12.800 -22.253 -0.062 -22.289 -0.052 -22.339 -0.041 -22.254 -0.064 12.876 0.059 4.860 0.035 44.665 42.337
13.200 -22.247 -0.063 -22.284 -0.053 -22.335 -0.042 -22.251 -0.063 12.850 0.057 4.864 0.034 44.662 42.323
13.600 -22.240 -0.064 -22.278 -0.053 -22.330 -0.042 -22.248 -0.062 12.824 0.055 4.868 0.033 44.660 42.308
14.000 -22.233 -0.064 -22.271 -0.054 -22.325 -0.043 -22.244 -0.061 12.797 0.054 4.871 0.032 44.656 42.296
14.400 -22.225 -0.065 -22.264 -0.055 -22.319 -0.043 -22.240 -0.060 12.766 0.053 4.876 0.032 44.653 42.287
14.800 -22.218 -0.065 -22.256 -0.055 -22.313 -0.043 -22.236 -0.059 12.736 0.053 4.879 0.032 44.650 42.285
15.200 -22.209 -0.066 -22.249 -0.055 -22.307 -0.043 -22.232 -0.058 12.703 0.054 4.884 0.032 44.646 42.292
15.600 -22.200 -0.066 -22.240 -0.056 -22.300 -0.043 -22.227 -0.056 12.669 0.056 4.889 0.034 44.642 42.307
16.000 -22.191 -0.067 -22.232 -0.056 -22.293 -0.043 -22.223 -0.054 12.632 0.059 4.895 0.036 44.638 42.330
16.400 -22.182 -0.067 -22.223 -0.057 -22.286 -0.042 -22.218 -0.052 12.592 0.063 4.902 0.038 44.634 42.360
16.800 -22.172 -0.067 -22.213 -0.057 -22.278 -0.042 -22.213 -0.051 12.549 0.068 4.910 0.041 44.629 42.393
17.200 -22.162 -0.068 -22.203 -0.057 -22.271 -0.041 -22.208 -0.049 12.503 0.074 4.921 0.045 44.625 42.428
17.600 -22.151 -0.068 -22.193 -0.057 -22.263 -0.040 -22.203 -0.046 12.454 0.080 4.933 0.049 44.620 42.464
18.000 -22.140 -0.068 -22.183 -0.057 -22.256 -0.039 -22.198 -0.044 12.401 0.087 4.947 0.053 44.615 42.500
18.400 -22.129 -0.069 -22.172 -0.058 -22.248 -0.038 -22.194 -0.042 12.346 0.094 4.963 0.058 44.610 42.534
18.800 -22.118 -0.069 -22.161 -0.058 -22.240 -0.037 -22.189 -0.041 12.287 0.102 4.981 0.063 44.605 42.567
19.200 -22.106 -0.069 -22.150 -0.058 -22.232 -0.036 -22.185 -0.039 12.225 0.110 5.002 0.068 44.600 42.596
19.600 -22.094 -0.070 -22.139 -0.059 -22.225 -0.035 -22.180 -0.038 12.160 0.117 5.025 0.074 44.595 42.622
20.000 -22.082 -0.070 -22.127 -0.059 -22.217 -0.035 -22.176 -0.037 12.093 0.124 5.049 0.079 44.589 42.643
20.400 -22.070 -0.071 -22.116 -0.060 -22.210 -0.035 -22.172 -0.036 12.025 0.130 5.076 0.084 44.584 42.659
20.800 -22.057 -0.071 -22.104 -0.060 -22.203 -0.035 -22.168 -0.037 11.955 0.135 5.104 0.089 44.579 42.669
21.200 -22.045 -0.072 -22.092 -0.061 -22.196 -0.036 -22.165 -0.037 11.885 0.139 5.134 0.093 44.574 42.675
21.600 -22.032 -0.073 -22.080 -0.062 -22.189 -0.037 -22.162 -0.038 11.814 0.143 5.165 0.097 44.569 42.677
22.000 -22.020 -0.073 -22.068 -0.062 -22.182 -0.039 -22.158 -0.040 11.743 0.146 5.197 0.101 44.563 42.676
22.400 -22.007 -0.074 -22.056 -0.063 -22.175 -0.040 -22.155 -0.041 11.671 0.148 5.231 0.105 44.558 42.673
22.800 -21.994 -0.074 -22.043 -0.063 -22.169 -0.041 -22.153 -0.042 11.599 0.151 5.266 0.109 44.553 42.669
23.200 -21.981 -0.075 -22.031 -0.064 -22.162 -0.043 -22.150 -0.044 11.526 0.153 5.302 0.113 44.548 42.665
23.600 -21.968 -0.075 -22.019 -0.064 -22.156 -0.044 -22.147 -0.045 11.453 0.155 5.339 0.117 44.543 42.660
24.000 -21.955 -0.076 -22.006 -0.065 -22.150 -0.045 -22.145 -0.046 11.380 0.156 5.377 0.121 44.538 42.655
24.400 -21.942 -0.076 -21.994 -0.065 -22.144 -0.046 -22.142 -0.047 11.307 0.158 5.416 0.125 44.534 42.650
24.800 -21.929 -0.076 -21.982 -0.065 -22.137 -0.047 -22.140 -0.048 11.235 0.160 5.456 0.129 44.529 42.645
25.200 -21.916 -0.077 -21.969 -0.065 -22.131 -0.048 -22.137 -0.049 11.163 0.161 5.496 0.133 44.524 42.641
25.600 -21.902 -0.077 -21.957 -0.066 -22.125 -0.048 -22.134 -0.049 11.092 0.163 5.536 0.137 44.519 42.637
26.000 -21.889 -0.077 -21.944 -0.065 -22.118 -0.049 -22.132 -0.049 11.022 0.164 5.576 0.141 44.515 42.633
26.400 -21.876 -0.077 -21.932 -0.065 -22.112 -0.049 -22.129 -0.049 10.954 0.165 5.617 0.145 44.510 42.630
26.800 -21.863 -0.077 -21.920 -0.065 -22.105 -0.049 -22.126 -0.049 10.886 0.167 5.657 0.149 44.505 42.627
27.200 -21.849 -0.077 -21.907 -0.065 -22.099 -0.049 -22.123 -0.049 10.820 0.168 5.696 0.153 44.501 42.625
27.600 -21.836 -0.077 -21.895 -0.065 -22.092 -0.049 -22.120 -0.048 10.755 0.170 5.735 0.157 44.496 42.624
28.000 -21.823 -0.077 -21.882 -0.065 -22.085 -0.049 -22.117 -0.048 10.692 0.171 5.773 0.161 44.492 42.623
28.400 -21.809 -0.077 -21.870 -0.065 -22.078 -0.049 -22.113 -0.047 10.631 0.173 5.809 0.165 44.487 42.622
28.800 -21.796 -0.077 -21.857 -0.065 -22.071 -0.048 -22.109 -0.046 10.571 0.174 5.845 0.168 44.483 42.622
29.200 -21.783 -0.077 -21.845 -0.065 -22.063 -0.048 -22.105 -0.045 10.514 0.175 5.879 0.172 44.478 42.623
29.600 -21.769 -0.077 -21.832 -0.065 -22.055 -0.047 -22.101 -0.044 10.458 0.176 5.912 0.175 44.474 42.623
30.000 -21.756 -0.078 -21.820 -0.065 -22.047 -0.047 -22.096 -0.043 10.403 0.177 5.943 0.178 44.470 42.623
30.400 -21.742 -0.078 -21.807 -0.065 -22.039 -0.046 -22.091 -0.041 10.351 0.178 5.972 0.180 44.465 42.623
30.800 -21.728 -0.078 -21.794 -0.065 -22.031 -0.045 -22.085 -0.040 10.301 0.179 5.999 0.183 44.461 42.622
31.200 -21.715 -0.079 -21.781 -0.065 -22.022 -0.045 -22.079 -0.039 10.254 0.179 6.023 0.184 44.456 42.620
31.600 -21.701 -0.079 -21.768 -0.065 -22.014 -0.044 -22.073 -0.038 10.209 0.179 6.044 0.186 44.451 42.617
32.000 -21.687 -0.080 -21.755 -0.066 -22.005 -0.044 -22.066 -0.037 10.167 0.179 6.061 0.187 44.447 42.613
32.400 -21.673 -0.080 -21.742 -0.066 -21.995 -0.044 -22.059 -0.037 10.128 0.178 6.075 0.188 44.442 42.607
32.800 -21.659 -0.081 -21.729 -0.067 -21.986 -0.044 -22.051 -0.037 10.093 0.177 6.085 0.188 44.437 42.601
33.200 -21.645 -0.082 -21.715 -0.067 -21.976 -0.044 -22.043 -0.037 10.059 0.177 6.092 0.188 44.433 42.593
33.600 -21.631 -0.083 -21.702 -0.068 -21.966 -0.044 -22.035 -0.038 10.028 0.176 6.096 0.189 44.428 42.585
34.000 -21.616 -0.084 -21.688 -0.070 -21.956 -0.045 -22.026 -0.039 10.000 0.175 6.097 0.189 44.423 42.577
34.400 -21.602 -0.086 -21.674 -0.071 -21.945 -0.046 -22.017 -0.040 9.973 0.175 6.095 0.190 44.418 42.569
34.800 -21.588 -0.087 -21.661 -0.072 -21.934 -0.046 -22.008 -0.041 9.948 0.175 6.092 0.191 44.413 42.562
35.200 -21.573 -0.089 -21.647 -0.074 -21.923 -0.047 -21.999 -0.042 9.924 0.175 6.086 0.192 44.408 42.555
35.600 -21.559 -0.090 -21.633 -0.075 -21.912 -0.048 -21.989 -0.044 9.901 0.176 6.080 0.194 44.403 42.549
36.000 -21.544 -0.092 -21.619 -0.077 -21.901 -0.049 -21.979 -0.045 9.879 0.176 6.072 0.196 44.398 42.543
36.400 -21.530 -0.094 -21.605 -0.079 -21.889 -0.051 -21.969 -0.047 9.857 0.177 6.064 0.197 44.393 42.538
36.800 -21.515 -0.096 -21.591 -0.081 -21.878 -0.052 -21.960 -0.048 9.835 0.178 6.055 0.199 44.388 42.533
37.200 -21.500 -0.098 -21.577 -0.083 -21.866 -0.052 -21.950 -0.050 9.813 0.179 6.046 0.201 44.383 42.529
37.600 -21.485 -0.099 -21.563 -0.084 -21.854 -0.053 -21.939 -0.051 9.791 0.180 6.037 0.203 44.378 42.525
38.000 -21.471 -0.101 -21.549 -0.086 -21.842 -0.054 -21.929 -0.052 9.769 0.181 6.029 0.205 44.373 42.522
38.400 -21.456 -0.103 -21.535 -0.088 -21.830 -0.055 -21.919 -0.053 9.746 0.182 6.021 0.207 44.368 42.518
38.800 -21.441 -0.105 -21.520 -0.090 -21.819 -0.055 -21.909 -0.054 9.722 0.183 6.014 0.209 44.362 42.515
39.200 -21.426 -0.106 -21.506 -0.091 -21.807 -0.056 -21.899 -0.055 9.698 0.185 6.008 0.211 44.357 42.512
39.600 -21.411 -0.108 -21.491 -0.093 -21.795 -0.056 -21.889 -0.056 9.674 0.186 6.003 0.213 44.352 42.509
40.000 -21.395 -0.110 -21.477 -0.094 -21.783 -0.056 -21.879 -0.056 9.648 0.187 5.999 0.215 44.347 42.506
40.400 -21.380 -0.111 -21.462 -0.096 -21.771 -0.057 -21.870 -0.057 9.621 0.189 5.997 0.218 44.342 42.503
40.800 -21.365 -0.113 -21.448 -0.097 -21.759 -0.057 -21.860 -0.057 9.594 0.190 5.996 0.221 44.336 42.500
41.200 -21.349 -0.114 -21.433 -0.098 -21.748 -0.057 -21.850 -0.058 9.565 0.192 5.996 0.223 44.331 42.497
41.600 -21.334 -0.115 -21.418 -0.100 -21.736 -0.057 -21.841 -0.058 9.535 0.193 5.998 0.227 44.326 42.495
42.000 -21.318 -0.116 -21.403 -0.101 -21.725 -0.058 -21.832 -0.059 9.505 0.195 6.002 0.230 44.321 42.492
42.400 -21.303 -0.118 -21.388 -0.102 -21.713 -0.058 -21.824 -0.060 9.473 0.197 6.008 0.234 44.316 42.491
42.800 -21.287 -0.119 -21.373 -0.103 -21.702 -0.058 -21.815 -0.061 9.440 0.199 6.015 0.238 44.311 42.489
43.200 -21.271 -0.120 -21.358 -0.104 -21.691 -0.059 -21.807 -0.062 9.406 0.201 6.024 0.243 44.306 42.488
43.600 -21.255 -0.120 -21.343 -0.104 -21.680 -0.060 -21.799 -0.063 9.372 0.203 6.035 0.248 44.301 42.488
44.000 -21.240 -0.121 -21.328 -0.105 -21.669 -0.060 -21.791 -0.064 9.336 0.206 6.047 0.254 44.297 42.488
44.400 -21.224 -0.122 -21.312 -0.106 -21.657 -0.061 -21.784 -0.065 9.300 0.208 6.061 0.260 44.292 42.489
44.800 -21.207 -0.122 -21.297 -0.106 -21.646 -0.061 -21.776 -0.066 9.263 0.211 6.076 0.267 44.287 42.491
45.200 -21.191 -0.123 -21.281 -0.107 -21.635 -0.062 -21.769 -0.067 9.225 0.214 6.093 0.274 44.282 42.494
45.600 -21.175 -0.123 -21.266 -0.107 -21.624 -0.063 -21.762 -0.068 9.187 0.217 6.110 0.282 44.278 42.497
46.000 -21.159 -0.123 -21.250 -0.107 -21.613 -0.063 -21.755 -0.069 9.149 0.221 6.128 0.290 44.273 42.502
46.400 -21.142 -0.124 -21.234 -0.107 -21.601 -0.064 -21.748 -0.070 9.110 0.225 6.147 0.299 44.268 42.508
46.800 -21.126 -0.124 -21.219 -0.107 -21.590 -0.064 -21.741 -0.071 9.072 0.230 6.166 0.309 44.264 42.514
47.200 -21.110 -0.124 -21.203 -0.107 -21.578 -0.064 -21.735 -0.071 9.033 0.235 6.186 0.320 44.259 42.522
47.600 -21.093 -0.123 -21.187 -0.107 -21.567 -0.064 -21.728 -0.072 8.993 0.240 6.207 0.332 44.254 42.530
48.000 -21.076 -0.123 -21.171 -0.107 -21.555 -0.064 -21.721 -0.072 8.954 0.246 6.228 0.344 44.250 42.538
48.400 -21.060 -0.123 -21.155 -0.106 -21.543 -0.064 -21.715 -0.072 8.920 0.252 6.241 0.356 44.245 42.547
48.800 -21.043 -0.122 -21.139 -0.106 -21.531 -0.063 -21.708 -0.072 8.876 0.258 6.271 0.369 44.240 42.556
49.200 -21.027 -0.122 -21.123 -0.105 -21.519 -0.063 -21.701 -0.072 8.842 0.264 6.284 0.383 44.236 42.565
49.600 -21.010 -0.121 -21.106 -0.104 -21.508 -0.062 -21.694 -0.071 8.797 0.271 6.315 0.397 44.231 42.574
50.000 -20.993 -0.121 -21.090 -0.103 -21.496 -0.061 -21.688 -0.071 8.764 0.278 6.329 0.411 44.226 42.583
50.400 -20.976 -0.120 -21.074 -0.103 -21.483 -0.060 -21.681 -0.070 8.727 0.285 6.349 0.426 44.222 42.592
50.800 -20.960 -0.119 -21.058 -0.102 -21.471 -0.059 -21.674 -0.069 8.688 0.292 6.371 0.442 44.217 42.600
51.200 -20.943 -0.119 -21.042 -0.101 -21.459 -0.058 -21.667 -0.068 8.650 0.300 6.394 0.458 44.212 42.608
51.600 -20.926 -0.118 -21.026 -0.100 -21.447 -0.056 -21.660 -0.067 8.611 0.307 6.416 0.475 44.208 42.615
52.000 -20.910 -0.117 -21.009 -0.099 -21.435 -0.055 -21.653 -0.066 8.573 0.315 6.439 0.492 44.203 42.622
52.400 -20.893 -0.117 -20.993 -0.098 -21.423 -0.053 -21.646 -0.065 8.536 0.323 6.461 0.510 44.198 42.629
52.800 -20.877 -0.116 -20.977 -0.098 -21.411 -0.052 -21.639 -0.064 8.498 0.332 6.484 0.528 44.194 42.635
53.200 -20.860 -0.115 -20.961 -0.097 -21.399 -0.050 -21.632 -0.062 8.461 0.340 6.506 0.546 44.189 42.641
53.600 -20.844 -0.115 -20.946 -0.097 -21.387 -0.049 -21.625 -0.061 8.425 0.348 6.528 0.564 44.185 42.647
54.000 -20.827 -0.115 -20.930 -0.096 -21.375 -0.048 -21.618 -0.061 8.390 0.355 6.549 0.582 44.180 42.652
54.400 -20.811 -0.114 -20.914 -0.096 -21.363 -0.047 -21.610 -0.060 8.355 0.362 6.569 0.599 44.176 42.657
54.800 -20.795 -0.114 -20.899 -0.096 -21.351 -0.047 -21.603 -0.059 8.322 0.368 6.587 0.615 44.171 42.663
55.200 -20.779 -0.114 -20.883 -0.096 -21.339 -0.046 -21.596 -0.059 8.291 0.373 6.604 0.629 44.167 42.669
55.600 -20.763 -0.114 -20.868 -0.096 -21.328 -0.047 -21.588 -0.059 8.262 0.377 6.619 0.641 44.163 42.675
56.000 -20.747 -0.114 -20.852 -0.096 -21.316 -0.047 -21.580 -0.059 8.234 0.379 6.633 0.651 44.159 42.680
56.400 -20.732 -0.114 -20.837 -0.096 -21.304 -0.048 -21.573 -0.060 8.207 0.381 6.644 0.659 44.155 42.686
56.800 -20.716 -0.114 -20.822 -0.096 -21.292 -0.049 -21.565 -0.061 8.182 0.381 6.654 0.667 44.151 42.692
57.200 -20.701 -0.115 -20.807 -0.097 -21.281 -0.050 -21.558 -0.061 8.155 0.381 6.670 0.673 44.147 42.699
57.600 -20.685 -0.115 -20.792 -0.097 -21.269 -0.051 -21.550 -0.062 8.132 0.381 6.677 0.678 44.143 42.704
58.000 -20.670 -0.116 -20.778 -0.098 -21.258 -0.053 -21.542 -0.063 8.111 0.380 6.683 0.683 44.139 42.710
58.400 -20.654 -0.116 -20.763 -0.098 -21.246 -0.054 -21.535 -0.065 8.089 0.379 6.688 0.686 44.135 42.715
58.800 -20.639 -0.116 -20.748 -0.099 -21.235 -0.056 -21.527 -0.066 8.069 0.377 6.693 0.689 44.131 42.721
59.200 -20.624 -0.117 -20.734 -0.099 -21.224 -0.058 -21.520 -0.068 8.049 0.376 6.698 0.692 44.128 42.726
59.600 -20.609 -0.117 -20.719 -0.100 -21.212 -0.060 -21.512 -0.069 8.028 0.374 6.703 0.695 44.124 42.731
60.000 -20.594 -0.118 -20.705 -0.101 -21.201 -0.061 -21.505 -0.071 8.009 0.372 6.707 0.698 44.120 42.735
60.400 -20.579 -0.119 -20.691 -0.101 -21.190 -0.063 -21.497 -0.072 7.989 0.371 6.712 0.701 44.116 42.740
60.800 -20.564 -0.119 -20.676 -0.102 -21.179 -0.065 -21.490 -0.073 7.969 0.369 6.717 0.704 44.113 42.744
61.200 -20.549 -0.120 -20.662 -0.103 -21.168 -0.066 -21.482 -0.075 7.949 0.368 6.721 0.707 44.109 42.748
61.600 -20.534 -0.120 -20.648 -0.103 -21.157 -0.068 -21.475 -0.076 7.929 0.367 6.726 0.710 44.105 42.752
62.000 -20.520 -0.121 -20.633 -0.104 -21.146 -0.069 -21.467 -0.077 7.910 0.366 6.731 0.714 44.102 42.755
62.400 -20.505 -0.121 -20.619 -0.105 -21.135 -0.071 -21.459 -0.079 7.890 0.365 6.735 0.717 44.098 42.758
62.800 -20.490 -0.121 -20.605 -0.105 -21.124 -0.072 -21.452 -0.080 7.871 0.364 6.739 0.721 44.094 42.761
63.200 -20.475 -0.122 -20.590 -0.106 -21.114 -0.073 -21.444 -0.081 7.851 0.364 6.743 0.725 44.090 42.763
63.600 -20.460 -0.122 -20.576 -0.106 -21.102 -0.073 -21.436 -0.081 7.832 0.363 6.746 0.729 44.086 42.766
64.000 -20.445 -0.122 -20.562 -0.106 -21.091 -0.074 -21.428 -0.082 7.813 0.363 6.748 0.733 44.083 42.767
64.400 -20.430 -0.122 -20.547 -0.106 -21.080 -0.075 -21.419 -0.083 7.795 0.363 6.750 0.737 44.079 42.769
64.800 -20.415 -0.123 -20.533 -0.107 -21.069 -0.075 -21.411 -0.083 7.777 0.363 6.750 0.741 44.075 42.771
65.200 -20.400 -0.123 -20.518 -0.107 -21.058 -0.075 -21.402 -0.084 7.759 0.363 6.750 0.745 44.071 42.772
65.600 -20.385 -0.123 -20.504 -0.107 -21.046 -0.076 -21.393 -0.084 7.741 0.363 6.747 0.748 44.066 42.773
66.000 -20.369 -0.123 -20.489 -0.107 -21.035 -0.076 -21.384 -0.085 7.725 0.363 6.744 0.752 44.062 42.774
66.400 -20.354 -0.123 -20.474 -0.107 -21.023 -0.076 -21.375 -0.085 7.709 0.363 6.738 0.756 44.058 42.774
66.800 -20.339 -0.123 -20.459 -0.106 -21.011 -0.076 -21.366 -0.086 7.693 0.364 6.730 0.759 44.053 42.774
67.200 -20.323 -0.123 -20.444 -0.106 -20.999 -0.076 -21.356 -0.086 7.679 0.364 6.720 0.762 44.049 42.774
67.600 -20.307 -0.123 -20.429 -0.106 -20.986 -0.076 -21.346 -0.087 7.665 0.365 6.708 0.765 44.044 42.774
68.000 -20.292 -0.122 -20.413 -0.106 -20.974 -0.076 -21.336 -0.088 7.653 0.365 6.693 0.767 44.039 42.774
68.400 -20.276 -0.122 -20.398 -0.106 -20.961 -0.075 -21.325 -0.089 7.641 0.365 6.674 0.769 44.034 42.774
68.800 -20.260 -0.122 -20.382 -0.106 -20.948 -0.076 -21.314 -0.090 7.631 0.366 6.652 0.770 44.029 42.773
69.200 -20.244 -0.122 -20.366 -0.106 -20.935 -0.076 -21.303 -0.091 7.622 0.366 6.627 0.771 44.024 42.772
69.600 -20.227 -0.123 -20.350 -0.106 -20.921 -0.076 -21.292 -0.092 7.615 0.366 6.599 0.771 44.018 42.771
70.000 -20.211 -0.123 -20.334 -0.106 -20.908 -0.076 -21.280 -0.094 7.609 0.366 6.568 0.771 44.013 42.769
70.400 -20.194 -0.123 -20.318 -0.106 -20.894 -0.076 -21.267 -0.096 7.603 0.366 6.533 0.770 44.007 42.767
70.800 -20.178 -0.123 -20.301 -0.106 -20.879 -0.077 -21.255 -0.098 7.599 0.366 6.496 0.768 44.001 42.765
71.200 -20.161 -0.123 -20.285 -0.106 -20.865 -0.077 -21.242 -0.101 7.596 0.367 6.456 0.766 43.995 42.763
71.600 -20.144 -0.124 -20.268 -0.106 -20.850 -0.078 -21.229 -0.103 7.594 0.367 6.413 0.764 43.989 42.760
72.000 -20.127 -0.124 -20.251 -0.107 -20.835 -0.078 -21.215 -0.105 7.592 0.367 6.369 0.761 43.982 42.757
72.400 -20.110 -0.124 -20.234 -0.107 -20.819 -0.078 -21.201 -0.108 7.592 0.367 6.322 0.758 43.976 42.753
72.800 -20.093 -0.125 -20.217 -0.107 -20.804 -0.079 -21.187 -0.111 7.592 0.368 6.273 0.754 43.969 42.749
73.200 -20.076 -0.125 -20.200 -0.108 -20.788 -0.079 -21.172 -0.113 7.593 0.368 6.222 0.750 43.962 42.745
73.600 -20.059 -0.126 -20.183 -0.108 -20.771 -0.080 -21.157 -0.116 7.595 0.369 6.169 0.746 43.955 42.740
74.000 -20.042 -0.126 -20.165 -0.108 -20.755 -0.080 -21.142 -0.119 7.598 0.370 6.115 0.742 43.948 42.735
74.400 -20.025 -0.127 -20.148 -0.109 -20.738 -0.080 -21.126 -0.122 7.602 0.371 6.058 0.738 43.941 42.729
74.800 -20.007 -0.128 -20.131 -0.109 -20.721 -0.080 -21.110 -0.124 7.606 0.372 6.000 0.733 43.934 42.723
75.200 -19.990 -0.129 -20.113 -0.110 -20.704 -0.081 -21.094 -0.127 7.612 0.373 5.940 0.728 43.926 42.717
75.600 -19.973 -0.130 -20.096 -0.110 -20.686 -0.081 -21.078 -0.130 7.618 0.375 5.879 0.724 43.919 42.710
76.000 -19.956 -0.131 -20.078 -0.111 -20.668 -0.081 -21.061 -0.133 7.626 0.378 5.815 0.719 43.911 42.703
76.400 -19.939 -0.132 -20.061 -0.112 -20.650 -0.081 -21.044 -0.136 7.634 0.380 5.750 0.715 43.903 42.696
76.800 -19.922 -0.134 -20.043 -0.113 -20.632 -0.081 -21.026 -0.138 7.644 0.383 5.683 0.711 43.895 42.689
77.200 -19.905 -0.135 -20.026 -0.114 -20.613 -0.081 -21.009 -0.141 7.654 0.387 5.615 0.707 43.887 42.681
77.600 -19.888 -0.137 -20.009 -0.116 -20.593 -0.082 -20.991 -0.144 7.666 0.391 5.545 0.703 43.879 42.674
78.000 -19.871 -0.139 -19.992 -0.117 -20.574 -0.082 -20.973 -0.147 7.679 0.396 5.475 0.700 43.871 42.666
78.400 -19.854 -0.141 -19.974 -0.119 -20.554 -0.082 -20.954 -0.149 7.692 0.401 5.403 0.697 43.862 42.658
78.800 -19.837 -0.143 -19.957 -0.121 -20.534 -0.082 -20.936 -0.152 7.707 0.407 5.331 0.694 43.854 42.651
79.200 -19.820 -0.145 -19.940 -0.122 -20.514 -0.083 -20.917 -0.155 7.721 0.413 5.259 0.692 43.845 42.643
79.600 -19.803 -0.147 -19.923 -0.125 -20.494 -0.083 -20.898 -0.158 7.737 0.420 5.186 0.690 43.837 42.635
80.000 -19.787 -0.150 -19.905 -0.127 -20.473 -0.084 -20.879 -0.161 7.752 0.426 5.115 0.688 43.828 42.627
80.400 -19.770 -0.153 -19.888 -0.129 -20.453 -0.084 -20.860 -0.164 7.768 0.433 5.044 0.686 43.820 42.619
80.800 -19.753 -0.156 -19.871 -0.132 -20.432 -0.085 -20.840 -0.167 7.784 0.441 4.974 0.684 43.811 42.611
81.200 -19.736 -0.159 -19.853 -0.135 -20.412 -0.086 -20.821 -0.170 7.799 0.448 4.905 0.682 43.802 42.604
81.600 -19.720 -0.163 -19.836 -0.138 -20.391 -0.087 -20.801 -0.173 7.815 0.455 4.838 0.681 43.794 42.596
82.000 -19.703 -0.166 -19.819 -0.141 -20.370 -0.088 -20.782 -0.176 7.829 0.463 4.773 0.679 43.785 42.589
82.400 -19.686 -0.170 -19.801 -0.145 -20.349 -0.090 -20.762 -0.179 7.844 0.470 4.710 0.678 43.777 42.582
82.800 -19.669 -0.174 -19.784 -0.148 -20.329 -0.091 -20.742 -0.183 7.857 0.478 4.649 0.677 43.769 42.575
83.200 -19.652 -0.178 -19.766 -0.152 -20.308 -0.093 -20.722 -0.186 7.870 0.485 4.590 0.676 43.760 42.569
83.600 -19.636 -0.182 -19.749 -0.156 -20.288 -0.095 -20.703 -0.190 7.881 0.492 4.534 0.675 43.752 42.563
84.000 -19.619 -0.187 -19.732 -0.160 -20.267 -0.098 -20.683 -0.193 7.892 0.498 4.480 0.673 43.744 42.558
84.400 -19.602 -0.192 -19.714 -0.165 -20.247 -0.101 -20.663 -0.197 7.902 0.505 4.428 0.672 43.736 42.553
84.800 -19.586 -0.196 -19.697 -0.170 -20.227 -0.104 -20.643 -0.201 7.911 0.510 4.379 0.671 43.729 42.549
85.200 -19.569 -0.201 -19.680 -0.174 -20.207 -0.108 -20.624 -0.205 7.919 0.515 4.332 0.669 43.721 42.545
85.600 -19.553 -0.207 -19.663 -0.180 -20.187 -0.112 -20.604 -0.210 7.926 0.520 4.288 0.668 43.713 42.542
86.000 -19.536 -0.212 -19.646 -0.185 -20.168 -0.117 -20.585 -0.214 7.931 0.524 4.246 0.666 43.706 42.539
86.400 -19.520 -0.218 -19.629 -0.190 -20.148 -0.122 -20.565 -0.219 7.936 0.527 4.206 0.663 43.699 42.536
86.800 -19.504 -0.223 -19.612 -0.196 -20.129 -0.127 -20.546 -0.224 7.941 0.529 4.168 0.660 43.692 42.533
87.200 -19.488 -0.229 -19.595 -0.202 -20.110 -0.133 -20.527 -0.229 7.944 0.531 4.131 0.657 43.685 42.529
87.600 -19.472 -0.235 -19.579 -0.208 -20.091 -0.139 -20.508 -0.234 7.948 0.533 4.096 0.654 43.678 42.526
88.000 -19.456 -0.241 -19.562 -0.214 -20.073 -0.145 -20.489 -0.239 7.951 0.534 4.061 0.650 43.672 42.523
88.400 -19.440 -0.247 -19.546 -0.220 -20.054 -0.152 -20.470 -0.245 7.954 0.534 4.027 0.645 43.665 42.519
88.800 -19.424 -0.254 -19.530 -0.227 -20.036 -0.159 -20.451 -0.251 7.956 0.535 3.994 0.641 43.658 42.515
89.200 -19.408 -0.260 -19.514 -0.233 -20.018 -0.166 -20.432 -0.257 7.959 0.535 3.961 0.636 43.652 42.511
89.600 -19.393 -0.267 -19.498 -0.240 -20.000 -0.174 -20.414 -0.263 7.962 0.535 3.928 0.631 43.645 42.506
90.000 -19.378 -0.274 -19.482 -0.247 -19.982 -0.182 -20.395 -0.269 7.966 0.534 3.896 0.626 43.639 42.502
90.400 -19.362 -0.281 -19.466 -0.254 -19.965 -0.189 -20.377 -0.276 7.969 0.534 3.864 0.620 43.633 42.497
90.800 -19.347 -0.288 -19.451 -0.261 -19.947 -0.198 -20.359 -0.282 7.973 0.533 3.833 0.614 43.626 42.491
91.200 -19.332 -0.295 -19.435 -0.269 -19.930 -0.206 -20.341 -0.289 7.976 0.532 3.802 0.609 43.620 42.486
91.600 -19.318 -0.303 -19.420 -0.276 -19.913 -0.214 -20.323 -0.296 7.981 0.532 3.770 0.603 43.614 42.480
92.000 -19.303 -0.310 -19.405 -0.284 -19.896 -0.223 -20.306 -0.303 7.985 0.531 3.739 0.597 43.607 42.474
92.400 -19.288 -0.318 -19.390 -0.292 -19.880 -0.231 -20.288 -0.310 7.989 0.530 3.709 0.591 43.601 42.468
92.800 -19.274 -0.325 -19.375 -0.300 -19.863 -0.240 -20.271 -0.318 7.994 0.529 3.678 0.585 43.595 42.462
93.200 -19.260 -0.333 -19.361 -0.308 -19.847 -0.249 -20.254 -0.325 7.999 0.528 3.648 0.579 43.589 42.456
93.600 -19.246 -0.341 -19.346 -0.316 -19.831 -0.258 -20.237 -0.333 8.004 0.527 3.617 0.573 43.583 42.450
94.000 -19.232 -0.349 -19.332 -0.324 -19.815 -0.267 -20.220 -0.340 8.010 0.527 3.588 0.567 43.577 42.443
94.400 -19.218 -0.357 -19.318 -0.332 -19.799 -0.276 -20.203 -0.348 8.015 0.526 3.558 0.561 43.571 42.437
94.800 -19.204 -0.365 -19.303 -0.341 -19.783 -0.285 -20.187 -0.356 8.021 0.525 3.528 0.555 43.565 42.430
95.200 -19.191 -0.373 -19.290 -0.349 -19.768 -0.295 -20.170 -0.364 8.027 0.524 3.499 0.549 43.559 42.423
95.600 -19.177 -0.382 -19.276 -0.358 -19.753 -0.304 -20.154 -0.373 8.033 0.524 3.470 0.543 43.553 42.417
96.000 -19.164 -0.390 -19.262 -0.366 -19.737 -0.313 -20.138 -0.381 8.039 0.523 3.442 0.537 43.547 42.410
96.400 -19.151 -0.398 -19.249 -0.375 -19.723 -0.323 -20.122 -0.389 8.046 0.522 3.413 0.532 43.541 42.403
96.800 -19.138 -0.407 -19.236 -0.384 -19.708 -0.332 -20.106 -0.397 8.052 0.522 3.385 0.526 43.536 42.397
97.200 -19.125 -0.415 -19.222 -0.392 -19.693 -0.342 -20.090 -0.406 8.059 0.521 3.358 0.521 43.530 42.390
97.600 -19.112 -0.424 -19.209 -0.401 -19.679 -0.352 -20.075 -0.414 8.066 0.520 3.330 0.515 43.524 42.383
98.000 -19.100 -0.433 -19.197 -0.410 -19.664 -0.361 -20.060 -0.423 8.072 0.520 3.304 0.510 43.519 42.376
98.400 -19.088 -0.441 -19.184 -0.419 -19.650 -0.371 -20.044 -0.432 8.080 0.519 3.277 0.505 43.513 42.370
98.800 -19.075 -0.450 -19.171 -0.428 -19.636 -0.381 -20.029 -0.440 8.087 0.519 3.250 0.500 43.508 42.363
99.200 -19.063 -0.459 -19.159 -0.437 -19.622 -0.390 -20.015 -0.449 8.094 0.519 3.224 0.494 43.502 42.356
99.600 -19.051 -0.468 -19.147 -0.446 -19.608 -0.400 -20.000 -0.458 8.101 0.518 3.199 0.489 43.497 42.350
100.000 -19.039 -0.477 -19.134 -0.455 -19.595 -0.410 -19.985 -0.467 8.108 0.518 3.173 0.485 43.492 42.343
100.400 -19.028 -0.485 -19.122 -0.464 -19.581 -0.420 -19.971 -0.476 8.116 0.517 3.148 0.480 43.486 42.336
100.800 -19.016 -0.494 -19.111 -0.474 -19.568 -0.429 -19.957 -0.485 8.123 0.517 3.124 0.475 43.481 42.330
101.200 -19.005 -0.503 -19.099 -0.483 -19.555 -0.439 -19.942 -0.494 8.130 0.517 3.099 0.470 43.476 42.323
101.600 -18.994 -0.512 -19.087 -0.492 -19.542 -0.449 -19.928 -0.503 8.138 0.517 3.075 0.466 43.471 42.317
102.000 -18.982 -0.521 -19.076 -0.501 -19.529 -0.459 -19.915 -0.512 8.146 0.516 3.051 0.461 43.466 42.310
102.400 -18.971 -0.530 -19.065 -0.510 -19.517 -0.468 -19.901 -0.521 8.153 0.516 3.028 0.457 43.460 42.304
102.800 -18.961 -0.539 -19.054 -0.520 -19.504 -0.478 -19.887 -0.530 8.161 0.516 3.005 0.452 43.456 42.297
103.200 -18.950 -0.548 -19.042 -0.529 -19.492 -0.488 -19.874 -0.539 8.169 0.516 2.983 0.448 43.451 42.291
103.600 -18.939 -0.557 -19.032 -0.538 -19.479 -0.498 -19.861 -0.548 8.176 0.516 2.960 0.444 43.446 42.285
104.000 -18.929 -0.566 -19.021 -0.547 -19.467 -0.508 -19.848 -0.557 8.184 0.515 2.938 0.440 43.441 42.278
104.400 -18.918 -0.575 -19.010 -0.557 -19.455 -0.517 -19.835 -0.566 8.192 0.515 2.917 0.435 43.436 42.272
104.800 -18.908 -0.584 -19.000 -0.566 -19.444 -0.527 -19.822 -0.575 8.200 0.515 2.895 0.431 43.431 42.266
105.200 -18.898 -0.593 -18.989 -0.575 -19.432 -0.537 -19.809 -0.584 8.207 0.515 2.874 0.427 43.427 42.260
105.600 -18.888 -0.603 -18.979 -0.584 -19.420 -0.547 -19.797 -0.593 8.215 0.515 2.853 0.424 43.422 42.254
106.000 -18.878 -0.612 -18.969 -0.594 -19.409 -0.556 -19.784 -0.602 8.223 0.515 2.833 0.420 43.417 42.248
106.400 -18.869 -0.621 -18.959 -0.603 -19.398 -0.566 -19.772 -0.611 8.231 0.515 2.813 0.416 43.413 42.242
106.800 -18.859 -0.630 -18.949 -0.612 -19.387 -0.576 -19.760 -0.620 8.239 0.515 2.793 0.412 43.408 42.236
107.200 -18.850 -0.639 -18.940 -0.621 -19.376 -0.585 -19.748 -0.629 8.247 0.515 2.774 0.409 43.404 42.230
107.600 -18.841 -0.648 -18.930 -0.630 -19.365 -0.595 -19.736 -0.638 8.254 0.514 2.755 0.405 43.400 42.224
108.000 -18.831 -0.656 -18.921 -0.639 -19.354 -0.604 -19.724 -0.647 8.262 0.514 2.736 0.402 43.395 42.218
108.400 -18.822 -0.665 -18.911 -0.649 -19.343 -0.614 -19.713 -0.656 8.270 0.514 2.717 0.398 43.391 42.212
108.800 -18.813 -0.674 -18.902 -0.658 -19.333 -0.623 -19.701 -0.665 8.278 0.514 2.699 0.395 43.387 42.207
109.200 -18.805 -0.683 -18.893 -0.667 -19.323 -0.633 -19.690 -0.674 8.286 0.514 2.681 0.391 43.383 42.201
109.600 -18.796 -0.692 -18.884 -0.676 -19.312 -0.642 -19.679 -0.683 8.294 0.514 2.663 0.388 43.379 42.196
110.000 -18.787 -0.701 -18.875 -0.685 -19.302 -0.652 -19.668 -0.692 8.302 0.514 2.646 0.385 43.375 42.190
110.400 -18.779 -0.710 -18.867 -0.694 -19.293 -0.661 -19.657 -0.701 8.309 0.514 2.629 0.382 43.371 42.184
110.800 -18.771 -0.719 -18.858 -0.703 -19.283 -0.670 -19.646 -0.710 8.317 0.514 2.612 0.379 43.367 42.179
111.200 -18.762 -0.727 -18.850 -0.712 -19.273 -0.679 -19.635 -0.718 8.325 0.514 2.595 0.376 43.363 42.174
111.600 -18.754 -0.736 -18.841 -0.720 -19.263 -0.689 -19.625 -0.727 8.333 0.514 2.579 0.373 43.359 42.168
112.000 -18.746 -0.745 -18.833 -0.729 -19.254 -0.698 -19.614 -0.736 8.341 0.514 2.563 0.370 43.355 42.163
112.400 -18.738 -0.753 -18.825 -0.738 -19.245 -0.707 -19.604 -0.745 8.349 0.514 2.547 0.367 43.351 42.158
112.800 -18.731 -0.762 -18.817 -0.747 -19.236 -0.716 -19.594 -0.753 8.356 0.514 2.531 0.364 43.348 42.152
113.200 -18.723 -0.770 -18.809 -0.755 -19.227 -0.725 -19.584 -0.762 8.364 0.514 2.516 0.361 43.344 42.147
113.600 -18.715 -0.779 -18.801 -0.764 -19.218 -0.734 -19.574 -0.770 8.372 0.514 2.501 0.358 43.340 42.142
114.000 -18.708 -0.787 -18.794 -0.773 -19.209 -0.743 -19.564 -0.779 8.380 0.514 2.486 0.356 43.337 42.137
114.400 -18.701 -0.796 -18.786 -0.781 -19.200 -0.752 -19.554 -0.787 8.388 0.514 2.471 0.353 43.333 42.132
114.800 -18.694 -0.804 -18.779 -0.790 -19.191 -0.760 -19.545 -0.796 8.395 0.514 2.457 0.350 43.330 42.127
115.200 -18.686 -0.813 -18.772 -0.798 -19.183 -0.769 -19.535 -0.804 8.403 0.514 2.443 0.348 43.326 42.122
115.600 -18.679 -0.821 -18.764 -0.807 -19.175 -0.778 -19.526 -0.813 8.411 0.514 2.429 0.345 43.323 42.117
116.000 -18.673 -0.829 -18.757 -0.815 -19.166 -0.787 -19.517 -0.821 8.418 0.514 2.415 0.342 43.320 42.113
116.400 -18.666 -0.837 -18.750 -0.823 -19.158 -0.795 -19.508 -0.829 8.426 0.515 2.402 0.340 43.316 42.108
116.800 -18.659 -0.846 -18.743 -0.832 -19.150 -0.804 -19.499 -0.837 8.434 0.515 2.388 0.338 43.313 42.103
117.200 -18.653 -0.854 -18.737 -0.840 -19.142 -0.812 -19.490 -0.845 8.441 0.515 2.375 0.335 43.310 42.099
117.600 -18.646 -0.862 -18.730 -0.848 -19.135 -0.821 -19.481 -0.854 8.449 0.515 2.362 0.333 43.307 42.094
118.000 -18.640 -0.870 -18.723 -0.856 -19.127 -0.829 -19.473 -0.862 8.457 0.515 2.350 0.330 43.304 42.089
118.400 -18.634 -0.878 -18.717 -0.864 -19.119 -0.837 -19.464 -0.870 8.464 0.515 2.337 0.328 43.301 42.085
118.800 -18.627 -0.885 -18.711 -0.872 -19.112 -0.845 -19.456 -0.877 8.472 0.515 2.325 0.326 43.298 42.080
119.200 -18.621 -0.893 -18.704 -0.880 -19.105 -0.853 -19.447 -0.885 8.479 0.515 2.313 0.324 43.295 42.076
119.600 -18.615 -0.901 -18.698 -0.888 -19.098 -0.862 -19.439 -0.893 8.487 0.515 2.301 0.322 43.292 42.072
120.000 -18.610 -0.909 -18.692 -0.896 -19.090 -0.870 -19.431 -0.901 8.494 0.515 2.290 0.319 43.289 42.067
120.400 -18.604 -0.916 -18.686 -0.903 -19.083 -0.877 -19.423 -0.908 8.502 0.515 2.278 0.317 43.286 42.063
120.800 -18.598 -0.924 -18.680 -0.911 -19.076 -0.885 -19.415 -0.916 8.509 0.515 2.267 0.315 43.283 42.059
121.200 -18.593 -0.931 -18.675 -0.919 -19.070 -0.893 -19.408 -0.924 8.517 0.515 2.256 0.313 43.280 42.055
121.600 -18.587 -0.939 -18.669 -0.926 -19.063 -0.901 -19.400 -0.931 8.524 0.515 2.245 0.311 43.278 42.050
122.000 -18.582 -0.946 -18.663 -0.934 -19.056 -0.909 -19.393 -0.938 8.531 0.515 2.234 0.309 43.275 42.046
122.400 -18.577 -0.953 -18.658 -0.941 -19.050 -0.916 -19.385 -0.946 8.539 0.515 2.223 0.307 43.272 42.042
122.800 -18.571 -0.961 -18.653 -0.948 -19.044 -0.924 -19.378 -0.953 8.546 0.515 2.213 0.305 43.270 42.038
123.200 -18.566 -0.968 -18.647 -0.956 -19.037 -0.931 -19.371 -0.960 8.553 0.515 2.203 0.303 43.267 42.034
123.600 -18.561 -0.975 -18.642 -0.963 -19.031 -0.938 -19.364 -0.967 8.560 0.515 2.193 0.301 43.265 42.030
124.000 -18.557 -0.982 -18.637 -0.970 -19.025 -0.946 -19.357 -0.974 8.568 0.515 2.183 0.300 43.262 42.027
124.400 -18.552 -0.989 -18.632 -0.977 -19.019 -0.953 -19.350 -0.981 8.575 0.515 2.173 0.298 43.260 42.023
124.800 -18.547 -0.996 -18.627 -0.984 -19.013 -0.960 -19.343 -0.988 8.582 0.515 2.163 0.296 43.257 42.019
125.200 -18.542 -1.003 -18.622 -0.991 -19.007 -0.967 -19.336 -0.995 8.589 0.515 2.154 0.294 43.255 42.015
125.600 -18.538 -1.009 -18.618 -0.998 -19.002 -0.974 -19.330 -1.002 8.596 0.515 2.145 0.293 43.253 42.012
126.000 -18.533 -1.016 -18.613 -1.005 -18.996 -0.981 -19.323 -1.009 8.604 0.515 2.136 0.291 43.251 42.008
126.400 -18.529 -1.023 -18.609 -1.011 -18.990 -0.988 -19.317 -1.015 8.611 0.515 2.127 0.289 43.248 42.004
126.800 -18.525 -1.029 -18.604 -1.018 -18.985 -0.995 -19.311 -1.022 8.618 0.515 2.118 0.288 43.246 42.001
127.200 -18.521 -1.036 -18.600 -1.024 -18.980 -1.001 -19.304 -1.028 8.625 0.515 2.109 0.286 43.244 41.997
127.600 -18.516 -1.042 -18.595 -1.031 -18.975 -1.008 -19.298 -1.035 8.632 0.515 2.101 0.284 43.242 41.994
128.000 -18.512 -1.048 -18.591 -1.037 -18.969 -1.014 -19.292 -1.041 8.639 0.515 2.092 0.283 43.240 41.990
128.400 -18.508 -1.055 -18.587 -1.043 -18.964 -1.021 -19.286 -1.047 8.646 0.515 2.084 0.281 43.238 41.987
128.800 -18.505 -1.061 -18.583 -1.050 -18.959 -1.027 -19.281 -1.053 8.652 0.515 2.076 0.280 43.236 41.984
129.200 -18.501 -1.067 -18.579 -1.056 -18.954 -1.033 -19.275 -1.059 8.659 0.515 2.068 0.278 43.234 41.980
129.600 -18.497 -1.073 -18.575 -1.062 -18.950 -1.039 -19.269 -1.065 8.666 0.515 2.060 0.277 43.232 41.977
130.000 -18.493 -1.079 -18.571 -1.068 -18.945 -1.045 -19.264 -1.071 8.673 0.515 2.052 0.275 43.230 41.974
130.400 -18.490 -1.085 -18.568 -1.074 -18.940 -1.051 -19.258 -1.077 8.680 0.515 2.045 0.274 43.228 41.971
130.800 -18.486 -1.090 -18.564 -1.079 -18.936 -1.057 -19.253 -1.083 8.687 0.515 2.037 0.272 43.226 41.967
131.200 -18.483 -1.096 -18.560 -1.085 -18.931 -1.063 -19.248 -1.089 8.693 0.515 2.030 0.271 43.224 41.964
131.600 -18.480 -1.102 -18.557 -1.091 -18.927 -1.069 -19.243 -1.094 8.700 0.515 2.022 0.270 43.223 41.961
132.000 -18.476 -1.107 -18.554 -1.096 -18.923 -1.075 -19.237 -1.100 8.707 0.515 2.015 0.268 43.221 41.958
132.400 -18.473 -1.113 -18.550 -1.102 -18.919 -1.080 -19.232 -1.105 8.713 0.515 2.008 0.267 43.219 41.955
132.800 -18.470 -1.118 -18.547 -1.107 -18.914 -1.086 -19.228 -1.110 8.720 0.515 2.002 0.266 43.218 41.952
133.200 -18.467 -1.123 -18.544 -1.113 -18.910 -1.091 -19.223 -1.116 8.726 0.515 1.995 0.264 43.216 41.950
133.600 -18.464 -1.128 -18.541 -1.118 -18.906 -1.096 -19.218 -1.121 8.733 0.515 1.988 0.263 43.214 41.947
134.000 -18.461 -1.133 -18.538 -1.123 -18.903 -1.102 -19.213 -1.126 8.739 0.515 1.982 0.262 43.213 41.944
134.400 -18.459 -1.138 -18.535 -1.128 -18.899 -1.107 -19.209 -1.131 8.746 0.515 1.975 0.261 43.211 41.941
134.800 -18.456 -1.143 -18.532 -1.133 -18.895 -1.112 -19.204 -1.136 8.752 0.515 1.969 0.259 43.210 41.938
135.200 -18.453 -1.148 -18.529 -1.138 -18.891 -1.117 -19.200 -1.141 8.759 0.515 1.963 0.258 43.208 41.936
135.600 -18.451 -1.153 -18.526 -1.143 -18.888 -1.121 -19.195 -1.145 8.765 0.515 1.957 0.257 43.207 41.933
136.000 -18.448 -1.158 -18.524 -1.147 -18.884 -1.126 -19.191 -1.150 8.771 0.515 1.951 0.256 43.205 41.930
136.400 -18.446 -1.162 -18.521 -1.152 -18.881 -1.131 -19.187 -1.155 8.778 0.515 1.945 0.255 43.204 41.928
136.800 -18.443 -1.167 -18.518 -1.156 -18.878 -1.135 -19.183 -1.159 8.784 0.515 1.939 0.254 43.203 41.925
137.200 -18.441 -1.171 -18.516 -1.161 -18.874 -1.140 -19.179 -1.164 8.790 0.515 1.933 0.252 43.201 41.923
137.600 -18.439 -1.175 -18.513 -1.165 -18.871 -1.144 -19.175 -1.168 8.796 0.514 1.928 0.251 43.200 41.920
138.000 -18.436 -1.179 -18.511 -1.169 -18.868 -1.149 -19.171 -1.172 8.803 0.514 1.922 0.250 43.199 41.918
138.400 -18.434 -1.184 -18.509 -1.173 -18.865 -1.153 -19.167 -1.176 8.809 0.514 1.917 0.249 43.198 41.915
138.800 -18.432 -1.188 -18.507 -1.178 -18.862 -1.157 -19.163 -1.180 8.815 0.514 1.911 0.248 43.196 41.913
139.200 -18.430 -1.192 -18.504 -1.181 -18.859 -1.161 -19.160 -1.184 8.821 0.514 1.906 0.247 43.195 41.910
139.600 -18.428 -1.195 -18.502 -1.185 -18.856 -1.165 -19.156 -1.188 8.827 0.514 1.901 0.246 43.194 41.908
140.000 -18.426 -1.199 -18.500 -1.189 -18.853 -1.169 -19.153 -1.192 8.833 0.514 1.896 0.245 43.193 41.906
140.400 -18.424 -1.203 -18.498 -1.193 -18.851 -1.172 -19.149 -1.195 8.839 0.514 1.891 0.244 43.192 41.904
140.800 -18.423 -1.206 -18.496 -1.196 -18.848 -1.176 -19.146 -1.199 8.845 0.514 1.886 0.243 43.191 41.901
141.200 -18.421 -1.210 -18.494 -1.200 -18.845 -1.180 -19.142 -1.202 8.851 0.514 1.881 0.242 43.190 41.899
141.600 -18.419 -1.213 -18.493 -1.203 -18.843 -1.183 -19.139 -1.206 8.856 0.514 1.877 0.241 43.189 41.897
142.000 -18.417 -1.217 -18.491 -1.207 -18.840 -1.186 -19.136 -1.209 8.862 0.514 1.872 0.240 43.188 41.895
142.400 -18.416 -1.220 -18.489 -1.210 -18.838 -1.190 -19.133 -1.212 8.868 0.514 1.868 0.239 43.187 41.893
142.800 -18.414 -1.223 -18.488 -1.213 -18.836 -1.193 -19.130 -1.215 8.874 0.514 1.863 0.238 43.186 41.891
143.200 -18.413 -1.226 -18.486 -1.216 -18.833 -1.196 -19.127 -1.218 8.879 0.513 1.859 0.238 43.185 41.889
143.600 -18.412 -1.229 -18.484 -1.219 -18.831 -1.199 -19.124 -1.221 8.885 0.513 1.855 0.237 43.184 41.887
144.000 -18.410 -1.232 -18.483 -1.222 -18.829 -1.202 -19.121 -1.224 8.891 0.513 1.850 0.236 43.183 41.885
144.400 -18.409 -1.235 -18.482 -1.225 -18.827 -1.204 -19.118 -1.227 8.896 0.513 1.846 0.235 43.182 41.883
144.800 -18.408 -1.237 -18.480 -1.227 -18.825 -1.207 -19.116 -1.229 8.902 0.513 1.842 0.234 43.181 41.881
145.200 -18.406 -1.240 -18.479 -1.230 -18.823 -1.210 -19.113 -1.232 8.907 0.513 1.838 0.233 43.181 41.879
145.600 -18.405 -1.242 -18.478 -1.232 -18.821 -1.212 -19.110 -1.234 8.913 0.513 1.834 0.232 43.180 41.877
146.000 -18.404 -1.245 -18.476 -1.235 -18.819 -1.214 -19.108 -1.237 8.918 0.513 1.830 0.232 43.179 41.875
146.400 -18.403 -1.247 -18.475 -1.237 -18.817 -1.217 -19.105 -1.239 8.924 0.513 1.827 0.231 43.178 41.874
146.800 -18.402 -1.249 -18.474 -1.239 -18.815 -1.219 -19.103 -1.241 8.929 0.513 1.823 0.230 43.178 41.872
147.200 -18.401 -1.251 -18.473 -1.241 -18.814 -1.221 -19.101 -1.243 8.935 0.513 1.819 0.229 43.177 41.870
147.600 -18.400 -1.253 -18.472 -1.243 -18.812 -1.223 -19.098 -1.245 8.940 0.512 1.816 0.229 43.176 41.868
148.000 -18.399 -1.255 -18.471 -1.245 -18.810 -1.225 -19.096 -1.247 8.945 0.512 1.812 0.228 43.176 41.867
148.400 -18.399 -1.257 -18.470 -1.247 -18.809 -1.226 -19.094 -1.249 8.950 0.512 1.809 0.227 43.175 41.865
148.800 -18.398 -1.258 -18.469 -1.249 -18.807 -1.228 -19.092 -1.250 8.956 0.512 1.806 0.226 43.174 41.864
149.200 -18.397 -1.260 -18.468 -1.250 -18.806 -1.230 -19.090 -1.252 8.961 0.512 1.802 0.226 43.174 41.862
149.600 -18.396 -1.262 -18.468 -1.252 -18.805 -1.231 -19.088 -1.253 8.966 0.512 1.799 0.225 43.173 41.860
150.000 -18.396 -1.263 -18.467 -1.253 -18.803 -1.233 -19.086 -1.255 8.971 0.512 1.796 0.224 43.173 41.859
150.400 -18.395 -1.264 -18.466 -1.254 -18.802 -1.234 -19.084 -1.256 8.976 0.512 1.793 0.224 43.172 41.857
150.800 -18.394 -1.266 -18.465 -1.256 -18.801 -1.235 -19.082 -1.257 8.981 0.511 1.790 0.223 43.172 41.856
151.200 -18.394 -1.267 -18.465 -1.257 -18.799 -1.236 -19.080 -1.258 8.986 0.511 1.787 0.222 43.171 41.854
151.600 -18.393 -1.268 -18.464 -1.258 -18.798 -1.237 -19.078 -1.259 8.991 0.511 1.784 0.222 43.171 41.853
152.000 -18.393 -1.269 -18.463 -1.259 -18.797 -1.238 -19.076 -1.260 8.995 0.511 1.781 0.221 43.170 41.852
152.400 -18.392 -1.269 -18.463 -1.259 -18.796 -1.239 -19.075 -1.261 9.000 0.511 1.778 0.220 43.170 41.850
152.800 -18.392 -1.270 -18.462 -1.260 -18.795 -1.239 -19.073 -1.261 9.005 0.511 1.776 0.220 43.169 41.849
153.200 -18.392 -1.271 -18.462 -1.261 -18.794 -1.240 -19.071 -1.262 9.010 0.511 1.773 0.219 43.169 41.847
153.600 -18.391 -1.271 -18.462 -1.261 -18.793 -1.240 -19.070 -1.263 9.015 0.510 1.770 0.218 43.169 41.846
154.000 -18.391 -1.272 -18.461 -1.262 -18.792 -1.241 -19.068 -1.263 9.019 0.510 1.768 0.218 43.168 41.845
154.400 -18.391 -1.272 -18.461 -1.262 -18.791 -1.241 -19.067 -1.263 9.024 0.510 1.765 0.217 43.168 41.843
154.800 -18.391 -1.272 -18.461 -1.262 -18.790 -1.241 -19.065 -1.263 9.028 0.510 1.763 0.217 43.168 41.842
155.200 -18.390 -1.273 -18.460 -1.262 -18.789 -1.241 -19.064 -1.263 9.033 0.510 1.760 0.216 43.167 41.841
155.600 -18.390 -1.273 -18.460 -1.262 -18.789 -1.241 -19.063 -1.263 9.038 0.510 1.758 0.215 43.167 41.840
156.000 -18.390 -1.273 -18.460 -1.262 -18.788 -1.241 -19.061 -1.263 9.042 0.510 1.755 0.215 43.167 41.839
156.400 -18.390 -1.272 -18.460 -1.262 -18.787 -1.241 -19.060 -1.263 9.047 0.509 1.753 0.214 43.166 41.837
156.800 -18.390 -1.272 -18.459 -1.262 -18.787 -1.240 -19.059 -1.263 9.051 0.509 1.751 0.214 43.166 41.836
157.200 -18.390 -1.272 -18.459 -1.262 -18.786 -1.240 -19.058 -1.262 9.055 0.509 1.749 0.213 43.166 41.835
157.600 -18.390 -1.271 -18.459 -1.261 -18.785 -1.239 -19.057 -1.262 9.060 0.509 1.746 0.213 43.166 41.834
158.000 -18.390 -1.271 -18.459 -1.260 -18.785 -1.239 -19.055 -1.261 9.064 0.509 1.744 0.212 43.165 41.833
158.400 -18.390 -1.270 -18.459 -1.260 -18.784 -1.238 -19.054 -1.261 9.068 0.509 1.742 0.212 43.165 41.832
158.800 -18.390 -1.270 -18.459 -1.259 -18.784 -1.237 -19.053 -1.260 9.072 0.508 1.740 0.211 43.165 41.831
159.200 -18.390 -1.269 -18.459 -1.258 -18.783 -1.236 -19.052 -1.259 9.077 0.508 1.738 0.211 43.165 41.830
159.600 -18.390 -1.268 -18.459 -1.257 -18.783 -1.235 -19.051 -1.258 9.081 0.508 1.736 0.210 43.165 41.829
160.000 -18.390 -1.267 -18.459 -1.256 -18.782 -1.234 -19.050 -1.257 9.085 0.508 1.734 0.210 43.164 41.828
160.400 -18.390 -1.266 -18.459 -1.255 -18.782 -1.233 -19.050 -1.256 9.089 0.508 1.733 0.209 43.164 41.827
160.800 -18.390 -1.265 -18.459 -1.254 -18.782 -1.231 -19.049 -1.254 9.093 0.508 1.731 0.209 43.164 41.826
161.200 -18.390 -1.263 -18.459 -1.252 -18.781 -1.230 -19.048 -1.253 9.097 0.507 1.729 0.208 43.164 41.825
161.600 -18.391 -1.262 -18.459 -1.251 -18.781 -1.228 -19.047 -1.252 9.101 0.507 1.727 0.208 43.164 41.824
162.000 -18.391 -1.260 -18.459 -1.249 -18.781 -1.226 -19.046 -1.250 9.105 0.507 1.726 0.207 43.164 41.823
162.400 -18.391 -1.259 -18.460 -1.248 -18.780 -1.225 -19.045 -1.248 9.109 0.507 1.724 0.207 43.164 41.822
162.800 -18.391 -1.257 -18.460 -1.246 -18.780 -1.223 -19.045 -1.246 9.112 0.507 1.722 0.206 43.164 41.821
163.200 -18.392 -1.255 -18.460 -1.244 -18.780 -1.221 -19.044 -1.245 9.116 0.506 1.721 0.206 43.163 41.820
163.600 -18.392 -1.253 -18.460 -1.242 -18.780 -1.219 -19.043 -1.243 9.120 0.506 1.719 0.206 43.163 41.819
164.000 -18.392 -1.251 -18.460 -1.240 -18.780 -1.217 -19.043 -1.241 9.124 0.506 1.717 0.205 43.163 41.818
164.400 -18.392 -1.249 -18.461 -1.238 -18.779 -1.214 -19.042 -1.238 9.127 0.506 1.716 0.205 43.163 41.818
164.800 -18.393 -1.247 -18.461 -1.236 -18.779 -1.212 -19.041 -1.236 9.131 0.506 1.715 0.204 43.163 41.817
165.200 -18.393 -1.245 -18.461 -1.234 -18.779 -1.209 -19.041 -1.234 9.134 0.506 1.713 0.204 43.163 41.816
165.600 -18.393 -1.243 -18.461 -1.231 -18.779 -1.207 -19.040 -1.231 9.138 0.505 1.712 0.204 43.163 41.815
166.000 -18.394 -1.240 -18.462 -1.229 -18.779 -1.204 -19.040 -1.229 9.142 0.505 1.710 0.203 43.163 41.814
166.400 -18.394 -1.238 -18.462 -1.226 -18.779 -1.201 -19.039 -1.226 9.145 0.505 1.709 0.203 43.163 41.814
166.800 -18.394 -1.235 -18.462 -1.223 -18.779 -1.198 -19.039 -1.223 9.148 0.505 1.708 0.202 43.163 41.813
167.200 -18.395 -1.232 -18.463 -1.220 -18.779 -1.195 -19.038 -1.220 9.152 0.505 1.706 0.202 43.163 41.812
167.600 -18.395 -1.229 -18.463 -1.218 -18.779 -1.192 -19.038 -1.217 9.155 0.504 1.705 0.202 43.163 41.811
168.000 -18.395 -1.226 -18.463 -1.215 -18.779 -1.189 -19.037 -1.214 9.158 0.504 1.704 0.201 43.163 41.811
168.400 -18.396 -1.223 -18.464 -1.211 -18.779 -1.186 -19.037 -1.211 9.162 0.504 1.703 0.201 43.163 41.810
168.800 -18.396 -1.220 -18.464 -1.208 -18.779 -1.182 -19.037 -1.208 9.165 0.504 1.701 0.200 43.163 41.809
169.200 -18.397 -1.217 -18.464 -1.205 -18.779 -1.179 -19.036 -1.205 9.168 0.504 1.700 0.200 43.163 41.809
169.600 -18.397 -1.214 -18.465 -1.202 -18.779 -1.175 -19.036 -1.201 9.171 0.503 1.699 0.200 43.163 41.808
170.000 -18.397 -1.210 -18.465 -1.198 -18.779 -1.172 -19.035 -1.198 9.174 0.503 1.698 0.199 43.163 41.807
170.400 -18.398 -1.207 -18.465 -1.194 -18.779 -1.168 -19.035 -1.194 9.177 0.503 1.697 0.199 43.163 41.806
170.800 -18.398 -1.203 -18.466 -1.191 -18.779 -1.164 -19.035 -1.190 9.180 0.503 1.696 0.199 43.163 41.806
171.200 -18.399 -1.200 -18.466 -1.187 -18.779 -1.160 -19.034 -1.187 9.183 0.502 1.695 0.198 43.163 41.805
171.600 -18.399 -1.196 -18.466 -1.183 -18.779 -1.156 -19.034 -1.183 9.186 0.502 1.694 0.198 43.163 41.805
172.000 -18.399 -1.192 -18.467 -1.179 -18.779 -1.152 -19.034 -1.179 9.189 0.502 1.693 0.198 43.163 41.804
172.400 -18.400 -1.188 -18.467 -1.175 -18.779 -1.147 -19.033 -1.175 9.192 0.502 1.692 0.197 43.163 41.803
172.800 -18.400 -1.184 -18.467 -1.171 -18.779 -1.143 -19.033 -1.170 9.194 0.502 1.691 0.197 43.163 41.803
173.200 -18.401 -1.180 -18.468 -1.167 -18.779 -1.139 -19.033 -1.166 9.197 0.501 1.690 0.197 43.163 41.802
173.600 -18.401 -1.176 -18.468 -1.162 -18.780 -1.134 -19.032 -1.162 9.200 0.501 1.689 0.196 43.163 41.801
174.000 -18.401 -1.171 -18.469 -1.158 -18.780 -1.129 -19.032 -1.157 9.202 0.501 1.688 0.196 43.163 41.801
174.400 -18.402 -1.167 -18.469 -1.154 -18.780 -1.125 -19.032 -1.153 9.205 0.501 1.687 0.196 43.163 41.800
174.800 -18.402 -1.163 -18.469 -1.149 -18.780 -1.120 -19.032 -1.148 9.208 0.501 1.686 0.196 43.163 41.800
175.200 -18.402 -1.158 -18.470 -1.144 -18.780 -1.115 -19.031 -1.143 9.210 0.500 1.685 0.195 43.163 41.799
175.600 -18.403 -1.153 -18.470 -1.140 -18.780 -1.110 -19.031 -1.139 9.213 0.500 1.684 0.195 43.163 41.798
176.000 -18.403 -1.149 -18.470 -1.135 -18.780 -1.104 -19.031 -1.134 9.215 0.500 1.684 0.195 43.163 41.798
176.400 -18.403 -1.144 -18.470 -1.130 -18.780 -1.099 -19.030 -1.129 9.217 0.500 1.683 0.194 43.163 41.797
176.800 -18.404 -1.139 -18.471 -1.125 -18.780 -1.094 -19.030 -1.123 9.220 0.499 1.682 0.194 43.163 41.797
177.200 -18.404 -1.134 -18.471 -1.120 -18.780 -1.088 -19.030 -1.118 9.222 0.499 1.681 0.194 43.163 41.796
177.600 -18.404 -1.129 -18.471 -1.114 -18.780 -1.083 -19.030 -1.113 9.224 0.499 1.680 0.193 43.163 41.795
178.000 -18.405 -1.124 -18.472 -1.109 -18.780 -1.077 -19.029 -1.108 9.227 0.499 1.680 0.193 43.163 41.795
178.400 -18.405 -1.118 -18.472 -1.104 -18.781 -1.071 -19.029 -1.102 9.229 0.499 1.679 0.193 43.163 41.794
178.800 -18.405 -1.113 -18.472 -1.098 -18.781 -1.066 -19.029 -1.097 9.231 0.498 1.678 0.193 43.163 41.794
179.200 -18.405 -1.108 -18.472 -1.093 -18.781 -1.060 -19.029 -1.091 9.233 0.498 1.677 0.192 43.163 41.793
179.600 -18.406 -1.102 -18.472 -1.087 -18.781 -1.054 -19.028 -1.085 9.235 0.498 1.676 0.192 43.163 41.793
180.000 -18.406 -1.097 -18.473 -1.081 -18.781 -1.048 -19.028 -1.079 9.237 0.498 1.676 0.192 43.163 41.792
180.400 -18.406 -1.091 -18.473 -1.075 -18.781 -1.041 -19.028 -1.074 9.239 0.497 1.675 0.192 43.163 41.791
180.800 -18.406 -1.085 -18.473 -1.069 -18.781 -1.035 -19.027 -1.068 9.241 0.497 1.674 0.191 43.163 41.791
181.200 -18.406 -1.079 -18.473 -1.063 -18.781 -1.029 -19.027 -1.062 9.243 0.497 1.673 0.191 43.163 41.790
181.600 -18.406 -1.073 -18.473 -1.057 -18.781 -1.022 -19.027 -1.055 9.245 0.497 1.673 0.191 43.163 41.790
182.000 -18.406 -1.067 -18.473 -1.051 -18.780 -1.016 -19.026 -1.049 9.246 0.497 1.672 0.191 43.163 41.789
182.400 -18.407 -1.061 -18.473 -1.045 -18.780 -1.009 -19.026 -1.043 9.248 0.496 1.671 0.190 43.163 41.789
182.800 -18.407 -1.055 -18.473 -1.039 -18.780 -1.002 -19.025 -1.036 9.250 0.496 1.670 0.190 43.163 41.788
183.200 -18.407 -1.049 -18.473 -1.032 -18.780 -0.995 -19.025 -1.030 9.252 0.496 1.670 0.190 43.163 41.787
183.600 -18.407 -1.043 -18.473 -1.026 -18.780 -0.988 -19.025 -1.023 9.253 0.496 1.669 0.190 43.163 41.787
184.000 -18.407 -1.036 -18.473 -1.019 -18.780 -0.981 -19.024 -1.017 9.255 0.496 1.668 0.189 43.163 41.786
184.400 -18.407 -1.030 -18.473 -1.012 -18.780 -0.974 -19.024 -1.010 9.256 0.495 1.667 0.189 43.163 41.786
184.800 -18.406 -1.023 -18.473 -1.006 -18.780 -0.967 -19.023 -1.003 9.258 0.495 1.667 0.189 43.163 41.785
185.200 -18.406 -1.017 -18.473 -0.999 -18.779 -0.960 -19.023 -0.996 9.259 0.495 1.666 0.189 43.162 41.784
185.600 -18.406 -1.010 -18.473 -0.992 -18.779 -0.953 -19.022 -0.989 9.261 0.495 1.665 0.188 43.162 41.784
186.000 -18.406 -1.003 -18.473 -0.985 -18.779 -0.945 -19.022 -0.982 9.262 0.495 1.664 0.188 43.162 41.783
186.400 -18.406 -0.997 -18.473 -0.978 -18.779 -0.938 -19.021 -0.975 9.264 0.494 1.664 0.188 43.162 41.783
186.800 -18.406 -0.990 -18.472 -0.971 -18.778 -0.930 -19.021 -0.968 9.265 0.494 1.663 0.188 43.162 41.782
187.200 -18.405 -0.983 -18.472 -0.964 -18.778 -0.922 -19.020 -0.961 9.266 0.494 1.662 0.188 43.162 41.781
187.600 -18.405 -0.976 -18.472 -0.957 -18.778 -0.914 -19.020 -0.953 9.267 0.494 1.661 0.187 43.162 41.781
188.000 -18.405 -0.969 -18.472 -0.949 -18.777 -0.906 -19.019 -0.946 9.269 0.494 1.661 0.187 43.161 41.780
188.400 -18.404 -0.962 -18.471 -0.942 -18.777 -0.899 -19.018 -0.939 9.270 0.494 1.660 0.187 43.161 41.779
188.800 -18.404 -0.954 -18.471 -0.935 -18.776 -0.890 -19.018 -0.931 9.271 0.493 1.659 0.187 43.161 41.779
189.200 -18.403 -0.947 -18.470 -0.927 -18.776 -0.882 -19.017 -0.923 9.272 0.493 1.658 0.186 43.161 41.778
189.600 -18.403 -0.940 -18.470 -0.919 -18.775 -0.874 -19.016 -0.916 9.273 0.493 1.657 0.186 43.160 41.777
190.000 -18.402 -0.932 -18.469 -0.912 -18.775 -0.866 -19.015 -0.908 9.274 0.493 1.656 0.186 43.160 41.777
190.400 -18.402 -0.925 -18.469 -0.904 -18.774 -0.857 -19.015 -0.900 9.275 0.493 1.656 0.186 43.160 41.776
190.800 -18.401 -0.917 -18.468 -0.896 -18.774 -0.849 -19.014 -0.892 9.276 0.493 1.655 0.186 43.160 41.775
191.200 -18.401 -0.910 -18.468 -0.888 -18.773 -0.840 -19.013 -0.884 9.277 0.493 1.654 0.185 43.159 41.775
191.600 -18.400 -0.902 -18.467 -0.881 -18.772 -0.832 -19.012 -0.876 9.278 0.493 1.653 0.185 43.159 41.774
192.000 -18.399 -0.895 -18.466 -0.873 -18.772 -0.823 -19.011 -0.868 9.278 0.493 1.652 0.185 43.159 41.773
192.400 -18.398 -0.887 -18.466 -0.865 -18.771 -0.814 -19.010 -0.860 9.279 0.492 1.651 0.185 43.158 41.772
192.800 -18.398 -0.879 -18.465 -0.857 -18.770 -0.806 -19.009 -0.852 9.280 0.492 1.650 0.185 43.158 41.772
193.200 -18.397 -0.871 -18.464 -0.848 -18.769 -0.797 -19.008 -0.844 9.281 0.492 1.649 0.184 43.158 41.771
193.600 -18.396 -0.863 -18.463 -0.840 -18.768 -0.788 -19.007 -0.835 9.281 0.492 1.648 0.184 43.157 41.770
194.000 -18.395 -0.856 -18.462 -0.832 -18.767 -0.779 -19.006 -0.827 9.282 0.492 1.647 0.184 43.157 41.769
194.400 -18.394 -0.848 -18.461 -0.824 -18.766 -0.769 -19.005 -0.819 9.282 0.492 1.646 0.184 43.156 41.768
194.800 -18.393 -0.840 -18.460 -0.815 -18.765 -0.760 -19.004 -0.810 9.283 0.492 1.645 0.184 43.156 41.768
195.200 -18.392 -0.832 -18.459 -0.807 -18.764 -0.751 -19.002 -0.802 9.284 0.492 1.644 0.183 43.155 41.767
195.600 -18.391 -0.824 -18.458 -0.799 -18.763 -0.742 -19.001 -0.793 9.284 0.492 1.643 0.183 43.155 41.766
196.000 -18.389 -0.815 -18.457 -0.790 -18.762 -0.732 -19.000 -0.784 9.284 0.492 1.641 0.183 43.154 41.765
196.400 -18.388 -0.807 -18.455 -0.782 -18.761 -0.723 -18.998 -0.776 9.285 0.492 1.640 0.183 43.154 41.764
196.800 -18.387 -0.799 -18.454 -0.773 -18.760 -0.713 -18.997 -0.767 9.285 0.492 1.639 0.183 43.153 41.763
197.200 -18.385 -0.791 -18.453 -0.765 -18.758 -0.703 -18.996 -0.758 9.286 0.493 1.638 0.183 43.153 41.762
197.600 -18.384 -0.783 -18.451 -0.756 -18.757 -0.694 -18.994 -0.749 9.286 0.493 1.637 0.182 43.152 41.762
198.000 -18.382 -0.775 -18.450 -0.747 -18.756 -0.684 -18.993 -0.741 9.286 0.493 1.635 0.182 43.151 41.761
198.400 -18.381 -0.766 -18.448 -0.739 -18.754 -0.674 -18.991 -0.732 9.287 0.493 1.634 0.182 43.151 41.760
198.800 -18.379 -0.758 -18.447 -0.730 -18.753 -0.664 -18.989 -0.723 9.287 0.493 1.633 0.182 43.150 41.759
199.200 -18.378 -0.750 -18.445 -0.721 -18.751 -0.654 -18.988 -0.714 9.287 0.493 1.631 0.182 43.149 41.758
199.600 -18.376 -0.741 -18.444 -0.712 -18.750 -0.644 -18.986 -0.705 9.287 0.494 1.630 0.182 43.149 41.757
200.000 -18.374 -0.733 -18.442 -0.704 -18.748 -0.634 -18.984 -0.696 9.287 0.494 1.628 0.182 43.148 41.756
200.400 -18.372 -0.725 -18.440 -0.695 -18.746 -0.624 -18.982 -0.687 9.287 0.494 1.627 0.181 43.147 41.755
200.800 -18.370 -0.717 -18.438 -0.686 -18.745 -0.614 -18.980 -0.678 9.288 0.495 1.625 0.181 43.146 41.754
201.200 -18.368 -0.708 -18.436 -0.677 -18.743 -0.604 -18.979 -0.669 9.288 0.495 1.624 0.181 43.145 41.753
201.600 -18.366 -0.700 -18.434 -0.668 -18.741 -0.594 -18.977 -0.660 9.288 0.495 1.622 0.181 43.145 41.751
202.000 -18.364 -0.692 -18.432 -0.660 -18.739 -0.583 -18.974 -0.651 9.288 0.496 1.620 0.181 43.144 41.750
202.400 -18.362 -0.683 -18.430 -0.651 -18.737 -0.573 -18.972 -0.642 9.288 0.496 1.618 0.181 43.143 41.749
202.800 -18.360 -0.675 -18.428 -0.642 -18.735 -0.563 -18.970 -0.633 9.288 0.497 1.617 0.181 43.142 41.748
203.200 -18.357 -0.667 -18.426 -0.633 -18.733 -0.552 -18.968 -0.623 9.288 0.498 1.615 0.181 43.141 41.747
203.600 -18.355 -0.659 -18.423 -0.624 -18.730 -0.542 -18.966 -0.614 9.288 0.498 1.613 0.181 43.140 41.746
204.000 -18.352 -0.650 -18.421 -0.616 -18.728 -0.531 -18.963 -0.605 9.288 0.499 1.611 0.180 43.139 41.744
204.400 -18.350 -0.642 -18.418 -0.607 -18.726 -0.521 -18.961 -0.596 9.288 0.500 1.609 0.180 43.138 41.743
204.800 -18.347 -0.634 -18.416 -0.598 -18.723 -0.510 -18.958 -0.587 9.288 0.501 1.607 0.180 43.136 41.742
205.200 -18.345 -0.626 -18.413 -0.589 -18.721 -0.499 -18.956 -0.578 9.288 0.501 1.605 0.180 43.135 41.740
205.600 -18.342 -0.618 -18.410 -0.581 -18.718 -0.489 -18.953 -0.569 9.289 0.502 1.602 0.180 43.134 41.739
206.000 -18.339 -0.610 -18.408 -0.572 -18.716 -0.478 -18.951 -0.560 9.289 0.504 1.600 0.180 43.133 41.738
206.400 -18.336 -0.602 -18.405 -0.563 -18.713 -0.467 -18.948 -0.551 9.289 0.505 1.598 0.180 43.132 41.736
206.800 -18.333 -0.594 -18.402 -0.555 -18.710 -0.456 -18.945 -0.542 9.289 0.506 1.595 0.180 43.130 41.735
207.200 -18.330 -0.586 -18.399 -0.546 -18.708 -0.446 -18.942 -0.533 9.289 0.507 1.593 0.180 43.129 41.733
207.600 -18.327 -0.578 -18.396 -0.538 -18.705 -0.435 -18.939 -0.525 9.289 0.509 1.590 0.180 43.128 41.732
208.000 -18.324 -0.571 -18.393 -0.530 -18.702 -0.424 -18.936 -0.516 9.290 0.510 1.587 0.180 43.126 41.730
208.400 -18.320 -0.563 -18.389 -0.521 -18.699 -0.413 -18.933 -0.507 9.290 0.512 1.585 0.180 43.125 41.729
208.800 -18.317 -0.556 -18.386 -0.513 -18.696 -0.403 -18.930 -0.499 9.291 0.514 1.582 0.181 43.123 41.727
209.200 -18.313 -0.548 -18.383 -0.505 -18.692 -0.392 -18.927 -0.490 9.291 0.516 1.579 0.181 43.122 41.725
209.600 -18.310 -0.541 -18.379 -0.497 -18.689 -0.381 -18.923 -0.482 9.292 0.518 1.576 0.181 43.120 41.723
210.000 -18.306 -0.534 -18.375 -0.489 -18.686 -0.370 -18.920 -0.473 9.292 0.520 1.572 0.181 43.118 41.721
210.400 -18.302 -0.527 -18.372 -0.482 -18.682 -0.360 -18.916 -0.465 9.293 0.523 1.569 0.181 43.117 41.719
210.800 -18.299 -0.520 -18.368 -0.474 -18.679 -0.349 -18.913 -0.457 9.294 0.525 1.566 0.181 43.115 41.717
211.200 -18.295 -0.513 -18.364 -0.467 -18.675 -0.338 -18.909 -0.449 9.295 0.528 1.562 0.182 43.113 41.715
211.600 -18.291 -0.507 -18.360 -0.459 -18.671 -0.328 -18.906 -0.441 9.297 0.531 1.558 0.182 43.111 41.713
212.000 -18.287 -0.500 -18.356 -0.452 -18.668 -0.317 -18.902 -0.433 9.298 0.534 1.554 0.182 43.110 41.711
212.400 -18.282 -0.494 -18.352 -0.445 -18.664 -0.307 -18.898 -0.426 9.299 0.537 1.550 0.182 43.108 41.708
212.800 -18.278 -0.488 -18.348 -0.438 -18.660 -0.296 -18.894 -0.418 9.301 0.541 1.546 0.183 43.106 41.706
213.200 -18.274 -0.482 -18.344 -0.432 -18.656 -0.286 -18.890 -0.411 9.303 0.545 1.542 0.183 43.104 41.703
213.600 -18.269 -0.476 -18.339 -0.425 -18.652 -0.276 -18.886 -0.404 9.305 0.549 1.538 0.183 43.101 41.700
214.000 -18.265 -0.471 -18.335 -0.419 -18.647 -0.266 -18.881 -0.397 9.307 0.553 1.533 0.184 43.099 41.697
214.400 -18.260 -0.465 -18.330 -0.413 -18.643 -0.256 -18.877 -0.391 9.310 0.557 1.528 0.184 43.097 41.693
214.800 -18.255 -0.460 -18.325 -0.407 -18.639 -0.246 -18.873 -0.384 9.313 0.562 1.523 0.184 43.095 41.690
215.200 -18.250 -0.455 -18.321 -0.402 -18.634 -0.236 -18.868 -0.378 9.315 0.566 1.518 0.185 43.092 41.686
215.600 -18.246 -0.451 -18.316 -0.396 -18.629 -0.227 -18.864 -0.372 9.318 0.571 1.513 0.185 43.090 41.682
216.000 -18.240 -0.446 -18.311 -0.391 -18.625 -0.218 -18.859 -0.367 9.321 0.576 1.508 0.185 43.088 41.678
216.400 -18.235 -0.442 -18.306 -0.387 -18.620 -0.209 -18.854 -0.362 9.325 0.581 1.503 0.186 43.085 41.674
216.800 -18.230 -0.438 -18.300 -0.382 -18.615 -0.201 -18.849 -0.357 9.328 0.586 1.497 0.186 43.083 41.669
217.200 -18.225 -0.435 -18.295 -0.378 -18.610 -0.193 -18.844 -0.352 9.331 0.591 1.492 0.186 43.080 41.664
217.600 -18.219 -0.431 -18.290 -0.374 -18.605 -0.185 -18.839 -0.348 9.334 0.596 1.486 0.187 43.077 41.659
218.000 -18.214 -0.428 -18.284 -0.371 -18.600 -0.178 -18.834 -0.344 9.337 0.600 1.481 0.187 43.075 41.654
218.400 -18.208 -0.425 -18.279 -0.368 -18.594 -0.172 -18.829 -0.340 9.340 0.605 1.476 0.187 43.072 41.649
218.800 -18.202 -0.423 -18.273 -0.365 -18.589 -0.166 -18.824 -0.336 9.342 0.609 1.471 0.187 43.070 41.644
219.200 -18.197 -0.420 -18.267 -0.362 -18.583 -0.161 -18.818 -0.333 9.344 0.613 1.466 0.187 43.067 41.639
219.600 -18.191 -0.418 -18.261 -0.360 -18.578 -0.157 -18.813 -0.331 9.345 0.616 1.461 0.187 43.064 41.635
220.000 -18.185 -0.417 -18.255 -0.358 -18.572 -0.153 -18.807 -0.329 9.345 0.618 1.456 0.187 43.062 41.631
220.400 -18.178 -0.415 -18.249 -0.357 -18.566 -0.151 -18.802 -0.327 9.344 0.620 1.452 0.187 43.059 41.627
220.800 -18.172 -0.414 -18.243 -0.356 -18.560 -0.149 -18.796 -0.325 9.343 0.622 1.449 0.187 43.057 41.624
221.200 -18.166 -0.413 -18.237 -0.355 -18.554 -0.149 -18.790 -0.324 9.340 0.622 1.445 0.187 43.054 41.622
221.600 -18.160 -0.412 -18.230 -0.354 -18.548 -0.149 -18.784 -0.323 9.337 0.622 1.442 0.187 43.052 41.620
222.000 -18.153 -0.412 -18.224 -0.354 -18.542 -0.151 -18.778 -0.323 9.333 0.621 1.440 0.186 43.049 41.619
222.400 -18.146 -0.411 -18.217 -0.354 -18.535 -0.153 -18.772 -0.323 9.328 0.619 1.437 0.186 43.047 41.619
222.800 -18.140 -0.411 -18.211 -0.355 -18.529 -0.156 -18.766 -0.323 9.322 0.617 1.435 0.185 43.045 41.619
223.200 -18.133 -0.412 -18.204 -0.355 -18.522 -0.160 -18.759 -0.323 9.315 0.614 1.434 0.185 43.042 41.619
223.600 -18.126 -0.412 -18.197 -0.356 -18.515 -0.164 -18.753 -0.324 9.309 0.610 1.432 0.184 43.040 41.620
224.000 -18.119 -0.413 -18.190 -0.358 -18.509 -0.169 -18.746 -0.325 9.301 0.607 1.430 0.183 43.038 41.621
224.400 -18.112 -0.414 -18.183 -0.359 -18.502 -0.174 -18.740 -0.327 9.294 0.602 1.429 0.182 43.036 41.621
224.800 -18.105 -0.415 -18.176 -0.361 -18.495 -0.180 -18.733 -0.328 9.286 0.598 1.427 0.182 43.033 41.622
225.200 -18.097 -0.416 -18.169 -0.363 -18.488 -0.186 -18.726 -0.330 9.279 0.594 1.426 0.181 43.031 41.622
225.600 -18.090 -0.418 -18.161 -0.365 -18.480 -0.192 -18.719 -0.332 9.271 0.589 1.424 0.180 43.029 41.623
226.000 -18.083 -0.419 -18.154 -0.367 -18.473 -0.199 -18.712 -0.335 9.264 0.585 1.423 0.179 43.026 41.623
226.400 -18.075 -0.421 -18.146 -0.370 -18.466 -0.205 -18.705 -0.337 9.256 0.580 1.421 0.178 43.024 41.623
226.800 -18.067 -0.423 -18.139 -0.372 -18.458 -0.212 -18.698 -0.340 9.249 0.576 1.419 0.177 43.021 41.623
227.200 -18.060 -0.425 -18.131 -0.375 -18.451 -0.219 -18.691 -0.342 9.242 0.571 1.417 0.176 43.019 41.622
227.600 -18.052 -0.427 -18.123 -0.378 -18.443 -0.226 -18.684 -0.345 9.236 0.567 1.415 0.175 43.016 41.622
228.000 -18.044 -0.430 -18.115 -0.381 -18.436 -0.232 -18.677 -0.348 9.229 0.563 1.413 0.174 43.014 41.621
228.400 -18.036 -0.432 -18.107 -0.384 -18.428 -0.239 -18.669 -0.352 9.223 0.559 1.411 0.173 43.011 41.620
228.800 -18.028 -0.434 -18.100 -0.387 -18.420 -0.246 -18.662 -0.355 9.217 0.555 1.408 0.172 43.008 41.618
229.200 -18.020 -0.437 -18.091 -0.391 -18.412 -0.253 -18.654 -0.358 9.211 0.552 1.405 0.171 43.006 41.617
229.600 -18.012 -0.439 -18.083 -0.394 -18.404 -0.260 -18.647 -0.362 9.205 0.548 1.403 0.170 43.003 41.615
230.000 -18.004 -0.442 -18.075 -0.397 -18.396 -0.266 -18.639 -0.365 9.199 0.545 1.400 0.169 43.000 41.614
230.400 -17.996 -0.445 -18.067 -0.401 -18.388 -0.273 -18.632 -0.368 9.194 0.542 1.397 0.169 42.997 41.612
230.800 -17.987 -0.447 -18.059 -0.404 -18.380 -0.279 -18.624 -0.372 9.189 0.539 1.394 0.168 42.994 41.610
231.200 -17.979 -0.450 -18.050 -0.408 -18.372 -0.286 -18.616 -0.375 9.184 0.536 1.390 0.167 42.991 41.608
231.600 -17.970 -0.453 -18.042 -0.411 -18.364 -0.292 -18.608 -0.379 9.179 0.534 1.387 0.166 42.988 41.606
232.000 -17.962 -0.455 -18.033 -0.414 -18.355 -0.298 -18.600 -0.382 9.174 0.531 1.384 0.165 42.985 41.604
232.400 -17.953 -0.458 -18.025 -0.418 -18.347 -0.304 -18.592 -0.386 9.170 0.529 1.380 0.164 42.982 41.602
232.800 -17.945 -0.461 -18.016 -0.421 -18.339 -0.310 -18.584 -0.389 9.165 0.527 1.377 0.164 42.979 41.599
233.200 -17.936 -0.463 -18.007 -0.424 -18.330 -0.316 -18.576 -0.392 9.161 0.525 1.373 0.163 42.976 41.597
233.600 -17.927 -0.466 -17.999 -0.428 -18.322 -0.321 -18.568 -0.396 9.156 0.523 1.369 0.162 42.973 41.594
234.000 -17.918 -0.468 -17.990 -0.431 -18.313 -0.327 -18.560 -0.399 9.152 0.521 1.366 0.162 42.970 41.592
234.400 -17.909 -0.471 -17.981 -0.434 -18.305 -0.332 -18.552 -0.402 9.148 0.520 1.362 0.161 42.966 41.589
234.800 -17.901 -0.473 -17.972 -0.437 -18.296 -0.337 -18.544 -0.405 9.143 0.518 1.358 0.160 42.963 41.587
235.200 -17.892 -0.476 -17.963 -0.440 -18.287 -0.342 -18.536 -0.408 9.139 0.517 1.354 0.160 42.960 41.584
235.600 -17.883 -0.478 -17.954 -0.443 -18.279 -0.347 -18.527 -0.411 9.135 0.515 1.350 0.159 42.956 41.582
236.000 -17.874 -0.480 -17.945 -0.446 -18.270 -0.351 -18.519 -0.413 9.131 0.514 1.346 0.158 42.953 41.579
236.400 -17.865 -0.483 -17.936 -0.449 -18.261 -0.356 -18.511 -0.416 9.127 0.513 1.342 0.158 42.950 41.576
236.800 -17.855 -0.485 -17.927 -0.451 -18.252 -0.360 -18.503 -0.419 9.123 0.512 1.338 0.157 42.946 41.574
237.200 -17.846 -0.487 -17.918 -0.454 -18.244 -0.364 -18.494 -0.421 9.119 0.511 1.334 0.157 42.943 41.571
237.600 -17.837 -0.489 -17.909 -0.456 -18.235 -0.368 -18.486 -0.424 9.115 0.510 1.330 0.156 42.940 41.568
238.000 -17.828 -0.491 -17.900 -0.459 -18.226 -0.372 -18.477 -0.426 9.111 0.509 1.326 0.155 42.936 41.566
238.400 -17.819 -0.492 -17.891 -0.461 -18.217 -0.376 -18.469 -0.428 9.107 0.508 1.322 0.155 42.933 41.563
238.800 -17.810 -0.494 -17.881 -0.463 -18.208 -0.379 -18.461 -0.430 9.103 0.507 1.318 0.154 42.929 41.560
239.200 -17.800 -0.496 -17.872 -0.465 -18.199 -0.382 -18.452 -0.432 9.098 0.506 1.314 0.154 42.926 41.557
239.600 -17.791 -0.497 -17.863 -0.467 -18.191 -0.386 -18.444 -0.433 9.094 0.506 1.310 0.153 42.922 41.554
240.000 -17.782 -0.498 -17.854 -0.468 -18.182 -0.388 -18.435 -0.435 9.090 0.505 1.306 0.153 42.919 41.552
240.400 -17.772 -0.500 -17.844 -0.470 -18.173 -0.391 -18.427 -0.437 9.086 0.504 1.302 0.152 42.916 41.549
240.800 -17.763 -0.501 -17.835 -0.472 -18.164 -0.394 -18.418 -0.438 9.082 0.504 1.298 0.152 42.912 41.546
241.200 -17.754 -0.502 -17.826 -0.473 -18.155 -0.396 -18.410 -0.439 9.078 0.503 1.294 0.151 42.909 41.543
241.600 -17.744 -0.503 -17.816 -0.474 -18.146 -0.398 -18.401 -0.440 9.074 0.503 1.290 0.151 42.905 41.540
242.000 -17.735 -0.503 -17.807 -0.475 -18.137 -0.400 -18.393 -0.441 9.069 0.502 1.286 0.151 42.902 41.537
242.400 -17.725 -0.504 -17.798 -0.476 -18.128 -0.402 -18.384 -0.442 9.065 0.502 1.282 0.150 42.898 41.534
242.800 -17.716 -0.504 -17.788 -0.477 -18.119 -0.404 -18.376 -0.442 9.061 0.501 1.278 0.150 42.894 41.532
243.200 -17.707 -0.505 -17.779 -0.478 -18.110 -0.405 -18.367 -0.443 9.057 0.501 1.274 0.149 42.891 41.529
243.600 -17.697 -0.505 -17.770 -0.478 -18.101 -0.407 -18.359 -0.443 9.052 0.500 1.270 0.149 42.887 41.526
244.000 -17.688 -0.505 -17.760 -0.479 -18.092 -0.408 -18.350 -0.443 9.048 0.500 1.266 0.148 42.884 41.523
244.400 -17.678 -0.505 -17.751 -0.479 -18.083 -0.409 -18.342 -0.443 9.043 0.499 1.262 0.148 42.880 41.520
244.800 -17.669 -0.505 -17.742 -0.479 -18.075 -0.409 -18.333 -0.443 9.039 0.499 1.258 0.148 42.877 41.517
245.200 -17.659 -0.505 -17.732 -0.479 -18.066 -0.410 -18.325 -0.443 9.034 0.499 1.255 0.147 42.873 41.514
245.600 -17.650 -0.505 -17.723 -0.479 -18.057 -0.410 -18.316 -0.442 9.030 0.498 1.251 0.147 42.870 41.511
246.000 -17.641 -0.504 -17.714 -0.479 -18.048 -0.411 -18.308 -0.442 9.025 0.498 1.247 0.146 42.866 41.508
246.400 -17.631 -0.503 -17.704 -0.478 -18.039 -0.411 -18.300 -0.441 9.021 0.498 1.243 0.146 42.863 41.505
246.800 -17.622 -0.503 -17.695 -0.478 -18.030 -0.410 -18.291 -0.440 9.016 0.497 1.240 0.146 42.859 41.502
247.200 -17.612 -0.502 -17.686 -0.477 -18.022 -0.410 -18.283 -0.439 9.011 0.497 1.236 0.145 42.856 41.500
247.600 -17.603 -0.501 -17.676 -0.476 -18.013 -0.410 -18.275 -0.438 9.006 0.497 1.232 0.145 42.852 41.497
248.000 -17.594 -0.499 -17.667 -0.475 -18.004 -0.409 -18.266 -0.437 9.002 0.496 1.229 0.144 42.849 41.494
248.400 -17.584 -0.498 -17.658 -0.474 -17.995 -0.408 -18.258 -0.435 8.997 0.496 1.225 0.144 42.846 41.491
248.800 -17.575 -0.497 -17.649 -0.473 -17.987 -0.407 -18.250 -0.433 8.992 0.495 1.222 0.144 42.842 41.488
249.200 -17.566 -0.495 -17.640 -0.471 -17.978 -0.406 -18.242 -0.431 8.987 0.495 1.218 0.143 42.839 41.485
249.600 -17.557 -0.494 -17.630 -0.470 -17.970 -0.405 -18.233 -0.430 8.982 0.495 1.215 0.143 42.835 41.482
250.000 -17.547 -0.492 -17.621 -0.468 -17.961 -0.403 -18.225 -0.427 8.976 0.494 1.211 0.143 42.832 41.479
250.400 -17.538 -0.490 -17.612 -0.466 -17.953 -0.401 -18.217 -0.425 8.971 0.494 1.208 0.142 42.828 41.476
250.800 -17.529 -0.488 -17.603 -0.464 -17.944 -0.400 -18.209 -0.423 8.966 0.494 1.205 0.142 42.825 41.473
251.200 -17.520 -0.485 -17.594 -0.462 -17.936 -0.398 -18.201 -0.420 8.961 0.493 1.202 0.141 42.822 41.470
251.600 -17.511 -0.483 -17.585 -0.460 -17.927 -0.395 -18.193 -0.417 8.955 0.493 1.198 0.141 42.818 41.467
252.000 -17.502 -0.481 -17.576 -0.457 -17.919 -0.393 -18.185 -0.414 8.950 0.493 1.195 0.141 42.815 41.464
252.400 -17.493 -0.478 -17.567 -0.455 -17.911 -0.391 -18.177 -0.411 8.944 0.492 1.192 0.140 42.812 41.461
252.800 -17.484 -0.475 -17.558 -0.452 -17.903 -0.388 -18.170 -0.408 8.939 0.492 1.189 0.140 42.808 41.458
253.200 -17.475 -0.473 -17.550 -0.449 -17.895 -0.385 -18.162 -0.405 8.933 0.491 1.186 0.140 42.805 41.455
253.600 -17.466 -0.470 -17.541 -0.446 -17.887 -0.382 -18.154 -0.402 8.927 0.491 1.183 0.139 42.802 41.452
254.000 -17.457 -0.467 -17.532 -0.443 -17.879 -0.379 -18.146 -0.398 8.922 0.490 1.180 0.139 42.799 41.449
254.400 -17.448 -0.463 -17.523 -0.440 -17.871 -0.376 -18.139 -0.394 8.916 0.490 1.177 0.139 42.795 41.446
254.800 -17.439 -0.460 -17.515 -0.437 -17.863 -0.372 -18.131 -0.390 8.910 0.489 1.175 0.138 42.792 41.443
255.200 -17.431 -0.457 -17.506 -0.434 -17.855 -0.369 -18.124 -0.386 8.904 0.489 1.172 0.138 42.789 41.440
255.600 -17.422 -0.453 -17.498 -0.430 -17.847 -0.365 -18.116 -0.382 8.898 0.488 1.169 0.138 42.786 41.437
256.000 -17.413 -0.450 -17.489 -0.426 -17.839 -0.361 -18.109 -0.378 8.891 0.488 1.167 0.137 42.783 41.434
256.400 -17.405 -0.446 -17.481 -0.423 -17.832 -0.357 -18.101 -0.374 8.885 0.487 1.164 0.137 42.780 41.431
256.800 -17.396 -0.442 -17.472 -0.419 -17.824 -0.353 -18.094 -0.369 8.879 0.487 1.162 0.137 42.777 41.428
257.200 -17.388 -0.438 -17.464 -0.415 -17.817 -0.349 -18.087 -0.364 8.872 0.486 1.159 0.136 42.773 41.425
257.600 -17.379 -0.434 -17.456 -0.411 -17.809 -0.345 -18.080 -0.360 8.866 0.486 1.157 0.136 42.770 41.422
258.000 -17.371 -0.430 -17.448 -0.406 -17.802 -0.340 -18.073 -0.355 8.859 0.485 1.155 0.136 42.767 41.419
258.400 -17.363 -0.426 -17.440 -0.402 -17.795 -0.335 -18.066 -0.350 8.852 0.484 1.153 0.135 42.764 41.416
258.800 -17.354 -0.422 -17.432 -0.398 -17.788 -0.331 -18.059 -0.345 8.846 0.484 1.151 0.135 42.762 41.413
259.200 -17.346 -0.417 -17.424 -0.393 -17.781 -0.326 -18.052 -0.339 8.839 0.483 1.148 0.135 42.759 41.410
259.600 -17.338 -0.413 -17.416 -0.389 -17.774 -0.321 -18.045 -0.334 8.832 0.482 1.146 0.134 42.756 41.406
260.000 -17.330 -0.408 -17.408 -0.384 -17.767 -0.315 -18.038 -0.328 8.825 0.481 1.145 0.134 42.753 41.403
260.400 -17.322 -0.404 -17.400 -0.379 -17.760 -0.310 -18.032 -0.323 8.817 0.481 1.143 0.134 42.750 41.400
260.800 -17.314 -0.399 -17.392 -0.375 -17.753 -0.305 -18.025 -0.317 8.810 0.480 1.141 0.133 42.747 41.397
261.200 -17.306 -0.394 -17.385 -0.370 -17.747 -0.299 -18.018 -0.312 8.802 0.479 1.139 0.133 42.744 41.393
261.600 -17.298 -0.389 -17.377 -0.365 -17.740 -0.294 -18.012 -0.306 8.795 0.478 1.138 0.133 42.742 41.390
262.000 -17.291 -0.385 -17.370 -0.360 -17.734 -0.288 -18.005 -0.300 8.787 0.477 1.136 0.132 42.739 41.387
262.400 -17.283 -0.380 -17.362 -0.355 -17.728 -0.282 -17.999 -0.294 8.779 0.476 1.135 0.132 42.736 41.383
262.800 -17.275 -0.375 -17.355 -0.350 -17.721 -0.277 -17.993 -0.288 8.771 0.476 1.133 0.132 42.734 41.380
263.200 -17.268 -0.370 -17.347 -0.344 -17.715 -0.271 -17.987 -0.281 8.763 0.475 1.132 0.131 42.731 41.376
263.600 -17.260 -0.365 -17.340 -0.339 -17.709 -0.265 -17.980 -0.275 8.755 0.474 1.131 0.131 42.729 41.372
264.000 -17.253 -0.360 -17.333 -0.334 -17.703 -0.259 -17.974 -0.269 8.747 0.473 1.130 0.130 42.726 41.369
264.400 -17.246 -0.355 -17.326 -0.329 -17.697 -0.253 -17.968 -0.263 8.738 0.472 1.129 0.130 42.724 41.365
264.800 -17.239 -0.350 -17.319 -0.323 -17.692 -0.246 -17.963 -0.256 8.729 0.471 1.128 0.130 42.721 41.361
265.200 -17.231 -0.345 -17.312 -0.318 -17.686 -0.240 -17.957 -0.250 8.721 0.470 1.127 0.129 42.719 41.357
265.600 -17.224 -0.340 -17.305 -0.313 -17.681 -0.234 -17.951 -0.243 8.712 0.469 1.126 0.129 42.716 41.353
266.000 -17.217 -0.335 -17.299 -0.307 -17.675 -0.227 -17.945 -0.237 8.703 0.468 1.125 0.129 42.714 41.349
266.400 -17.211 -0.330 -17.292 -0.302 -17.670 -0.221 -17.940 -0.230 8.693 0.468 1.124 0.129 42.711 41.345
266.800 -17.204 -0.325 -17.286 -0.297 -17.665 -0.215 -17.934 -0.224 8.684 0.467 1.124 0.128 42.709 41.341
267.200 -17.197 -0.320 -17.279 -0.291 -17.660 -0.208 -17.928 -0.217 8.674 0.466 1.123 0.128 42.707 41.336
267.600 -17.190 -0.315 -17.273 -0.286 -17.655 -0.202 -17.923 -0.211 8.664 0.465 1.123 0.128 42.705 41.332
268.000 -17.184 -0.310 -17.266 -0.281 -17.650 -0.195 -17.918 -0.204 8.654 0.465 1.123 0.127 42.702 41.327
268.400 -17.177 -0.305 -17.260 -0.276 -17.645 -0.189 -17.912 -0.198 8.644 0.464 1.123 0.127 42.700 41.322
268.800 -17.171 -0.300 -17.254 -0.271 -17.640 -0.182 -17.907 -0.192 8.634 0.464 1.122 0.127 42.698 41.317
269.200 -17.165 -0.296 -17.248 -0.266 -17.636 -0.176 -17.902 -0.185 8.623 0.463 1.122 0.127 42.696 41.313
269.600 -17.159 -0.291 -17.242 -0.261 -17.631 -0.170 -17.897 -0.179 8.613 0.463 1.122 0.127 42.694 41.307
270.000 -17.153 -0.287 -17.236 -0.256 -17.627 -0.163 -17.892 -0.173 8.602 0.463 1.122 0.127 42.692 41.302
270.400 -17.147 -0.283 -17.231 -0.252 -17.623 -0.157 -17.887 -0.167 8.592 0.463 1.122 0.127 42.689 41.297
270.800 -17.141 -0.278 -17.225 -0.247 -17.618 -0.151 -17.882 -0.161 8.581 0.463 1.123 0.127 42.687 41.292
271.200 -17.135 -0.274 -17.219 -0.243 -17.614 -0.145 -17.877 -0.156 8.570 0.464 1.123 0.127 42.685 41.286
271.600 -17.129 -0.271 -17.214 -0.238 -17.610 -0.139 -17.872 -0.150 8.559 0.465 1.123 0.127 42.683 41.281
272.000 -17.124 -0.267 -17.209 -0.234 -17.606 -0.134 -17.867 -0.145 8.549 0.466 1.123 0.127 42.681 41.275
272.400 -17.118 -0.263 -17.203 -0.231 -17.602 -0.128 -17.863 -0.141 8.539 0.467 1.123 0.127 42.679 41.269
272.800 -17.113 -0.260 -17.198 -0.227 -17.598 -0.123 -17.858 -0.136 8.529 0.469 1.123 0.127 42.677 41.264
273.200 -17.108 -0.257 -17.193 -0.223 -17.595 -0.118 -17.853 -0.132 8.520 0.471 1.122 0.128 42.675 41.258
273.600 -17.103 -0.254 -17.188 -0.220 -17.591 -0.113 -17.849 -0.129 8.512 0.473 1.122 0.128 42.673 41.252
274.000 -17.098 -0.252 -17.183 -0.217 -17.587 -0.108 -17.844 -0.125 8.505 0.475 1.121 0.129 42.671 41.247
274.400 -17.093 -0.249 -17.179 -0.215 -17.583 -0.104 -17.840 -0.123 8.500 0.478 1.120 0.129 42.669 41.242
274.800 -17.089 -0.247 -17.174 -0.212 -17.579 -0.100 -17.836 -0.121 8.496 0.481 1.118 0.130 42.667 41.237
275.200 -17.084 -0.245 -17.170 -0.210 -17.576 -0.097 -17.831 -0.119 8.494 0.485 1.116 0.130 42.664 41.232
275.600 -17.080 -0.244 -17.166 -0.208 -17.572 -0.094 -17.827 -0.119 8.495 0.488 1.113 0.131 42.662 41.228
276.000 -17.076 -0.242 -17.162 -0.207 -17.568 -0.092 -17.823 -0.118 8.498 0.492 1.109 0.132 42.660 41.224
276.400 -17.072 -0.241 -17.158 -0.205 -17.564 -0.090 -17.819 -0.119 8.504 0.496 1.105 0.132 42.658 41.221
276.800 -17.068 -0.241 -17.154 -0.204 -17.560 -0.088 -17.815 -0.120 8.511 0.500 1.101 0.132 42.656 41.218
277.200 -17.064 -0.240 -17.151 -0.204 -17.556 -0.087 -17.811 -0.121 8.521 0.503 1.095 0.133 42.654 41.215
277.600 -17.061 -0.240 -17.147 -0.203 -17.551 -0.086 -17.807 -0.123 8.533 0.506 1.090 0.133 42.652 41.212
278.000 -17.057 -0.240 -17.144 -0.203 -17.547 -0.086 -17.803 -0.126 8.546 0.509 1.084 0.132 42.650 41.210
278.400 -17.054 -0.240 -17.140 -0.204 -17.543 -0.086 -17.800 -0.129 8.561 0.512 1.078 0.132 42.648 41.208
278.800 -17.051 -0.241 -17.137 -0.204 -17.539 -0.086 -17.796 -0.132 8.576 0.513 1.072 0.132 42.646 41.206
279.200 -17.048 -0.242 -17.134 -0.205 -17.535 -0.087 -17.792 -0.135 8.592 0.515 1.066 0.131 42.644 41.204
279.600 -17.045 -0.243 -17.131 -0.206 -17.531 -0.088 -17.788 -0.139 8.608 0.516 1.059 0.130 42.643 41.202
280.000 -17.042 -0.244 -17.128 -0.207 -17.527 -0.089 -17.784 -0.143 8.624 0.516 1.053 0.129 42.641 41.201
280.400 -17.039 -0.246 -17.125 -0.209 -17.523 -0.091 -17.781 -0.148 8.641 0.516 1.047 0.129 42.639 41.200
280.800 -17.036 -0.248 -17.122 -0.210 -17.519 -0.093 -17.777 -0.152 8.657 0.516 1.041 0.128 42.637 41.199
281.200 -17.033 -0.250 -17.119 -0.212 -17.515 -0.095 -17.773 -0.157 8.672 0.515 1.036 0.127 42.636 41.198
281.600 -17.030 -0.252 -17.116 -0.215 -17.511 -0.097 -17.769 -0.162 8.687 0.514 1.030 0.126 42.634 41.198
282.000 -17.027 -0.255 -17.113 -0.217 -17.507 -0.100 -17.765 -0.167 8.702 0.513 1.025 0.125 42.633 41.198
282.400 -17.025 -0.257 -17.110 -0.220 -17.502 -0.103 -17.761 -0.172 8.715 0.512 1.020 0.124 42.631 41.199
282.800 -17.022 -0.260 -17.107 -0.223 -17.498 -0.107 -17.758 -0.177 8.728 0.510 1.016 0.122 42.630 41.199
283.200 -17.019 -0.264 -17.104 -0.226 -17.494 -0.111 -17.754 -0.183 8.741 0.508 1.011 0.121 42.629 41.200
283.600 -17.016 -0.267 -17.101 -0.230 -17.490 -0.115 -17.750 -0.189 8.752 0.506 1.007 0.120 42.627 41.202
284.000 -17.014 -0.271 -17.098 -0.233 -17.486 -0.120 -17.746 -0.195 8.763 0.503 1.003 0.120 42.626 41.203
284.400 -17.011 -0.275 -17.095 -0.237 -17.482 -0.125 -17.742 -0.201 8.773 0.501 0.999 0.119 42.625 41.205
284.800 -17.008 -0.279 -17.092 -0.242 -17.477 -0.131 -17.738 -0.207 8.782 0.499 0.996 0.118 42.623 41.207
285.200 -17.005 -0.283 -17.089 -0.246 -17.473 -0.137 -17.733 -0.214 8.791 0.496 0.992 0.117 42.622 41.209
285.600 -17.003 -0.288 -17.086 -0.251 -17.469 -0.144 -17.729 -0.220 8.799 0.494 0.989 0.116 42.621 41.211
286.000 -17.000 -0.293 -17.083 -0.256 -17.465 -0.150 -17.725 -0.227 8.807 0.491 0.986 0.115 42.620 41.213
286.400 -16.997 -0.298 -17.080 -0.261 -17.460 -0.158 -17.721 -0.234 8.815 0.489 0.983 0.115 42.619 41.215
286.800 -16.994 -0.303 -17.077 -0.267 -17.456 -0.165 -17.717 -0.241 8.822 0.487 0.980 0.114 42.617 41.217
287.200 -16.992 -0.308 -17.074 -0.273 -17.452 -0.173 -17.712 -0.248 8.829 0.485 0.977 0.113 42.616 41.218
287.600 -16.989 -0.314 -17.071 -0.279 -17.447 -0.181 -17.708 -0.256 8.836 0.483 0.974 0.113 42.615 41.220
288.000 -16.986 -0.320 -17.068 -0.285 -17.443 -0.189 -17.704 -0.263 8.842 0.482 0.971 0.112 42.614 41.221
288.400 -16.983 -0.326 -17.065 -0.291 -17.438 -0.198 -17.699 -0.271 8.849 0.480 0.968 0.111 42.612 41.222
288.800 -16.980 -0.332 -17.062 -0.298 -17.434 -0.206 -17.695 -0.279 8.855 0.479 0.965 0.111 42.611 41.223
289.200 -16.977 -0.339 -17.059 -0.305 -17.429 -0.215 -17.691 -0.287 8.862 0.478 0.963 0.110 42.610 41.223
289.600 -16.974 -0.345 -17.056 -0.312 -17.425 -0.224 -17.686 -0.295 8.868 0.477 0.960 0.110 42.608 41.224
290.000 -16.971 -0.352 -17.052 -0.319 -17.420 -0.233 -17.682 -0.303 8.874 0.476 0.957 0.109 42.607 41.224
290.400 -16.968 -0.359 -17.049 -0.327 -17.416 -0.243 -17.677 -0.312 8.881 0.475 0.954 0.109 42.606 41.224
290.800 -16.965 -0.367 -17.046 -0.334 -17.411 -0.252 -17.673 -0.320 8.887 0.474 0.951 0.109 42.604 41.224
291.200 -16.962 -0.374 -17.043 -0.342 -17.407 -0.262 -17.668 -0.329 8.893 0.474 0.948 0.108 42.603 41.224
291.600 -16.959 -0.382 -17.039 -0.350 -17.402 -0.271 -17.663 -0.338 8.899 0.473 0.945 0.108 42.601 41.224
292.000 -16.956 -0.389 -17.036 -0.358 -17.398 -0.281 -17.659 -0.347 8.906 0.473 0.942 0.107 42.600 41.223
292.400 -16.953 -0.397 -17.033 -0.366 -17.393 -0.291 -17.654 -0.356 8.912 0.472 0.939 0.107 42.598 41.223
292.800 -16.950 -0.405 -17.029 -0.375 -17.388 -0.301 -17.649 -0.365 8.918 0.472 0.937 0.107 42.597 41.222
293.200 -16.947 -0.413 -17.026 -0.384 -17.384 -0.312 -17.645 -0.374 8.924 0.472 0.934 0.106 42.595 41.221
293.600 -16.944 -0.422 -17.022 -0.392 -17.379 -0.322 -17.640 -0.384 8.931 0.472 0.931 0.106 42.594 41.220
294.000 -16.941 -0.430 -17.019 -0.401 -17.375 -0.332 -17.635 -0.393 8.937 0.472 0.928 0.105 42.592 41.220
294.400 -16.937 -0.439 -17.015 -0.410 -17.370 -0.343 -17.631 -0.403 8.943 0.472 0.925 0.105 42.591 41.219
294.800 -16.934 -0.448 -17.012 -0.419 -17.365 -0.353 -17.626 -0.413 8.949 0.472 0.922 0.105 42.589 41.218
295.200 -16.931 -0.456 -17.008 -0.429 -17.361 -0.364 -17.621 -0.422 8.955 0.472 0.919 0.104 42.588 41.216
295.600 -16.928 -0.465 -17.005 -0.438 -17.356 -0.374 -17.616 -0.432 8.962 0.472 0.916 0.104 42.586 41.215
296.000 -16.924 -0.474 -17.001 -0.447 -17.352 -0.385 -17.611 -0.442 8.968 0.472 0.913 0.104 42.584 41.214
296.400 -16.921 -0.484 -16.998 -0.457 -17.347 -0.396 -17.607 -0.452 8.974 0.472 0.910 0.103 42.583 41.213
296.800 -16.918 -0.493 -16.994 -0.467 -17.342 -0.407 -17.602 -0.462 8.980 0.473 0.907 0.103 42.581 41.211
297.200 -16.915 -0.502 -16.991 -0.476 -17.338 -0.418 -17.597 -0.472 8.986 0.473 0.904 0.103 42.580 41.210
297.600 -16.911 -0.512 -16.987 -0.486 -17.333 -0.429 -17.592 -0.483 8.992 0.473 0.901 0.102 42.578 41.209
298.000 -16.908 -0.521 -16.984 -0.496 -17.328 -0.440 -17.587 -0.493 8.999 0.474 0.898 0.102 42.576 41.207
298.400 -16.904 -0.531 -16.980 -0.506 -17.324 -0.451 -17.582 -0.503 9.005 0.474 0.895 0.102 42.575 41.206
298.800 -16.901 -0.541 -16.976 -0.516 -17.319 -0.462 -17.577 -0.514 9.011 0.474 0.892 0.101 42.573 41.204
299.200 -16.898 -0.550 -16.973 -0.526 -17.314 -0.473 -17.572 -0.524 9.017 0.475 0.890 0.101 42.571 41.203
299.600 -16.894 -0.560 -16.969 -0.537 -17.310 -0.484 -17.567 -0.535 9.023 0.475 0.887 0.101 42.570 41.201
300.000 -16.891 -0.570 -16.965 -0.547 -17.305 -0.495 -17.563 -0.545 9.029 0.476 0.884 0.100 42.568 41.199
300.400 -16.887 -0.580 -16.962 -0.557 -17.300 -0.507 -17.558 -0.556 9.035 0.476 0.881 0.100 42.566 41.198
300.800 -16.884 -0.590 -16.958 -0.568 -17.296 -0.518 -17.553 -0.566 9.041 0.477 0.878 0.100 42.565 41.196
301.200 -16.880 -0.600 -16.954 -0.578 -17.291 -0.529 -17.548 -0.577 9.047 0.477 0.875 0.099 42.563 41.194
301.600 -16.877 -0.611 -16.950 -0.589 -17.286 -0.541 -17.543 -0.588 9.053 0.477 0.872 0.099 42.561 41.193
302.000 -16.873 -0.621 -16.947 -0.599 -17.282 -0.552 -17.538 -0.598 9.059 0.478 0.869 0.099 42.559 41.191
302.400 -16.870 -0.631 -16.943 -0.610 -17.277 -0.563 -17.533 -0.609 9.064 0.478 0.867 0.098 42.558 41.189
302.800 -16.866 -0.642 -16.939 -0.620 -17.272 -0.575 -17.528 -0.620 9.070 0.479 0.864 0.098 42.556 41.187
303.200 -16.863 -0.652 -16.935 -0.631 -17.268 -0.586 -17.523 -0.631 9.076 0.479 0.861 0.098 42.554 41.186
303.600 -16.859 -0.662 -16.931 -0.642 -17.263 -0.598 -17.518 -0.642 9.082 0.480 0.858 0.097 42.553 41.184
304.000 -16.855 -0.673 -16.928 -0.653 -17.258 -0.609 -17.513 -0.653 9.088 0.480 0.855 0.097 42.551 41.182
304.400 -16.852 -0.683 -16.924 -0.663 -17.254 -0.621 -17.508 -0.664 9.093 0.481 0.853 0.097 42.549 41.180
304.800 -16.848 -0.694 -16.920 -0.674 -17.249 -0.632 -17.503 -0.674 9.099 0.481 0.850 0.097 42.547 41.178
305.200 -16.845 -0.704 -16.916 -0.685 -17.244 -0.644 -17.498 -0.685 9.105 0.482 0.847 0.096 42.546 41.176
305.600 -16.841 -0.715 -16.912 -0.696 -17.239 -0.655 -17.493 -0.696 9.110 0.482 0.844 0.096 42.544 41.174
306.000 -16.837 -0.726 -16.909 -0.707 -17.235 -0.667 -17.488 -0.707 9.116 0.483 0.842 0.096 42.542 41.173
306.400 -16.834 -0.736 -16.905 -0.718 -17.230 -0.678 -17.483 -0.718 9.121 0.483 0.839 0.095 42.540 41.171
306.800 -16.830 -0.747 -16.901 -0.728 -17.225 -0.690 -17.478 -0.729 9.127 0.484 0.836 0.095 42.539 41.169
307.200 -16.826 -0.758 -16.897 -0.739 -17.221 -0.701 -17.473 -0.740 9.132 0.484 0.833 0.095 42.537 41.167
307.600 -16.823 -0.768 -16.893 -0.750 -17.216 -0.713 -17.468 -0.752 9.138 0.485 0.831 0.094 42.535 41.165
308.000 -16.819 -0.779 -16.889 -0.761 -17.211 -0.724 -17.463 -0.763 9.143 0.485 0.828 0.094 42.533 41.163
308.400 -16.815 -0.790 -16.885 -0.772 -17.207 -0.736 -17.458 -0.774 9.149 0.486 0.825 0.094 42.532 41.161
308.800 -16.812 -0.801 -16.881 -0.783 -17.202 -0.747 -17.453 -0.785 9.154 0.486 0.823 0.094 42.530 41.159
309.200 -16.808 -0.811 -16.877 -0.794 -17.197 -0.759 -17.448 -0.796 9.159 0.487 0.820 0.093 42.528 41.157
309.600 -16.804 -0.822 -16.874 -0.805 -17.193 -0.770 -17.443 -0.807 9.165 0.487 0.818 0.093 42.526 41.155
310.000 -16.800 -0.833 -16.870 -0.816 -17.188 -0.782 -17.438 -0.818 9.170 0.488 0.815 0.093 42.525 41.153
310.400 -16.797 -0.844 -16.866 -0.827 -17.183 -0.793 -17.433 -0.829 9.175 0.488 0.812 0.092 42.523 41.151
310.800 -16.793 -0.854 -16.862 -0.838 -17.179 -0.804 -17.428 -0.840 9.180 0.489 0.810 0.092 42.521 41.149
311.200 -16.789 -0.865 -16.858 -0.849 -17.174 -0.816 -17.423 -0.851 9.185 0.489 0.807 0.092 42.519 41.147
311.600 -16.785 -0.876 -16.854 -0.860 -17.169 -0.827 -17.418 -0.862 9.191 0.490 0.805 0.092 42.518 41.145
312.000 -16.782 -0.887 -16.850 -0.871 -17.165 -0.839 -17.413 -0.873 9.196 0.490 0.802 0.091 42.516 41.143
312.400 -16.778 -0.898 -16.846 -0.882 -17.160 -0.850 -17.408 -0.884 9.201 0.491 0.800 0.091 42.514 41.141
312.800 -16.774 -0.908 -16.842 -0.893 -17.155 -0.862 -17.403 -0.895 9.206 0.491 0.797 0.091 42.512 41.139
313.200 -16.770 -0.919 -16.838 -0.904 -17.151 -0.873 -17.398 -0.906 9.211 0.492 0.795 0.090 42.511 41.137
313.600 -16.766 -0.930 -16.834 -0.915 -17.146 -0.884 -17.393 -0.917 9.216 0.492 0.792 0.090 42.509 41.135
314.000 -16.763 -0.941 -16.830 -0.926 -17.141 -0.896 -17.388 -0.928 9.220 0.492 0.790 0.090 42.507 41.133
314.400 -16.759 -0.951 -16.826 -0.937 -17.137 -0.907 -17.384 -0.939 9.225 0.493 0.787 0.090 42.505 41.131
314.800 -16.755 -0.962 -16.822 -0.948 -17.132 -0.918 -17.379 -0.950 9.230 0.493 0.785 0.089 42.503 41.129
315.200 -16.751 -0.973 -16.818 -0.959 -17.127 -0.930 -17.374 -0.961 9.235 0.494 0.783 0.089 42.502 41.127
315.600 -16.747 -0.984 -16.814 -0.970 -17.123 -0.941 -17.369 -0.972 9.240 0.494 0.780 0.089 42.500 41.125
316.000 -16.744 -0.994 -16.810 -0.981 -17.118 -0.952 -17.364 -0.983 9.244 0.495 0.778 0.088 42.498 41.123
316.400 -16.740 -1.005 -16.806 -0.991 -17.114 -0.963 -17.359 -0.994 9.249 0.495 0.776 0.088 42.496 41.121
316.800 -16.736 -1.016 -16.802 -1.002 -17.109 -0.975 -17.354 -1.005 9.253 0.496 0.773 0.088 42.495 41.119
317.200 -16.732 -1.027 -16.798 -1.013 -17.104 -0.986 -17.349 -1.016 9.258 0.496 0.771 0.088 42.493 41.117
317.600 -16.728 -1.037 -16.794 -1.024 -17.100 -0.997 -17.344 -1.026 9.263 0.496 0.769 0.087 42.491 41.115
318.000 -16.724 -1.048 -16.790 -1.035 -17.095 -1.008 -17.339 -1.037 9.267 0.497 0.766 0.087 42.489 41.113
318.400 -16.720 -1.058 -16.786 -1.045 -17.091 -1.019 -17.334 -1.048 9.272 0.497 0.764 0.087 42.488 41.111
318.800 -16.717 -1.069 -16.782 -1.056 -17.086 -1.030 -17.330 -1.059 9.276 0.498 0.762 0.087 42.486 41.110
319.200 -16.713 -1.080 -16.778 -1.067 -17.081 -1.041 -17.325 -1.069 9.280 0.498 0.759 0.086 42.484 41.108
319.600 -16.709 -1.090 -16.774 -1.078 -17.077 -1.052 -17.320 -1.080 9.285 0.498 0.757 0.086 42.482 41.106
320.000 -16.705 -1.101 -16.770 -1.088 -17.072 -1.063 -17.315 -1.091 9.289 0.499 0.755 0.086 42.481 41.104
320.400 -16.701 -1.111 -16.766 -1.099 -17.068 -1.074 -17.310 -1.102 9.293 0.499 0.753 0.086 42.479 41.102
320.800 -16.697 -1.122 -16.762 -1.110 -17.063 -1.085 -17.305 -1.112 9.297 0.500 0.751 0.085 42.477 41.100
321.200 -16.693 -1.132 -16.758 -1.120 -17.058 -1.096 -17.300 -1.123 9.302 0.500 0.748 0.085 42.475 41.098
321.600 -16.690 -1.143 -16.754 -1.131 -17.054 -1.107 -17.296 -1.133 9.306 0.500 0.746 0.085 42.474 41.096
322.000 -16.686 -1.153 -16.750 -1.141 -17.049 -1.118 -17.291 -1.144 9.310 0.501 0.744 0.085 42.472 41.094
322.400 -16.682 -1.163 -16.746 -1.152 -17.045 -1.128 -17.286 -1.154 9.314 0.501 0.742 0.084 42.470 41.092
322.800 -16.678 -1.174 -16.742 -1.162 -17.040 -1.139 -17.281 -1.165 9.318 0.501 0.740 0.084 42.468 41.090
323.200 -16.674 -1.184 -16.738 -1.173 -17.036 -1.150 -17.276 -1.175 9.322 0.502 0.738 0.084 42.467 41.088
323.600 -16.670 -1.194 -16.734 -1.183 -17.031 -1.160 -17.271 -1.186 9.326 0.502 0.736 0.084 42.465 41.086
324.000 -16.666 -1.205 -16.730 -1.194 -17.027 -1.171 -17.267 -1.196 9.330 0.502 0.733 0.083 42.463 41.084
324.400 -16.662 -1.215 -16.726 -1.204 -17.022 -1.182 -17.262 -1.206 9.334 0.503 0.731 0.083 42.461 41.082
324.800 -16.658 -1.225 -16.722 -1.214 -17.018 -1.192 -17.257 -1.217 9.337 0.503 0.729 0.083 42.460 41.080
325.200 -16.655 -1.235 -16.718 -1.224 -17.013 -1.203 -17.252 -1.227 9.341 0.504 0.727 0.083 42.458 41.078
325.600 -16.651 -1.245 -16.714 -1.235 -17.009 -1.213 -17.248 -1.237 9.345 0.504 0.725 0.082 42.456 41.076
326.000 -16.647 -1.256 -16.710 -1.245 -17.004 -1.224 -17.243 -1.248 9.349 0.504 0.723 0.082 42.454 41.074
326.400 -16.643 -1.266 -16.706 -1.255 -17.000 -1.234 -17.238 -1.258 9.352 0.505 0.721 0.082 42.453 41.073
326.800 -16.639 -1.276 -16.702 -1.265 -16.995 -1.244 -17.233 -1.268 9.356 0.505 0.719 0.082 42.451 41.071
327.200 -16.635 -1.286 -16.698 -1.275 -16.991 -1.255 -17.229 -1.278 9.359 0.505 0.717 0.081 42.449 41.069
327.600 -16.631 -1.296 -16.694 -1.285 -16.986 -1.265 -17.224 -1.288 9.363 0.506 0.715 0.081 42.448 41.067
328.000 -16.627 -1.305 -16.690 -1.295 -16.982 -1.275 -17.219 -1.298 9.366 0.506 0.713 0.081 42.446 41.065
328.400 -16.623 -1.315 -16.686 -1.305 -16.977 -1.285 -17.215 -1.308 9.370 0.506 0.711 0.081 42.444 41.063
328.800 -16.619 -1.325 -16.682 -1.315 -16.973 -1.296 -17.210 -1.318 9.373 0.506 0.710 0.081 42.442 41.061
329.200 -16.615 -1.335 -16.678 -1.325 -16.968 -1.306 -17.205 -1.328 9.377 0.507 0.708 0.080 42.441 41.059
329.600 -16.612 -1.345 -16.674 -1.335 -16.964 -1.316 -17.201 -1.338 9.380 0.507 0.706 0.080 42.439 41.057
330.000 -16.608 -1.354 -16.670 -1.345 -16.960 -1.326 -17.196 -1.347 9.383 0.507 0.704 0.080 42.437 41.056
330.400 -16.604 -1.364 -16.666 -1.355 -16.955 -1.336 -17.191 -1.357 9.386 0.508 0.702 0.080 42.436 41.054
330.800 -16.600 -1.374 -16.662 -1.364 -16.951 -1.346 -17.187 -1.367 9.390 0.508 0.700 0.079 42.434 41.052
331.200 -16.596 -1.383 -16.658 -1.374 -16.946 -1.355 -17.182 -1.377 9.393 0.508 0.698 0.079 42.432 41.050
331.600 -16.592 -1.393 -16.654 -1.384 -16.942 -1.365 -17.178 -1.386 9.396 0.509 0.696 0.079 42.430 41.048
332.000 -16.588 -1.402 -16.650 -1.393 -16.938 -1.375 -17.173 -1.396 9.399 0.509 0.695 0.079 42.429 41.046
332.400 -16.584 -1.412 -16.646 -1.403 -16.933 -1.385 -17.168 -1.405 9.402 0.509 0.693 0.079 42.427 41.044
332.800 -16.580 -1.421 -16.642 -1.412 -16.929 -1.394 -17.164 -1.415 9.405 0.509 0.691 0.078 42.425 41.043
333.200 -16.577 -1.431 -16.638 -1.422 -16.925 -1.404 -17.159 -1.424 9.408 0.510 0.689 0.078 42.424 41.041
333.600 -16.573 -1.440 -16.634 -1.431 -16.920 -1.414 -17.155 -1.434 9.411 0.510 0.688 0.078 42.422 41.039
334.000 -16.569 -1.449 -16.630 -1.441 -16.916 -1.423 -17.150 -1.443 9.414 0.510 0.686 0.078 42.420 41.037
334.400 -16.565 -1.459 -16.626 -1.450 -16.912 -1.433 -17.146 -1.452 9.417 0.510 0.684 0.078 42.419 41.035
334.800 -16.561 -1.468 -16.622 -1.459 -16.907 -1.442 -17.141 -1.462 9.419 0.511 0.682 0.077 42.417 41.034
335.200 -16.557 -1.477 -16.618 -1.468 -16.903 -1.452 -17.137 -1.471 9.422 0.511 0.681 0.077 42.415 41.032
335.600 -16.553 -1.486 -16.614 -1.478 -16.899 -1.461 -17.132 -1.480 9.425 0.511 0.679 0.077 42.414 41.030
336.000 -16.549 -1.495 -16.610 -1.487 -16.894 -1.470 -17.128 -1.489 9.427 0.512 0.677 0.077 42.412 41.028
336.400 -16.545 -1.504 -16.606 -1.496 -16.890 -1.479 -17.123 -1.498 9.430 0.512 0.676 0.077 42.410 41.026
336.800 -16.542 -1.513 -16.602 -1.505 -16.886 -1.489 -17.119 -1.507 9.433 0.512 0.674 0.076 42.409 41.025
337.200 -16.538 -1.522 -16.598 -1.514 -16.881 -1.498 -17.114 -1.516 9.435 0.512 0.672 0.076 42.407 41.023
337.600 -16.534 -1.531 -16.594 -1.523 -16.877 -1.507 -17.110 -1.525 9.438 0.513 0.671 0.076 42.405 41.021
338.000 -16.530 -1.540 -16.590 -1.532 -16.873 -1.516 -17.106 -1.534 9.440 0.513 0.669 0.076 42.404 41.019
338.400 -16.526 -1.548 -16.586 -1.540 -16.869 -1.525 -17.101 -1.543 9.442 0.513 0.667 0.076 42.402 41.018
338.800 -16.522 -1.557 -16.582 -1.549 -16.864 -1.534 -17.097 -1.552 9.445 0.513 0.666 0.076 42.400 41.016
339.200 -16.518 -1.566 -16.579 -1.558 -16.860 -1.543 -17.092 -1.560 9.447 0.513 0.664 0.075 42.399 41.014
339.600 -16.514 -1.574 -16.575 -1.567 -16.856 -1.551 -17.088 -1.569 9.449 0.514 0.663 0.075 42.397 41.012
340.000 -16.511 -1.583 -16.571 -1.575 -16.852 -1.560 -17.084 -1.578 9.451 0.514 0.661 0.075 42.395 41.011
340.400 -16.507 -1.591 -16.567 -1.584 -16.848 -1.569 -17.079 -1.586 9.454 0.514 0.659 0.075 42.394 41.009
340.800 -16.503 -1.600 -16.563 -1.592 -16.843 -1.578 -17.075 -1.595 9.456 0.514 0.658 0.075 42.392 41.007
341.200 -16.499 -1.608 -16.559 -1.601 -16.839 -1.586 -17.071 -1.603 9.458 0.515 0.656 0.074 42.390 41.006
341.600 -16.495 -1.617 -16.555 -1.609 -16.835 -1.595 -17.066 -1.612 9.460 0.515 0.655 0.074 42.389 41.004
342.000 -16.491 -1.625 -16.551 -1.618 -16.831 -1.603 -17.062 -1.620 9.462 0.515 0.653 0.074 42.387 41.002
342.400 -16.487 -1.633 -16.547 -1.626 -16.827 -1.612 -17.058 -1.628 9.464 0.515 0.652 0.074 42.385 41.001
342.800 -16.484 -1.641 -16.543 -1.634 -16.822 -1.620 -17.054 -1.637 9.466 0.515 0.650 0.074 42.384 40.999
343.200 -16.480 -1.650 -16.539 -1.642 -16.818 -1.628 -17.049 -1.645 9.468 0.516 0.649 0.074 42.382 40.997
343.600 -16.476 -1.658 -16.535 -1.651 -16.814 -1.636 -17.045 -1.653 9.470 0.516 0.648 0.073 42.381 40.996
344.000 -16.472 -1.666 -16.532 -1.659 -16.810 -1.645 -17.041 -1.661 9.471 0.516 0.646 0.073 42.379 40.994
344.400 -16.468 -1.674 -16.528 -1.667 -16.806 -1.653 -17.037 -1.669 9.473 0.516 0.645 0.073 42.377 40.992
344.800 -16.464 -1.682 -16.524 -1.675 -16.802 -1.661 -17.032 -1.677 9.475 0.516 0.643 0.073 42.376 40.991
345.200 -16.461 -1.689 -16.520 -1.683 -16.798 -1.669 -17.028 -1.685 9.476 0.517 0.642 0.073 42.374 40.989
345.600 -16.457 -1.697 -16.516 -1.690 -16.794 -1.677 -17.024 -1.693 9.478 0.517 0.640 0.073 42.373 40.987
346.000 -16.453 -1.705 -16.512 -1.698 -16.790 -1.685 -17.020 -1.700 9.480 0.517 0.639 0.073 42.371 40.986
346.400 -16.449 -1.713 -16.508 -1.706 -16.786 -1.693 -17.016 -1.708 9.481 0.517 0.638 0.072 42.369 40.984
346.800 -16.445 -1.720 -16.504 -1.714 -16.782 -1.700 -17.012 -1.716 9.483 0.517 0.636 0.072 42.368 40.982
347.200 -16.442 -1.728 -16.501 -1.721 -16.778 -1.708 -17.008 -1.724 9.484 0.518 0.635 0.072 42.366 40.981
347.600 -16.438 -1.735 -16.497 -1.729 -16.774 -1.716 -17.003 -1.731 9.485 0.518 0.634 0.072 42.365 40.979
348.000 -16.434 -1.743 -16.493 -1.736 -16.770 -1.724 -16.999 -1.739 9.487 0.518 0.632 0.072 42.363 40.978
348.400 -16.430 -1.750 -16.489 -1.744 -16.766 -1.731 -16.995 -1.746 9.488 0.518 0.631 0.072 42.362 40.976
348.800 -16.426 -1.758 -16.485 -1.751 -16.762 -1.739 -16.991 -1.753 9.489 0.518 0.630 0.071 42.360 40.975
349.200 -16.423 -1.765 -16.481 -1.759 -16.758 -1.746 -16.987 -1.761 9.491 0.518 0.628 0.071 42.358 40.973
349.600 -16.419 -1.772 -16.478 -1.766 -16.754 -1.753 -16.983 -1.768 9.492 0.519 0.627 0.071 42.357 40.971
350.000 -16.415 -1.779 -16.474 -1.773 -16.750 -1.761 -16.979 -1.775 9.493 0.519 0.626 0.071 42.355 40.970
350.400 -16.411 -1.786 -16.470 -1.780 -16.746 -1.768 -16.975 -1.782 9.494 0.519 0.624 0.071 42.354 40.968
350.800 -16.408 -1.793 -16.466 -1.787 -16.742 -1.775 -16.971 -1.789 9.495 0.519 0.623 0.071 42.352 40.967
351.200 -16.404 -1.800 -16.462 -1.794 -16.738 -1.782 -16.967 -1.797 9.496 0.519 0.622 0.071 42.351 40.965
351.600 -16.400 -1.807 -16.459 -1.801 -16.734 -1.789 -16.963 -1.803 9.497 0.519 0.621 0.071 42.349 40.964
352.000 -16.396 -1.814 -16.455 -1.808 -16.730 -1.796 -16.959 -1.810 9.498 0.519 0.620 0.070 42.348 40.962
352.400 -16.393 -1.821 -16.451 -1.815 -16.726 -1.803 -16.955 -1.817 9.499 0.520 0.618 0.070 42.346 40.961
352.800 -16.389 -1.828 -16.447 -1.822 -16.722 -1.810 -16.951 -1.824 9.500 0.520 0.617 0.070 42.344 40.959
353.200 -16.385 -1.834 -16.444 -1.829 -16.718 -1.817 -16.947 -1.831 9.501 0.520 0.616 0.070 42.343 40.958
353.600 -16.381 -1.841 -16.440 -1.835 -16.714 -1.824 -16.944 -1.837 9.501 0.520 0.615 0.070 42.341 40.956
354.000 -16.378 -1.848 -16.436 -1.842 -16.711 -1.831 -16.940 -1.844 9.502 0.520 0.614 0.070 42.340 40.955
354.400 -16.374 -1.854 -16.432 -1.848 -16.707 -1.837 -16.936 -1.851 9.503 0.520 0.612 0.070 42.338 40.953
354.800 -16.370 -1.861 -16.429 -1.855 -16.703 -1.844 -16.932 -1.857 9.503 0.520 0.611 0.070 42.337 40.952
355.200 -16.366 -1.867 -16.425 -1.861 -16.699 -1.850 -16.928 -1.863 9.504 0.521 0.610 0.069 42.335 40.950
355.600 -16.363 -1.873 -16.421 -1.868 -16.695 -1.857 -16.924 -1.870 9.504 0.521 0.609 0.069 42.334 40.949
356.000 -16.359 -1.880 -16.417 -1.874 -16.691 -1.863 -16.921 -1.876 9.505 0.521 0.608 0.069 42.332 40.947
356.400 -16.355 -1.886 -16.414 -1.880 -16.688 -1.869 -16.917 -1.882 9.505 0.521 0.607 0.069 42.331 40.946
356.800 -16.352 -1.892 -16.410 -1.886 -16.684 -1.876 -16.913 -1.889 9.506 0.521 0.606 0.069 42.329 40.944
357.200 -16.348 -1.898 -16.406 -1.893 -16.680 -1.882 -16.909 -1.895 9.506 0.521 0.605 0.069 42.328 40.943
357.600 -16.344 -1.904 -16.403 -1.899 -16.676 -1.888 -16.906 -1.901 9.507 0.521 0.604 0.069 42.326 40.942
358.000 -16.341 -1.910 -16.399 -1.905 -16.673 -1.894 -16.902 -1.907 9.507 0.521 0.602 0.069 42.325 40.940
358.400 -16.337 -1.916 -16.395 -1.911 -16.669 -1.900 -16.898 -1.913 9.507 0.522 0.601 0.068 42.323 40.939
358.800 -16.333 -1.922 -16.391 -1.916 -16.665 -1.906 -16.894 -1.918 9.507 0.522 0.600 0.068 42.322 40.937
359.200 -16.330 -1.928 -16.388 -1.922 -16.662 -1.912 -16.891 -1.924 9.507 0.522 0.599 0.068 42.320 40.936
359.600 -16.326 -1.933 -16.384 -1.928 -16.658 -1.918 -16.887 -1.930 9.507 0.522 0.598 0.068 42.319 40.935
360.000 -16.322 -1.939 -16.380 -1.934 -16.654 -1.923 -16.883 -1.936 9.508 0.522 0.597 0.068 42.317 40.933
360.400 -16.319 -1.944 -16.377 -1.939 -16.650 -1.929 -16.880 -1.941 9.508 0.522 0.596 0.068 42.316 40.932
360.800 -16.315 -1.950 -16.373 -1.945 -16.647 -1.935 -16.876 -1.947 9.508 0.522 0.595 0.068 42.315 40.930
361.200 -16.311 -1.955 -16.370 -1.950 -16.643 -1.940 -16.873 -1.952 9.507 0.522 0.594 0.068 42.313 40.929
361.600 -16.308 -1.961 -16.366 -1.956 -16.640 -1.946 -16.869 -1.958 9.507 0.522 0.593 0.068 42.312 40.928
362.000 -16.304 -1.966 -16.362 -1.961 -16.636 -1.951 -16.865 -1.963 9.507 0.523 0.592 0.068 42.310 40.926
362.400 -16.301 -1.971 -16.359 -1.966 -16.632 -1.956 -16.862 -1.968 9.507 0.523 0.591 0.067 42.309 40.925
362.800 -16.297 -1.977 -16.355 -1.972 -16.629 -1.962 -16.858 -1.974 9.507 0.523 0.590 0.067 42.307 40.924
363.200 -16.293 -1.982 -16.351 -1.977 -16.625 -1.967 -16.855 -1.979 9.506 0.523 0.590 0.067 42.306 40.922
363.600 -16.290 -1.987 -16.348 -1.982 -16.622 -1.972 -16.851 -1.984 9.506 0.523 0.589 0.067 42.305 40.921
364.000 -16.286 -1.992 -16.344 -1.987 -16.618 -1.977 -16.848 -1.989 9.506 0.523 0.588 0.067 42.303 40.920
364.400 -16.283 -1.997 -16.341 -1.992 -16.614 -1.982 -16.844 -1.994 9.505 0.523 0.587 0.067 42.302 40.919
364.800 -16.279 -2.002 -16.337 -1.997 -16.611 -1.987 -16.841 -1.999 9.505 0.523 0.586 0.067 42.300 40.917
365.200 -16.275 -2.006 -16.334 -2.001 -16.607 -1.992 -16.837 -2.003 9.504 0.523 0.585 0.067 42.299 40.916
365.600 -16.272 -2.011 -16.330 -2.006 -16.604 -1.997 -16.834 -2.008 9.504 0.523 0.584 0.067 42.297 40.915
366.000 -16.268 -2.016 -16.326 -2.011 -16.600 -2.002 -16.830 -2.013 9.503 0.523 0.583 0.067 42.296 40.913
366.400 -16.265 -2.020 -16.323 -2.016 -16.597 -2.006 -16.827 -2.017 9.503 0.523 0.582 0.067 42.295 40.912
366.800 -16.261 -2.025 -16.319 -2.020 -16.593 -2.011 -16.824 -2.022 9.502 0.523 0.582 0.067 42.293 40.911
367.200 -16.258 -2.029 -16.316 -2.025 -16.590 -2.016 -16.820 -2.027 9.501 0.524 0.581 0.066 42.292 40.910
367.600 -16.254 -2.034 -16.312 -2.029 -16.586 -2.020 -16.817 -2.031 9.500 0.524 0.580 0.066 42.290 40.908
368.000 -16.251 -2.038 -16.309 -2.033 -16.583 -2.024 -16.814 -2.035 9.500 0.524 0.579 0.066 42.289 40.907
368.400 -16.247 -2.042 -16.305 -2.038 -16.580 -2.029 -16.810 -2.040 9.499 0.524 0.578 0.066 42.288 40.906
368.800 -16.244 -2.047 -16.302 -2.042 -16.576 -2.033 -16.807 -2.044 9.498 0.524 0.577 0.066 42.286 40.905
369.200 -16.240 -2.051 -16.298 -2.046 -16.573 -2.037 -16.804 -2.048 9.497 0.524 0.577 0.066 42.285 40.904
369.600 -16.237 -2.055 -16.295 -2.050 -16.569 -2.041 -16.800 -2.052 9.496 0.524 0.576 0.066 42.284 40.902
370.000 -16.233 -2.059 -16.291 -2.054 -16.566 -2.045 -16.797 -2.056 9.495 0.524 0.575 0.066 42.282 40.901
370.400 -16.230 -2.063 -16.288 -2.058 -16.563 -2.049 -16.794 -2.060 9.494 0.524 0.574 0.066 42.281 40.900
370.800 -16.226 -2.067 -16.284 -2.062 -16.559 -2.053 -16.791 -2.064 9.493 0.524 0.574 0.066 42.280 40.899
371.200 -16.223 -2.070 -16.281 -2.066 -16.556 -2.057 -16.788 -2.068 9.492 0.524 0.573 0.066 42.278 40.898
371.600 -16.219 -2.074 -16.278 -2.070 -16.553 -2.061 -16.784 -2.071 9.490 0.524 0.572 0.066 42.277 40.897
372.000 -16.216 -2.078 -16.274 -2.073 -16.549 -2.065 -16.781 -2.075 9.489 0.524 0.571 0.066 42.276 40.895
372.400 -16.212 -2.081 -16.271 -2.077 -16.546 -2.068 -16.778 -2.079 9.488 0.524 0.571 0.066 42.274 40.894
372.800 -16.209 -2.085 -16.267 -2.081 -16.543 -2.072 -16.775 -2.082 9.487 0.524 0.570 0.066 42.273 40.893
373.200 -16.205 -2.088 -16.264 -2.084 -16.539 -2.076 -16.772 -2.086 9.485 0.524 0.569 0.065 42.272 40.892
373.600 -16.202 -2.092 -16.260 -2.087 -16.536 -2.079 -16.769 -2.089 9.484 0.524 0.569 0.065 42.270 40.891
374.000 -16.199 -2.095 -16.257 -2.091 -16.533 -2.082 -16.766 -2.093 9.482 0.524 0.568 0.065 42.269 40.890
374.400 -16.195 -2.098 -16.254 -2.094 -16.530 -2.086 -16.762 -2.096 9.481 0.524 0.567 0.065 42.268 40.889
374.800 -16.192 -2.101 -16.250 -2.097 -16.526 -2.089 -16.759 -2.099 9.479 0.524 0.567 0.065 42.266 40.888
375.200 -16.188 -2.105 -16.247 -2.100 -16.523 -2.092 -16.756 -2.102 9.478 0.524 0.566 0.065 42.265 40.887
375.600 -16.185 -2.108 -16.243 -2.103 -16.520 -2.095 -16.753 -2.105 9.476 0.525 0.565 0.065 42.264 40.885
376.000 -16.182 -2.111 -16.240 -2.106 -16.517 -2.098 -16.750 -2.108 9.474 0.525 0.565 0.065 42.262 40.884
376.400 -16.178 -2.114 -16.237 -2.109 -16.514 -2.101 -16.747 -2.111 9.473 0.525 0.564 0.065 42.261 40.883
376.800 -16.175 -2.116 -16.233 -2.112 -16.511 -2.104 -16.744 -2.114 9.471 0.525 0.563 0.065 42.260 40.882
377.200 -16.171 -2.119 -16.230 -2.115 -16.507 -2.107 -16.741 -2.117 9.469 0.525 0.563 0.065 42.259 40.881
377.600 -16.168 -2.122 -16.227 -2.118 -16.504 -2.110 -16.738 -2.120 9.467 0.525 0.562 0.065 42.257 40.880
378.000 -16.165 -2.125 -16.223 -2.120 -16.501 -2.112 -16.736 -2.122 9.465 0.525 0.562 0.065 42.256 40.879
378.400 -16.161 -2.127 -16.220 -2.123 -16.498 -2.115 -16.733 -2.125 9.463 0.525 0.561 0.065 42.255 40.878
378.800 -16.158 -2.130 -16.217 -2.126 -16.495 -2.118 -16.730 -2.127 9.462 0.525 0.560 0.065 42.254 40.877
379.200 -16.155 -2.132 -16.214 -2.128 -16.492 -2.120 -16.727 -2.130 9.459 0.525 0.560 0.065 42.252 40.876
379.600 -16.151 -2.134 -16.210 -2.130 -16.489 -2.123 -16.724 -2.132 9.457 0.525 0.559 0.065 42.251 40.875
380.000 -16.148 -2.137 -16.207 -2.133 -16.486 -2.125 -16.721 -2.134 9.455 0.525 0.559 0.065 42.250 40.874
380.400 -16.145 -2.139 -16.204 -2.135 -16.483 -2.127 -16.718 -2.137 9.453 0.525 0.558 0.065 42.249 40.873
380.800 -16.141 -2.141 -16.200 -2.137 -16.480 -2.129 -16.715 -2.139 9.451 0.525 0.558 0.065 42.247 40.872
381.200 -16.138 -2.143 -16.197 -2.139 -16.477 -2.131 -16.713 -2.141 9.449 0.525 0.557 0.065 42.246 40.871
381.600 -16.135 -2.145 -16.194 -2.141 -16.474 -2.134 -16.710 -2.143 9.447 0.525 0.557 0.065 42.245 40.871
382.000 -16.131 -2.147 -16.191 -2.143 -16.471 -2.136 -16.707 -2.145 9.444 0.525 0.556 0.065 42.244 40.870
382.400 -16.128 -2.149 -16.187 -2.145 -16.468 -2.137 -16.704 -2.147 9.442 0.525 0.556 0.064 42.242 40.869
382.800 -16.125 -2.151 -16.184 -2.147 -16.465 -2.139 -16.702 -2.149 9.439 0.525 0.555 0.064 42.241 40.868
383.200 -16.122 -2.152 -16.181 -2.149 -16.462 -2.141 -16.699 -2.150 9.437 0.525 0.555 0.064 42.240 40.867
383.600 -16.118 -2.154 -16.178 -2.150 -16.459 -2.143 -16.696 -2.152 9.435 0.525 0.554 0.064 42.239 40.866
384.000 -16.115 -2.156 -16.175 -2.152 -16.456 -2.144 -16.694 -2.154 9.432 0.525 0.554 0.064 42.238 40.865
384.400 -16.112 -2.157 -16.171 -2.153 -16.453 -2.146 -16.691 -2.155 9.429 0.525 0.553 0.064 42.236 40.864
384.800 -16.109 -2.159 -16.168 -2.155 -16.450 -2.147 -16.688 -2.157 9.427 0.525 0.553 0.064 42.235 40.863
385.200 -16.105 -2.160 -16.165 -2.156 -16.447 -2.149 -16.686 -2.158 9.424 0.525 0.552 0.064 42.234 40.863
385.600 -16.102 -2.161 -16.162 -2.158 -16.444 -2.150 -16.683 -2.159 9.422 0.525 0.552 0.064 42.233 40.862
386.000 -16.099 -2.163 -16.159 -2.159 -16.441 -2.151 -16.680 -2.160 9.419 0.524 0.551 0.064 42.232 40.861
386.400 -16.096 -2.164 -16.156 -2.160 -16.439 -2.153 -16.678 -2.162 9.416 0.524 0.551 0.064 42.231 40.860
386.800 -16.093 -2.165 -16.152 -2.161 -16.436 -2.154 -16.675 -2.163 9.413 0.524 0.551 0.064 42.229 40.859
387.200 -16.089 -2.166 -16.149 -2.162 -16.433 -2.155 -16.673 -2.164 9.410 0.524 0.550 0.064 42.228 40.858
387.600 -16.086 -2.167 -16.146 -2.163 -16.430 -2.156 -16.670 -2.165 9.407 0.524 0.550 0.064 42.227 40.858
388.000 -16.083 -2.168 -16.143 -2.164 -16.427 -2.157 -16.668 -2.166 9.405 0.524 0.549 0.064 42.226 40.857
388.400 -16.080 -2.169 -16.140 -2.165 -16.424 -2.158 -16.665 -2.166 9.402 0.524 0.549 0.064 42.225 40.856
388.800 -16.077 -2.169 -16.137 -2.166 -16.422 -2.158 -16.663 -2.167 9.399 0.524 0.549 0.064 42.224 40.855
389.200 -16.073 -2.170 -16.134 -2.166 -16.419 -2.159 -16.660 -2.168 9.395 0.524 0.548 0.064 42.223 40.855
389.600 -16.070 -2.171 -16.131 -2.167 -16.416 -2.160 -16.658 -2.168 9.392 0.524 0.548 0.064 42.221 40.854
390.000 -16.067 -2.171 -16.128 -2.167 -16.413 -2.160 -16.656 -2.169 9.389 0.524 0.548 0.064 42.220 40.853
390.400 -16.064 -2.172 -16.124 -2.168 -16.411 -2.161 -16.653 -2.169 9.386 0.524 0.547 0.064 42.219 40.852
390.800 -16.061 -2.172 -16.121 -2.168 -16.408 -2.161 -16.651 -2.170 9.383 0.524 0.547 0.064 42.218 40.852
391.200 -16.058 -2.172 -16.118 -2.169 -16.405 -2.161 -16.648 -2.170 9.379 0.524 0.547 0.064 42.217 40.851
391.600 -16.055 -2.172 -16.115 -2.169 -16.403 -2.162 -16.646 -2.170 9.376 0.524 0.546 0.064 42.216 40.850
392.000 -16.052 -2.173 -16.112 -2.169 -16.400 -2.162 -16.644 -2.171 9.373 0.524 0.546 0.064 42.215 40.850
392.400 -16.048 -2.173 -16.109 -2.169 -16.397 -2.162 -16.641 -2.171 9.369 0.524 0.546 0.064 42.214 40.849
392.800 -16.045 -2.173 -16.106 -2.169 -16.395 -2.162 -16.639 -2.171 9.366 0.524 0.545 0.064 42.213 40.848
393.200 -16.042 -2.173 -16.103 -2.169 -16.392 -2.162 -16.637 -2.171 9.362 0.524 0.545 0.064 42.212 40.848
393.600 -16.039 -2.173 -16.100 -2.169 -16.390 -2.162 -16.635 -2.171 9.359 0.524 0.545 0.064 42.210 40.847
394.000 -16.036 -2.172 -16.097 -2.169 -16.387 -2.162 -16.632 -2.170 9.355 0.524 0.545 0.064 42.209 40.846
394.400 -16.033 -2.172 -16.094 -2.168 -16.384 -2.161 -16.630 -2.170 9.352 0.523 0.544 0.064 42.208 40.846
394.800 -16.030 -2.172 -16.091 -2.168 -16.382 -2.161 -16.628 -2.170 9.348 0.523 0.544 0.064 42.207 40.845
395.200 -16.027 -2.171 -16.088 -2.168 -16.379 -2.161 -16.626 -2.169 9.344 0.523 0.544 0.064 42.206 40.845
395.600 -16.024 -2.171 -16.085 -2.167 -16.377 -2.160 -16.623 -2.169 9.341 0.523 0.544 0.064 42.205 40.844
396.000 -16.021 -2.170 -16.082 -2.167 -16.374 -2.160 -16.621 -2.168 9.337 0.523 0.544 0.064 42.204 40.843
396.400 -16.018 -2.170 -16.079 -2.166 -16.372 -2.159 -16.619 -2.168 9.333 0.523 0.543 0.064 42.203 40.843
396.800 -16.015 -2.169 -16.076 -2.165 -16.369 -2.158 -16.617 -2.167 9.329 0.523 0.543 0.064 42.202 40.842
397.200 -16.012 -2.168 -16.074 -2.165 -16.367 -2.158 -16.615 -2.166 9.325 0.523 0.543 0.064 42.201 40.842
397.600 -16.009 -2.167 -16.071 -2.164 -16.364 -2.157 -16.613 -2.165 9.321 0.523 0.543 0.064 42.200 40.841
398.000 -16.006 -2.166 -16.068 -2.163 -16.362 -2.156 -16.611 -2.164 9.318 0.523 0.543 0.064 42.199 40.841
398.400 -16.003 -2.165 -16.065 -2.162 -16.359 -2.155 -16.609 -2.163 9.313 0.523 0.542 0.064 42.198 40.840
398.800 -16.000 -2.164 -16.062 -2.161 -16.357 -2.154 -16.607 -2.162 9.309 0.523 0.542 0.064 42.197 40.840
399.200 -15.997 -2.163 -16.059 -2.160 -16.354 -2.153 -16.605 -2.161 9.305 0.522 0.542 0.064 42.196 40.839
399.600 -15.994 -2.162 -16.056 -2.158 -16.352 -2.152 -16.603 -2.160 9.301 0.522 0.542 0.064 42.195 40.839
400.000 -15.991 -2.161 -16.053 -2.157 -16.350 -2.150 -16.601 -2.159 9.297 0.522 0.542 0.065 42.194 40.838
400.400 -15.988 -2.159 -16.050 -2.156 -16.347 -2.149 -16.599 -2.157 9.293 0.522 0.542 0.065 42.193 40.838
400.800 -15.985 -2.158 -16.048 -2.154 -16.345 -2.148 -16.597 -2.156 9.289 0.522 0.542 0.065 42.192 40.837
401.200 -15.982 -2.156 -16.045 -2.153 -16.342 -2.146 -16.595 -2.154 9.284 0.522 0.541 0.065 42.191 40.837
401.600 -15.979 -2.155 -16.042 -2.151 -16.340 -2.144 -16.593 -2.153 9.280 0.522 0.541 0.065 42.190 40.836
402.000 -15.976 -2.153 -16.039 -2.150 -16.338 -2.143 -16.591 -2.151 9.276 0.522 0.541 0.065 42.189 40.836
402.400 -15.973 -2.151 -16.036 -2.148 -16.335 -2.141 -16.589 -2.150 9.271 0.522 0.541 0.065 42.188 40.836
402.800 -15.970 -2.150 -16.033 -2.146 -16.333 -2.139 -16.587 -2.148 9.267 0.521 0.541 0.065 42.187 40.835
403.200 -15.967 -2.148 -16.031 -2.144 -16.331 -2.137 -16.585 -2.146 9.262 0.521 0.541 0.065 42.186 40.835
403.600 -15.964 -2.146 -16.028 -2.142 -16.329 -2.135 -16.584 -2.144 9.258 0.521 0.541 0.065 42.185 40.834
404.000 -15.961 -2.144 -16.025 -2.140 -16.326 -2.133 -16.582 -2.142 9.253 0.521 0.541 0.065 42.184 40.834
404.400 -15.959 -2.142 -16.022 -2.138 -16.324 -2.131 -16.580 -2.140 9.248 0.521 0.541 0.065 42.183 40.834
404.800 -15.956 -2.140 -16.019 -2.136 -16.322 -2.129 -16.578 -2.138 9.244 0.521 0.541 0.065 42.182 40.833
405.200 -15.953 -2.137 -16.017 -2.134 -16.320 -2.127 -16.576 -2.135 9.239 0.521 0.541 0.065 42.181 40.833
405.600 -15.950 -2.135 -16.014 -2.131 -16.317 -2.125 -16.575 -2.133 9.234 0.521 0.541 0.065 42.181 40.833
406.000 -15.947 -2.133 -16.011 -2.129 -16.315 -2.122 -16.573 -2.131 9.230 0.520 0.541 0.065 42.180 40.832
406.400 -15.944 -2.130 -16.008 -2.127 -16.313 -2.120 -16.571 -2.128 9.225 0.520 0.541 0.065 42.179 40.832
406.800 -15.941 -2.128 -16.006 -2.124 -16.311 -2.117 -16.570 -2.126 9.220 0.520 0.541 0.065 42.178 40.832
407.200 -15.938 -2.125 -16.003 -2.121 -16.309 -2.115 -16.568 -2.123 9.215 0.520 0.541 0.065 42.177 40.832
407.600 -15.936 -2.122 -16.000 -2.119 -16.307 -2.112 -16.566 -2.120 9.210 0.520 0.541 0.065 42.176 40.831
408.000 -15.933 -2.120 -15.997 -2.116 -16.304 -2.109 -16.565 -2.118 9.205 0.520 0.541 0.065 42.175 40.831
408.400 -15.930 -2.117 -15.995 -2.113 -16.302 -2.106 -16.563 -2.115 9.200 0.520 0.541 0.065 42.174 40.831
408.800 -15.927 -2.114 -15.992 -2.110 -16.300 -2.103 -16.561 -2.112 9.195 0.519 0.541 0.065 42.173 40.831
409.200 -15.924 -2.111 -15.989 -2.107 -16.298 -2.100 -16.560 -2.109 9.190 0.519 0.541 0.066 42.173 40.831
409.600 -15.922 -2.108 -15.987 -2.104 -16.296 -2.097 -16.558 -2.106 9.185 0.519 0.541 0.066 42.172 40.830
410.000 -15.919 -2.105 -15.984 -2.101 -16.294 -2.094 -16.557 -2.103 9.180 0.519 0.541 0.066 42.171 40.830
410.400 -15.916 -2.101 -15.981 -2.098 -16.292 -2.091 -16.555 -2.099 9.175 0.519 0.541 0.066 42.170 40.830
410.800 -15.913 -2.098 -15.979 -2.095 -16.290 -2.088 -16.554 -2.096 9.169 0.519 0.541 0.066 42.169 40.830
411.200 -15.910 -2.095 -15.976 -2.091 -16.288 -2.084 -16.552 -2.093 9.164 0.519 0.541 0.066 42.168 40.830
411.600 -15.908 -2.091 -15.973 -2.088 -16.286 -2.081 -16.551 -2.089 9.159 0.518 0.542 0.066 42.167 40.830
412.000 -15.905 -2.088 -15.971 -2.084 -16.284 -2.077 -16.549 -2.086 9.153 0.518 0.542 0.066 42.167 40.829
412.400 -15.902 -2.084 -15.968 -2.081 -16.282 -2.074 -16.548 -2.082 9.148 0.518 0.542 0.066 42.166 40.829
412.800 -15.899 -2.081 -15.965 -2.077 -16.280 -2.070 -16.546 -2.079 9.143 0.518 0.542 0.066 42.165 40.829
413.200 -15.897 -2.077 -15.963 -2.073 -16.278 -2.066 -16.545 -2.075 9.137 0.518 0.542 0.066 42.164 40.829
413.600 -15.894 -2.073 -15.960 -2.069 -16.276 -2.062 -16.543 -2.071 9.132 0.517 0.542 0.066 42.163 40.829
414.000 -15.891 -2.069 -15.958 -2.066 -16.274 -2.059 -16.542 -2.067 9.126 0.517 0.542 0.066 42.162 40.829
414.400 -15.888 -2.065 -15.955 -2.062 -16.272 -2.055 -16.541 -2.063 9.120 0.517 0.543 0.066 42.162 40.829
414.800 -15.886 -2.061 -15.952 -2.058 -16.270 -2.050 -16.539 -2.059 9.115 0.517 0.543 0.066 42.161 40.829
415.200 -15.883 -2.057 -15.950 -2.053 -16.268 -2.046 -16.538 -2.055 9.109 0.517 0.543 0.067 42.160 40.829
415.600 -15.880 -2.053 -15.947 -2.049 -16.267 -2.042 -16.537 -2.051 9.104 0.517 0.543 0.067 42.159 40.829
416.000 -15.877 -2.049 -15.945 -2.045 -16.265 -2.038 -16.535 -2.047 9.098 0.516 0.543 0.067 42.159 40.829
416.400 -15.875 -2.044 -15.942 -2.041 -16.263 -2.034 -16.534 -2.042 9.092 0.516 0.543 0.067 42.158 40.829
416.800 -15.872 -2.040 -15.940 -2.036 -16.261 -2.029 -16.533 -2.038 9.086 0.516 0.544 0.067 42.157 40.829
417.200 -15.869 -2.036 -15.937 -2.032 -16.259 -2.025 -16.532 -2.033 9.081 0.516 0.544 0.067 42.156 40.829
417.600 -15.867 -2.031 -15.935 -2.027 -16.257 -2.020 -16.530 -2.029 9.075 0.516 0.544 0.067 42.155 40.829
418.000 -15.864 -2.026 -15.932 -2.023 -16.256 -2.015 -16.529 -2.024 9.069 0.515 0.544 0.067 42.155 40.829
418.400 -15.861 -2.022 -15.930 -2.018 -16.254 -2.011 -16.528 -2.020 9.063 0.515 0.545 0.067 42.154 40.829
418.800 -15.859 -2.017 -15.927 -2.013 -16.252 -2.006 -16.527 -2.015 9.057 0.515 0.545 0.067 42.153 40.829
419.200 -15.856 -2.012 -15.925 -2.008 -16.250 -2.001 -16.526 -2.010 9.051 0.515 0.545 0.067 42.152 40.829
419.600 -15.853 -2.007 -15.922 -2.003 -16.249 -1.996 -16.524 -2.005 9.045 0.514 0.545 0.067 42.152 40.829
420.000 -15.851 -2.002 -15.920 -1.998 -16.247 -1.991 -16.523 -2.000 9.039 0.514 0.546 0.068 42.151 40.830
420.400 -15.848 -1.997 -15.917 -1.993 -16.245 -1.986 -16.522 -1.995 9.033 0.514 0.546 0.068 42.150 40.830
420.800 -15.845 -1.992 -15.915 -1.988 -16.243 -1.981 -16.521 -1.990 9.026 0.514 0.546 0.068 42.150 40.830
421.200 -15.843 -1.987 -15.912 -1.983 -16.242 -1.975 -16.520 -1.984 9.020 0.514 0.547 0.068 42.149 40.830
421.600 -15.840 -1.981 -15.910 -1.977 -16.240 -1.970 -16.519 -1.979 9.014 0.513 0.547 0.068 42.148 40.830
422.000 -15.837 -1.976 -15.907 -1.972 -16.238 -1.965 -16.518 -1.974 9.008 0.513 0.547 0.068 42.148 40.830
422.400 -15.835 -1.970 -15.905 -1.967 -16.237 -1.959 -16.517 -1.968 9.001 0.513 0.547 0.068 42.147 40.831
422.800 -15.832 -1.965 -15.902 -1.961 -16.235 -1.953 -16.516 -1.963 8.995 0.513 0.548 0.068 42.146 40.831
423.200 -15.830 -1.959 -15.900 -1.955 -16.233 -1.948 -16.515 -1.957 8.989 0.512 0.548 0.068 42.145 40.831
423.600 -15.827 -1.954 -15.897 -1.950 -16.232 -1.942 -16.514 -1.951 8.982 0.512 0.549 0.068 42.145 40.831
424.000 -15.824 -1.948 -15.895 -1.944 -16.230 -1.936 -16.513 -1.946 8.976 0.512 0.549 0.069 42.144 40.832
424.400 -15.822 -1.942 -15.893 -1.938 -16.229 -1.930 -16.512 -1.940 8.969 0.512 0.549 0.069 42.143 40.832
424.800 -15.819 -1.936 -15.890 -1.932 -16.227 -1.924 -16.511 -1.934 8.963 0.511 0.550 0.069 42.143 40.832
425.200 -15.817 -1.930 -15.888 -1.926 -16.225 -1.918 -16.510 -1.928 8.956 0.511 0.550 0.069 42.142 40.832
425.600 -15.814 -1.924 -15.885 -1.920 -16.224 -1.912 -16.509 -1.922 8.950 0.511 0.550 0.069 42.141 40.833
426.000 -15.812 -1.918 -15.883 -1.914 -16.222 -1.906 -16.508 -1.916 8.943 0.510 0.551 0.069 42.141 40.833
426.400 -15.809 -1.912 -15.881 -1.908 -16.221 -1.900 -16.508 -1.909 8.936 0.510 0.551 0.069 42.140 40.833
426.800 -15.806 -1.905 -15.878 -1.901 -16.219 -1.893 -16.507 -1.903 8.930 0.510 0.552 0.069 42.140 40.834
427.200 -15.804 -1.899 -15.876 -1.895 -16.218 -1.887 -16.506 -1.897 8.923 0.510 0.552 0.069 42.139 40.834
427.600 -15.801 -1.893 -15.874 -1.888 -16.216 -1.880 -16.505 -1.890 8.916 0.509 0.553 0.070 42.138 40.834
428.000 -15.799 -1.886 -15.871 -1.882 -16.215 -1.874 -16.504 -1.884 8.909 0.509 0.553 0.070 42.138 40.835
428.400 -15.796 -1.879 -15.869 -1.875 -16.213 -1.867 -16.503 -1.877 8.902 0.509 0.554 0.070 42.137 40.835
428.800 -15.794 -1.873 -15.867 -1.869 -16.212 -1.861 -16.503 -1.870 8.896 0.508 0.554 0.070 42.137 40.836
429.200 -15.791 -1.866 -15.864 -1.862 -16.210 -1.854 -16.502 -1.864 8.889 0.508 0.554 0.070 42.136 40.836
429.600 -15.789 -1.859 -15.862 -1.855 -16.209 -1.847 -16.501 -1.857 8.882 0.508 0.555 0.070 42.135 40.836
430.000 -15.786 -1.852 -15.860 -1.848 -16.208 -1.840 -16.501 -1.850 8.875 0.508 0.555 0.070 42.135 40.837
430.400 -15.784 -1.845 -15.857 -1.841 -16.206 -1.833 -16.500 -1.843 8.868 0.507 0.556 0.070 42.134 40.837
430.800 -15.781 -1.838 -15.855 -1.834 -16.205 -1.826 -16.499 -1.836 8.861 0.507 0.556 0.071 42.134 40.838
431.200 -15.779 -1.831 -15.853 -1.827 -16.203 -1.819 -16.498 -1.829 8.854 0.507 0.557 0.071 42.133 40.838
431.600 -15.776 -1.824 -15.850 -1.820 -16.202 -1.811 -16.498 -1.821 8.846 0.506 0.558 0.071 42.132 40.839
432.000 -15.774 -1.817 -15.848 -1.812 -16.201 -1.804 -16.497 -1.814 8.839 0.506 0.558 0.071 42.132 40.839
432.400 -15.771 -1.809 -15.846 -1.805 -16.199 -1.796 -16.497 -1.807 8.832 0.506 0.559 0.071 42.131 40.840
432.800 -15.769 -1.802 -15.843 -1.797 -16.198 -1.789 -16.496 -1.799 8.825 0.505 0.559 0.071 42.131 40.840
433.200 -15.766 -1.794 -15.841 -1.790 -16.197 -1.781 -16.495 -1.792 8.818 0.505 0.560 0.071 42.130 40.841
433.600 -15.764 -1.787 -15.839 -1.782 -16.195 -1.774 -16.495 -1.784 8.810 0.505 0.560 0.072 42.130 40.841
434.000 -15.761 -1.779 -15.837 -1.775 -16.194 -1.766 -16.494 -1.776 8.803 0.504 0.561 0.072 42.129 40.842
434.400 -15.759 -1.771 -15.834 -1.767 -16.193 -1.758 -16.494 -1.769 8.796 0.504 0.562 0.072 42.129 40.842
434.800 -15.756 -1.763 -15.832 -1.759 -16.192 -1.750 -16.493 -1.761 8.788 0.504 0.562 0.072 42.128 40.843
435.200 -15.754 -1.756 -15.830 -1.751 -16.190 -1.742 -16.493 -1.753 8.781 0.503 0.563 0.072 42.128 40.844
435.600 -15.751 -1.748 -15.828 -1.743 -16.189 -1.734 -16.492 -1.745 8.774 0.503 0.563 0.072 42.127 40.844
436.000 -15.749 -1.740 -15.825 -1.735 -16.188 -1.726 -16.492 -1.737 8.766 0.502 0.564 0.072 42.127 40.845
436.400 -15.746 -1.731 -15.823 -1.727 -16.187 -1.718 -16.491 -1.729 8.759 0.502 0.565 0.073 42.126 40.845
436.800 -15.744 -1.723 -15.821 -1.719 -16.185 -1.710 -16.491 -1.721 8.751 0.502 0.565 0.073 42.126 40.846
437.200 -15.742 -1.715 -15.819 -1.710 -16.184 -1.701 -16.490 -1.712 8.743 0.501 0.566 0.073 42.125 40.847
437.600 -15.739 -1.707 -15.816 -1.702 -16.183 -1.693 -16.490 -1.704 8.736 0.501 0.567 0.073 42.125 40.847
438.000 -15.737 -1.698 -15.814 -1.693 -16.182 -1.684 -16.490 -1.695 8.728 0.501 0.567 0.073 42.124 40.848
438.400 -15.734 -1.690 -15.812 -1.685 -16.181 -1.676 -16.489 -1.687 8.721 0.500 0.568 0.073 42.124 40.849
438.800 -15.732 -1.681 -15.810 -1.676 -16.180 -1.667 -16.489 -1.678 8.713 0.500 0.569 0.073 42.123 40.849
439.200 -15.729 -1.672 -15.808 -1.668 -16.178 -1.658 -16.488 -1.670 8.705 0.499 0.569 0.074 42.123 40.850
439.600 -15.727 -1.664 -15.805 -1.659 -16.177 -1.649 -16.488 -1.661 8.697 0.499 0.570 0.074 42.122 40.851
440.000 -15.725 -1.655 -15.803 -1.650 -16.176 -1.641 -16.488 -1.652 8.690 0.499 0.571 0.074 42.122 40.851
440.400 -15.722 -1.646 -15.801 -1.641 -16.175 -1.632 -16.487 -1.643 8.682 0.498 0.572 0.074 42.122 40.852
440.800 -15.720 -1.637 -15.799 -1.632 -16.174 -1.622 -16.487 -1.634 8.674 0.498 0.572 0.074 42.121 40.853
441.200 -15.717 -1.628 -15.797 -1.623 -16.173 -1.613 -16.487 -1.625 8.666 0.497 0.573 0.074 42.121 40.854
441.600 -15.715 -1.619 -15.794 -1.614 -16.172 -1.604 -16.487 -1.616 8.658 0.497 0.574 0.075 42.120 40.854
442.000 -15.712 -1.610 -15.792 -1.605 -16.171 -1.595 -16.486 -1.607 8.650 0.496 0.575 0.075 42.120 40.855
442.400 -15.710 -1.601 -15.790 -1.595 -16.170 -1.585 -16.486 -1.597 8.642 0.496 0.575 0.075 42.119 40.856
442.800 -15.708 -1.591 -15.788 -1.586 -16.169 -1.576 -16.486 -1.588 8.634 0.495 0.576 0.075 42.119 40.857
443.200 -15.705 -1.582 -15.786 -1.577 -16.168 -1.566 -16.486 -1.579 8.626 0.495 0.577 0.075 42.119 40.858
443.600 -15.703 -1.572 -15.784 -1.567 -16.167 -1.557 -16.485 -1.569 8.618 0.495 0.578 0.075 42.118 40.858
444.000 -15.700 -1.563 -15.782 -1.557 -16.166 -1.547 -16.485 -1.560 8.610 0.494 0.579 0.076 42.118 40.859
444.400 -15.698 -1.553 -15.779 -1.548 -16.165 -1.537 -16.485 -1.550 8.602 0.494 0.580 0.076 42.117 40.860
444.800 -15.696 -1.543 -15.777 -1.538 -16.164 -1.528 -16.485 -1.540 8.594 0.493 0.580 0.076 42.117 40.861
445.200 -15.693 -1.534 -15.775 -1.528 -16.163 -1.518 -16.485 -1.530 8.586 0.493 0.581 0.076 42.117 40.862
445.600 -15.691 -1.524 -15.773 -1.518 -16.162 -1.508 -16.485 -1.520 8.578 0.492 0.582 0.076 42.116 40.863
446.000 -15.688 -1.514 -15.771 -1.508 -16.161 -1.498 -16.485 -1.510 8.570 0.492 0.583 0.077 42.116 40.863
446.400 -15.686 -1.504 -15.769 -1.498 -16.160 -1.487 -16.484 -1.500 8.561 0.491 0.584 0.077 42.116 40.864
446.800 -15.684 -1.494 -15.767 -1.488 -16.159 -1.477 -16.484 -1.490 8.553 0.491 0.585 0.077 42.115 40.865
447.200 -15.681 -1.483 -15.764 -1.478 -16.158 -1.467 -16.484 -1.480 8.545 0.490 0.586 0.077 42.115 40.866
447.600 -15.679 -1.473 -15.762 -1.468 -16.157 -1.456 -16.484 -1.470 8.536 0.489 0.587 0.077 42.115 40.867
448.000 -15.677 -1.463 -15.760 -1.457 -16.156 -1.446 -16.484 -1.459 8.528 0.489 0.588 0.077 42.114 40.868
448.400 -15.674 -1.453 -15.758 -1.447 -16.155 -1.435 -16.484 -1.449 8.520 0.488 0.588 0.078 42.114 40.869
448.800 -15.672 -1.442 -15.756 -1.436 -16.155 -1.425 -16.484 -1.438 8.511 0.488 0.589 0.078 42.114 40.870
449.200 -15.669 -1.432 -15.754 -1.426 -16.154 -1.414 -16.484 -1.428 8.503 0.487 0.590 0.078 42.113 40.870
449.600 -15.667 -1.421 -15.752 -1.415 -16.153 -1.403 -16.484 -1.417 8.494 0.487 0.591 0.078 42.113 40.871
450.000 -15.665 -1.410 -15.750 -1.404 -16.152 -1.393 -16.484 -1.406 8.486 0.486 0.592 0.078 42.113 40.872
450.400 -15.662 -1.399 -15.748 -1.393 -16.151 -1.382 -16.484 -1.396 8.477 0.486 0.593 0.079 42.112 40.873
450.800 -15.660 -1.389 -15.745 -1.383 -16.150 -1.371 -16.484 -1.385 8.469 0.485 0.594 0.079 42.112 40.874
451.200 -15.658 -1.378 -15.743 -1.372 -16.150 -1.360 -16.484 -1.374 8.460 0.484 0.595 0.079 42.112 40.875
451.600 -15.655 -1.367 -15.741 -1.360 -16.149 -1.348 -16.484 -1.363 8.452 0.484 0.596 0.079 42.112 40.876
452.000 -15.653 -1.356 -15.739 -1.349 -16.148 -1.337 -16.484 -1.352 8.443 0.483 0.597 0.079 42.111 40.877
452.400 -15.650 -1.345 -15.737 -1.338 -16.147 -1.326 -16.484 -1.340 8.435 0.482 0.598 0.079 42.111 40.878
452.800 -15.648 -1.333 -15.735 -1.327 -16.146 -1.314 -16.484 -1.329 8.426 0.482 0.599 0.080 42.111 40.879
453.200 -15.646 -1.322 -15.733 -1.316 -16.146 -1.303 -16.485 -1.318 8.417 0.481 0.600 0.080 42.110 40.880
453.600 -15.643 -1.311 -15.731 -1.304 -16.145 -1.291 -16.485 -1.306 8.409 0.481 0.601 0.080 42.110 40.881
454.000 -15.641 -1.299 -15.729 -1.293 -16.144 -1.280 -16.485 -1.295 8.400 0.480 0.603 0.080 42.110 40.882
454.400 -15.638 -1.288 -15.727 -1.281 -16.143 -1.268 -16.485 -1.283 8.391 0.479 0.604 0.080 42.110 40.883
454.800 -15.636 -1.276 -15.725 -1.269 -16.143 -1.256 -16.485 -1.272 8.382 0.478 0.605 0.081 42.109 40.884
455.200 -15.634 -1.265 -15.723 -1.258 -16.142 -1.244 -16.485 -1.260 8.374 0.478 0.606 0.081 42.109 40.885
455.600 -15.631 -1.253 -15.720 -1.246 -16.141 -1.233 -16.485 -1.248 8.365 0.477 0.607 0.081 42.109 40.886
456.000 -15.629 -1.241 -15.718 -1.234 -16.141 -1.221 -16.486 -1.236 8.356 0.476 0.608 0.081 42.109 40.886
456.400 -15.627 -1.229 -15.716 -1.222 -16.140 -1.208 -16.486 -1.225 8.347 0.476 0.609 0.081 42.108 40.887
456.800 -15.624 -1.217 -15.714 -1.210 -16.139 -1.196 -16.486 -1.213 8.338 0.475 0.610 0.082 42.108 40.888
457.200 -15.622 -1.205 -15.712 -1.198 -16.139 -1.184 -16.486 -1.201 8.330 0.474 0.611 0.082 42.108 40.889
457.600 -15.619 -1.193 -15.710 -1.186 -16.138 -1.172 -16.486 -1.188 8.321 0.473 0.613 0.082 42.108 40.890
458.000 -15.617 -1.181 -15.708 -1.174 -16.137 -1.159 -16.486 -1.176 8.312 0.473 0.614 0.082 42.108 40.891
458.400 -15.615 -1.169 -15.706 -1.161 -16.137 -1.147 -16.487 -1.164 8.303 0.472 0.615 0.082 42.107 40.892
458.800 -15.612 -1.157 -15.704 -1.149 -16.136 -1.134 -16.487 -1.152 8.294 0.471 0.616 0.083 42.107 40.893
459.200 -15.610 -1.144 -15.702 -1.137 -16.136 -1.122 -16.487 -1.139 8.285 0.470 0.617 0.083 42.107 40.894
459.600 -15.607 -1.132 -15.700 -1.124 -16.135 -1.109 -16.487 -1.127 8.276 0.469 0.618 0.083 42.107 40.895
460.000 -15.605 -1.119 -15.698 -1.112 -16.134 -1.096 -16.488 -1.114 8.267 0.468 0.620 0.083 42.107 40.896
460.400 -15.603 -1.107 -15.695 -1.099 -16.134 -1.084 -16.488 -1.101 8.258 0.468 0.621 0.083 42.106 40.897
460.800 -15.600 -1.094 -15.693 -1.086 -16.133 -1.071 -16.488 -1.089 8.249 0.467 0.622 0.083 42.106 40.898
461.200 -15.598 -1.082 -15.691 -1.073 -16.133 -1.058 -16.488 -1.076 8.240 0.466 0.623 0.084 42.106 40.899
461.600 -15.595 -1.069 -15.689 -1.061 -16.132 -1.045 -16.488 -1.063 8.231 0.465 0.625 0.084 42.106 40.900
462.000 -15.593 -1.056 -15.687 -1.048 -16.131 -1.031 -16.489 -1.050 8.222 0.464 0.626 0.084 42.106 40.900
462.400 -15.590 -1.043 -15.685 -1.035 -16.131 -1.018 -16.489 -1.037 8.213 0.463 0.627 0.084 42.106 40.901
462.800 -15.588 -1.030 -15.683 -1.022 -16.130 -1.005 -16.489 -1.024 8.204 0.462 0.628 0.084 42.105 40.902
463.200 -15.586 -1.017 -15.681 -1.009 -16.130 -0.992 -16.489 -1.011 8.195 0.461 0.630 0.085 42.105 40.903
463.600 -15.583 -1.004 -15.679 -0.995 -16.129 -0.978 -16.490 -0.998 8.186 0.460 0.631 0.085 42.105 40.904
464.000 -15.581 -0.991 -15.677 -0.982 -16.129 -0.965 -16.490 -0.985 8.177 0.459 0.632 0.085 42.105 40.905
464.400 -15.578 -0.978 -15.675 -0.969 -16.128 -0.951 -16.490 -0.971 8.167 0.458 0.634 0.085 42.105 40.905
464.800 -15.576 -0.965 -15.672 -0.955 -16.128 -0.937 -16.490 -0.958 8.158 0.457 0.635 0.085 42.105 40.906
465.200 -15.573 -0.951 -15.670 -0.942 -16.127 -0.924 -16.491 -0.945 8.149 0.456 0.636 0.085 42.104 40.907
465.600 -15.571 -0.938 -15.668 -0.928 -16.127 -0.910 -16.491 -0.931 8.140 0.455 0.637 0.085 42.104 40.908
466.000 -15.568 -0.924 -15.666 -0.915 -16.126 -0.896 -16.491 -0.918 8.131 0.454 0.639 0.086 42.104 40.908
466.400 -15.566 -0.911 -15.664 -0.901 -16.126 -0.882 -16.491 -0.904 8.122 0.453 0.640 0.086 42.104 40.909
466.800 -15.563 -0.897 -15.662 -0.888 -16.125 -0.868 -16.492 -0.890 8.113 0.452 0.641 0.086 42.104 40.910
467.200 -15.561 -0.884 -15.660 -0.874 -16.125 -0.854 -16.492 -0.877 8.104 0.451 0.643 0.086 42.104 40.910
467.600 -15.558 -0.870 -15.657 -0.860 -16.124 -0.840 -16.492 -0.863 8.095 0.449 0.644 0.086 42.103 40.911
468.000 -15.556 -0.857 -15.655 -0.846 -16.124 -0.826 -16.492 -0.849 8.086 0.448 0.645 0.086 42.103 40.912
468.400 -15.553 -0.843 -15.653 -0.832 -16.123 -0.812 -16.492 -0.835 8.076 0.447 0.647 0.086 42.103 40.912
468.800 -15.550 -0.829 -15.651 -0.818 -16.123 -0.797 -16.493 -0.821 8.067 0.446 0.648 0.087 42.103 40.913
469.200 -15.548 -0.815 -15.649 -0.804 -16.123 -0.783 -16.493 -0.807 8.058 0.444 0.649 0.087 42.103 40.913
469.600 -15.545 -0.801 -15.647 -0.790 -16.122 -0.768 -16.493 -0.793 8.049 0.443 0.651 0.087 42.103 40.914
470.000 -15.543 -0.787 -15.644 -0.776 -16.122 -0.754 -16.493 -0.779 8.040 0.442 0.652 0.087 42.103 40.914
470.400 -15.540 -0.773 -15.642 -0.762 -16.121 -0.739 -16.493 -0.765 8.031 0.441 0.653 0.087 42.102 40.914
470.800 -15.537 -0.760 -15.640 -0.748 -16.121 -0.725 -16.493 -0.751 8.022 0.439 0.655 0.087 42.102 40.915
471.200 -15.535 -0.746 -15.638 -0.734 -16.120 -0.710 -16.493 -0.736 8.013 0.438 0.656 0.087 42.102 40.915
471.600 -15.532 -0.731 -15.635 -0.719 -16.120 -0.695 -16.493 -0.722 8.004 0.436 0.657 0.087 42.102 40.915
472.000 -15.530 -0.717 -15.633 -0.705 -16.119 -0.680 -16.494 -0.708 7.995 0.435 0.659 0.087 42.102 40.915
472.400 -15.527 -0.703 -15.631 -0.691 -16.119 -0.665 -16.494 -0.694 7.987 0.434 0.660 0.087 42.102 40.915
472.800 -15.524 -0.689 -15.629 -0.676 -16.119 -0.651 -16.494 -0.679 7.978 0.432 0.661 0.087 42.101 40.915
473.200 -15.521 -0.675 -15.626 -0.662 -16.118 -0.636 -16.494 -0.665 7.969 0.431 0.663 0.087 42.101 40.915
473.600 -15.519 -0.661 -15.624 -0.647 -16.118 -0.621 -16.493 -0.650 7.960 0.429 0.664 0.088 42.101 40.915
474.000 -15.516 -0.647 -15.622 -0.633 -16.117 -0.605 -16.493 -0.636 7.952 0.427 0.665 0.088 42.101 40.915
474.400 -15.513 -0.633 -15.619 -0.619 -16.117 -0.590 -16.493 -0.622 7.943 0.426 0.667 0.088 42.101 40.915
474.800 -15.510 -0.619 -15.617 -0.604 -16.116 -0.575 -16.493 -0.607 7.934 0.424 0.668 0.088 42.100 40.915
475.200 -15.508 -0.604 -15.615 -0.590 -16.116 -0.560 -16.493 -0.593 7.926 0.423 0.669 0.088 42.100 40.914
475.600 -15.505 -0.590 -15.612 -0.575 -16.115 -0.545 -16.493 -0.578 7.918 0.421 0.670 0.088 42.100 40.914
476.000 -15.502 -0.576 -15.610 -0.561 -16.115 -0.529 -16.492 -0.564 7.909 0.420 0.672 0.087 42.100 40.913
476.400 -15.499 -0.562 -15.607 -0.546 -16.114 -0.514 -16.492 -0.549 7.901 0.418 0.673 0.087 42.099 40.912
476.800 -15.496 -0.548 -15.605 -0.532 -16.114 -0.499 -16.492 -0.535 7.893 0.416 0.674 0.087 42.099 40.912
477.200 -15.494 -0.534 -15.602 -0.517 -16.113 -0.483 -16.491 -0.521 7.885 0.415 0.675 0.087 42.099 40.911
477.600 -15.491 -0.520 -15.600 -0.503 -16.113 -0.468 -16.491 -0.507 7.877 0.413 0.676 0.087 42.098 40.910
478.000 -15.488 -0.507 -15.598 -0.489 -16.112 -0.453 -16.490 -0.492 7.870 0.412 0.677 0.087 42.098 40.909
478.400 -15.485 -0.493 -15.595 -0.475 -16.112 -0.437 -16.490 -0.478 7.862 0.410 0.678 0.087 42.097 40.907
478.800 -15.482 -0.479 -15.592 -0.461 -16.111 -0.422 -16.489 -0.464 7.855 0.408 0.679 0.087 42.097 40.906
479.200 -15.479 -0.466 -15.590 -0.447 -16.111 -0.407 -16.488 -0.450 7.848 0.407 0.680 0.087 42.097 40.904
479.600 -15.476 -0.453 -15.587 -0.433 -16.110 -0.391 -16.487 -0.436 7.841 0.405 0.681 0.087 42.096 40.903
480.000 -15.473 -0.440 -15.585 -0.419 -16.109 -0.376 -16.487 -0.423 7.834 0.404 0.681 0.087 42.096 40.901
480.400 -15.470 -0.427 -15.582 -0.405 -16.109 -0.361 -16.486 -0.409 7.828 0.403 0.682 0.086 42.095 40.899
480.800 -15.467 -0.414 -15.579 -0.392 -16.108 -0.346 -16.485 -0.396 7.822 0.401 0.683 0.086 42.094 40.897
481.200 -15.464 -0.402 -15.577 -0.379 -16.107 -0.331 -16.483 -0.383 7.816 0.400 0.683 0.086 42.094 40.894
481.600 -15.461 -0.389 -15.574 -0.366 -16.106 -0.316 -16.482 -0.370 7.811 0.399 0.683 0.086 42.093 40.892
482.000 -15.458 -0.378 -15.571 -0.353 -16.106 -0.301 -16.481 -0.357 7.806 0.398 0.684 0.086 42.092 40.889
482.400 -15.455 -0.366 -15.568 -0.341 -16.105 -0.287 -16.480 -0.345 7.801 0.398 0.684 0.086 42.091 40.886
482.800 -15.452 -0.355 -15.566 -0.329 -16.104 -0.273 -16.478 -0.334 7.798 0.397 0.684 0.086 42.090 40.882
483.200 -15.449 -0.345 -15.563 -0.318 -16.103 -0.259 -16.477 -0.322 7.794 0.397 0.683 0.085 42.089 40.878
483.600 -15.445 -0.335 -15.560 -0.307 -16.102 -0.245 -16.475 -0.311 7.792 0.397 0.683 0.085 42.088 40.874
484.000 -15.442 -0.325 -15.557 -0.297 -16.100 -0.232 -16.473 -0.301 7.790 0.397 0.682 0.085 42.087 40.870
484.400 -15.439 -0.316 -15.554 -0.287 -16.099 -0.219 -16.471 -0.292 7.789 0.397 0.681 0.085 42.086 40.865
484.800 -15.436 -0.308 -15.552 -0.278 -16.098 -0.207 -16.469 -0.283 7.788 0.398 0.681 0.085 42.084 40.860
485.200 -15.433 -0.301 -15.549 -0.270 -16.096 -0.196 -16.467 -0.275 7.788 0.399 0.679 0.084 42.083 40.854
485.600 -15.430 -0.295 -15.546 -0.263 -16.095 -0.186 -16.465 -0.268 7.789 0.400 0.678 0.084 42.081 40.849
486.000 -15.427 -0.289 -15.543 -0.256 -16.093 -0.177 -16.462 -0.262 7.790 0.401 0.677 0.084 42.080 40.843
486.400 -15.425 -0.285 -15.540 -0.251 -16.091 -0.170 -16.460 -0.257 7.792 0.402 0.675 0.084 42.078 40.837
486.800 -15.422 -0.281 -15.538 -0.247 -16.089 -0.164 -16.457 -0.253 7.794 0.403 0.674 0.084 42.077 40.832
487.200 -15.419 -0.279 -15.535 -0.244 -16.087 -0.159 -16.455 -0.250 7.795 0.403 0.672 0.083 42.075 40.828
487.600 -15.416 -0.277 -15.532 -0.243 -16.084 -0.157 -16.452 -0.249 7.797 0.404 0.671 0.083 42.074 40.824
488.000 -15.414 -0.277 -15.530 -0.243 -16.082 -0.156 -16.449 -0.248 7.798 0.404 0.670 0.083 42.073 40.823
488.400 -15.411 -0.278 -15.527 -0.244 -16.079 -0.158 -16.446 -0.250 7.799 0.403 0.669 0.083 42.072 40.823
488.800 -15.409 -0.281 -15.525 -0.246 -16.075 -0.162 -16.443 -0.252 7.799 0.403 0.668 0.083 42.071 40.824
