"Time (MJD)" U-3520.88 U-3520.88_err UVW1-2681.67 UVW1-2681.67_err g-4671.78 g-4671.78_err i-7457.89 i-7457.89_err r-6141.12 r-6141.12_err "Temp./1e3 (K)" "Temp. Err." "Radius/1e15 (cm)" "Radius Err." "Log10(Bol. Lum)" "Log10(Bol. Err)"
-21.000 -20.582 -0.271 -20.707 -0.206 -20.120 -0.203 -19.641 -0.169 -19.232 -0.239 26.463 6.376 0.703 0.161 44.237 43.956
-20.600 -20.585 -0.265 -20.725 -0.202 -20.153 -0.198 -19.684 -0.164 -19.277 -0.233 33.660 7.016 0.585 0.106 44.495 44.178
-20.200 -20.586 -0.259 -20.743 -0.199 -20.187 -0.195 -19.726 -0.160 -19.323 -0.228 32.167 6.294 0.617 0.107 44.463 44.112
-19.800 -20.587 -0.254 -20.760 -0.196 -20.221 -0.191 -19.768 -0.156 -19.368 -0.224 30.779 5.660 0.651 0.109 44.432 44.048
-19.400 -20.586 -0.249 -20.777 -0.193 -20.255 -0.189 -19.811 -0.153 -19.414 -0.220 29.487 5.103 0.686 0.111 44.404 43.985
-19.000 -20.585 -0.244 -20.793 -0.191 -20.289 -0.186 -19.853 -0.150 -19.460 -0.217 28.286 4.613 0.723 0.112 44.377 43.926
-18.600 -20.583 -0.240 -20.808 -0.190 -20.324 -0.184 -19.895 -0.148 -19.506 -0.214 27.167 4.181 0.761 0.114 44.352 43.868
-18.200 -20.580 -0.235 -20.823 -0.188 -20.359 -0.182 -19.937 -0.146 -19.552 -0.211 26.125 3.801 0.802 0.117 44.329 43.813
-17.800 -20.576 -0.232 -20.838 -0.187 -20.394 -0.180 -19.978 -0.144 -19.598 -0.209 25.154 3.467 0.844 0.119 44.307 43.759
-17.400 -20.571 -0.228 -20.851 -0.186 -20.428 -0.178 -20.020 -0.143 -19.644 -0.206 24.248 3.171 0.887 0.122 44.288 43.709
-17.000 -20.566 -0.224 -20.865 -0.186 -20.463 -0.176 -20.061 -0.142 -19.690 -0.205 23.402 2.910 0.933 0.125 44.269 43.660
-16.600 -20.560 -0.221 -20.877 -0.185 -20.497 -0.175 -20.102 -0.142 -19.736 -0.203 22.611 2.679 0.980 0.128 44.253 43.613
-16.200 -20.553 -0.218 -20.889 -0.184 -20.532 -0.173 -20.143 -0.141 -19.781 -0.201 21.872 2.474 1.029 0.131 44.237 43.569
-15.800 -20.545 -0.215 -20.901 -0.184 -20.566 -0.171 -20.183 -0.141 -19.826 -0.200 21.179 2.292 1.080 0.135 44.223 43.527
-15.400 -20.536 -0.211 -20.912 -0.183 -20.599 -0.170 -20.223 -0.141 -19.871 -0.198 20.530 2.130 1.133 0.139 44.211 43.486
-15.000 -20.527 -0.208 -20.922 -0.183 -20.633 -0.168 -20.262 -0.140 -19.916 -0.197 19.921 1.986 1.187 0.143 44.199 43.448
-14.600 -20.517 -0.205 -20.932 -0.182 -20.666 -0.166 -20.301 -0.140 -19.960 -0.195 19.348 1.858 1.244 0.148 44.189 43.412
-14.200 -20.506 -0.202 -20.942 -0.181 -20.698 -0.163 -20.339 -0.140 -20.004 -0.193 18.810 1.742 1.302 0.153 44.180 43.377
-13.800 -20.495 -0.198 -20.951 -0.180 -20.730 -0.161 -20.377 -0.140 -20.047 -0.192 18.303 1.639 1.362 0.158 44.171 43.345
-13.400 -20.483 -0.195 -20.959 -0.179 -20.762 -0.158 -20.414 -0.140 -20.090 -0.190 17.824 1.546 1.424 0.164 44.164 43.314
-13.000 -20.470 -0.191 -20.967 -0.177 -20.792 -0.156 -20.450 -0.140 -20.132 -0.188 17.373 1.463 1.488 0.170 44.157 43.285
-12.600 -20.456 -0.187 -20.974 -0.176 -20.822 -0.152 -20.486 -0.139 -20.174 -0.185 16.947 1.388 1.553 0.176 44.152 43.258
-12.200 -20.442 -0.183 -20.980 -0.174 -20.852 -0.149 -20.521 -0.139 -20.215 -0.183 16.543 1.320 1.620 0.183 44.147 43.232
-11.800 -20.428 -0.179 -20.986 -0.172 -20.880 -0.146 -20.555 -0.139 -20.256 -0.180 16.161 1.258 1.689 0.190 44.142 43.208
-11.400 -20.412 -0.175 -20.991 -0.170 -20.908 -0.142 -20.588 -0.138 -20.295 -0.178 15.799 1.203 1.760 0.198 44.138 43.185
-11.000 -20.396 -0.171 -20.996 -0.168 -20.935 -0.138 -20.620 -0.138 -20.334 -0.175 15.455 1.152 1.833 0.206 44.135 43.165
-10.600 -20.380 -0.167 -21.000 -0.166 -20.961 -0.133 -20.651 -0.138 -20.373 -0.172 15.128 1.106 1.907 0.215 44.133 43.145
-10.200 -20.363 -0.162 -21.004 -0.163 -20.987 -0.129 -20.681 -0.137 -20.410 -0.168 14.818 1.064 1.983 0.224 44.131 43.128
-9.800 -20.345 -0.157 -21.006 -0.160 -21.011 -0.124 -20.711 -0.136 -20.446 -0.165 14.523 1.026 2.060 0.233 44.129 43.112
-9.400 -20.327 -0.153 -21.008 -0.157 -21.034 -0.119 -20.739 -0.136 -20.482 -0.161 14.242 0.991 2.140 0.243 44.128 43.097
-9.000 -20.309 -0.148 -21.010 -0.154 -21.056 -0.113 -20.766 -0.135 -20.517 -0.157 13.974 0.959 2.220 0.254 44.127 43.084
-8.600 -20.290 -0.143 -21.010 -0.151 -21.077 -0.108 -20.793 -0.134 -20.550 -0.153 13.718 0.931 2.303 0.265 44.126 43.073
-8.200 -20.270 -0.138 -21.010 -0.148 -21.097 -0.102 -20.818 -0.133 -20.583 -0.149 13.475 0.904 2.386 0.276 44.126 43.064
-7.800 -20.251 -0.133 -21.009 -0.144 -21.116 -0.096 -20.843 -0.131 -20.615 -0.145 13.243 0.881 2.472 0.288 44.127 43.056
-7.400 -20.230 -0.129 -21.008 -0.141 -21.133 -0.091 -20.866 -0.130 -20.645 -0.141 13.022 0.860 2.558 0.301 44.127 43.050
-7.000 -20.210 -0.124 -21.005 -0.137 -21.150 -0.085 -20.888 -0.128 -20.674 -0.136 12.812 0.842 2.646 0.314 44.128 43.045
-6.600 -20.189 -0.120 -21.002 -0.134 -21.165 -0.079 -20.909 -0.127 -20.703 -0.132 12.613 0.826 2.734 0.327 44.130 43.041
-6.200 -20.168 -0.117 -20.998 -0.131 -21.179 -0.073 -20.930 -0.125 -20.729 -0.128 12.425 0.813 2.824 0.341 44.132 43.039
-5.800 -20.146 -0.114 -20.993 -0.128 -21.191 -0.067 -20.949 -0.123 -20.755 -0.123 12.248 0.803 2.913 0.355 44.134 43.037
-5.400 -20.124 -0.111 -20.987 -0.125 -21.202 -0.062 -20.967 -0.122 -20.780 -0.119 12.084 0.795 3.001 0.370 44.136 43.036
-5.000 -20.103 -0.110 -20.980 -0.122 -21.212 -0.057 -20.984 -0.120 -20.803 -0.115 11.933 0.789 3.087 0.384 44.139 43.035
-4.600 -20.080 -0.109 -20.972 -0.119 -21.220 -0.053 -21.000 -0.118 -20.824 -0.112 11.796 0.786 3.168 0.398 44.141 43.033
-4.200 -20.058 -0.109 -20.963 -0.117 -21.227 -0.049 -21.014 -0.115 -20.845 -0.108 11.675 0.782 3.242 0.410 44.143 43.030
-3.800 -20.036 -0.110 -20.953 -0.116 -21.233 -0.047 -21.028 -0.113 -20.864 -0.105 11.569 0.778 3.307 0.420 44.145 43.027
-3.400 -20.013 -0.112 -20.942 -0.114 -21.237 -0.046 -21.041 -0.111 -20.881 -0.103 11.475 0.772 3.363 0.428 44.145 43.024
-3.000 -19.990 -0.114 -20.929 -0.113 -21.239 -0.046 -21.052 -0.109 -20.897 -0.101 11.393 0.763 3.409 0.432 44.145 43.020
-2.600 -19.967 -0.117 -20.916 -0.113 -21.240 -0.046 -21.063 -0.107 -20.912 -0.099 11.319 0.750 3.448 0.433 44.143 43.015
-2.200 -19.943 -0.121 -20.902 -0.113 -21.240 -0.047 -21.072 -0.105 -20.926 -0.097 11.249 0.736 3.482 0.431 44.141 43.009
-1.800 -19.920 -0.125 -20.886 -0.113 -21.238 -0.049 -21.080 -0.102 -20.938 -0.096 11.182 0.720 3.513 0.428 44.138 43.001
-1.400 -19.895 -0.130 -20.870 -0.114 -21.234 -0.050 -21.088 -0.100 -20.949 -0.095 11.117 0.703 3.542 0.424 44.135 42.991
-1.000 -19.871 -0.135 -20.852 -0.115 -21.229 -0.051 -21.094 -0.098 -20.959 -0.095 11.053 0.685 3.571 0.419 44.132 42.980
-0.600 -19.846 -0.141 -20.834 -0.116 -21.223 -0.052 -21.100 -0.096 -20.967 -0.094 10.989 0.668 3.599 0.413 44.129 42.968
-0.200 -19.821 -0.146 -20.814 -0.117 -21.216 -0.053 -21.104 -0.094 -20.975 -0.094 10.926 0.651 3.628 0.407 44.126 42.954
0.200 -19.795 -0.152 -20.794 -0.119 -21.207 -0.054 -21.107 -0.092 -20.981 -0.094 10.863 0.634 3.656 0.401 44.123 42.938
0.600 -19.769 -0.158 -20.772 -0.121 -21.198 -0.054 -21.110 -0.091 -20.986 -0.094 10.799 0.617 3.684 0.395 44.119 42.922
1.000 -19.742 -0.165 -20.750 -0.123 -21.187 -0.054 -21.111 -0.089 -20.991 -0.095 10.735 0.600 3.712 0.389 44.115 42.904
1.400 -19.715 -0.171 -20.726 -0.125 -21.175 -0.054 -21.112 -0.088 -20.994 -0.095 10.671 0.583 3.741 0.383 44.111 42.885
1.800 -19.687 -0.178 -20.702 -0.128 -21.162 -0.054 -21.112 -0.088 -20.997 -0.096 10.605 0.565 3.769 0.377 44.107 42.864
2.200 -19.659 -0.185 -20.677 -0.130 -21.148 -0.055 -21.111 -0.087 -20.998 -0.097 10.538 0.546 3.797 0.370 44.103 42.842
2.600 -19.631 -0.192 -20.651 -0.134 -21.133 -0.055 -21.109 -0.087 -20.999 -0.099 10.469 0.526 3.825 0.362 44.098 42.819
3.000 -19.602 -0.199 -20.624 -0.137 -21.117 -0.056 -21.106 -0.087 -20.998 -0.101 10.399 0.504 3.852 0.353 44.092 42.795
3.400 -19.573 -0.207 -20.596 -0.141 -21.101 -0.058 -21.103 -0.088 -20.997 -0.102 10.327 0.482 3.879 0.343 44.086 42.770
3.800 -19.544 -0.214 -20.567 -0.144 -21.083 -0.059 -21.099 -0.089 -20.995 -0.104 10.255 0.459 3.905 0.333 44.080 42.744
4.200 -19.513 -0.222 -20.537 -0.149 -21.065 -0.061 -21.094 -0.090 -20.992 -0.106 10.182 0.436 3.931 0.322 44.073 42.718
4.600 -19.483 -0.230 -20.506 -0.153 -21.046 -0.064 -21.089 -0.091 -20.989 -0.109 10.109 0.414 3.957 0.311 44.066 42.691
5.000 -19.452 -0.238 -20.475 -0.158 -21.026 -0.066 -21.082 -0.092 -20.984 -0.111 10.036 0.393 3.982 0.300 44.059 42.663
5.400 -19.420 -0.246 -20.443 -0.162 -21.006 -0.068 -21.076 -0.094 -20.979 -0.113 9.964 0.372 4.006 0.289 44.052 42.635
5.800 -19.389 -0.254 -20.410 -0.167 -20.984 -0.070 -21.068 -0.095 -20.974 -0.115 9.893 0.353 4.030 0.279 44.045 42.606
6.200 -19.356 -0.262 -20.376 -0.172 -20.962 -0.071 -21.060 -0.097 -20.967 -0.116 9.822 0.334 4.053 0.269 44.037 42.577
6.600 -19.323 -0.270 -20.342 -0.177 -20.939 -0.073 -21.051 -0.098 -20.960 -0.118 9.753 0.317 4.075 0.259 44.029 42.547
7.000 -19.290 -0.278 -20.307 -0.182 -20.915 -0.074 -21.041 -0.099 -20.953 -0.120 9.684 0.301 4.096 0.250 44.022 42.517
7.400 -19.256 -0.286 -20.271 -0.187 -20.891 -0.074 -21.031 -0.100 -20.944 -0.121 9.616 0.286 4.116 0.241 44.014 42.486
7.800 -19.222 -0.295 -20.235 -0.192 -20.865 -0.075 -21.020 -0.101 -20.935 -0.122 9.549 0.272 4.135 0.233 44.006 42.456
8.200 -19.187 -0.303 -20.199 -0.198 -20.839 -0.075 -21.009 -0.102 -20.926 -0.123 9.483 0.259 4.153 0.225 43.997 42.424
8.600 -19.152 -0.311 -20.161 -0.203 -20.813 -0.075 -20.997 -0.102 -20.916 -0.124 9.417 0.247 4.171 0.218 43.989 42.393
9.000 -19.117 -0.319 -20.124 -0.208 -20.785 -0.074 -20.985 -0.102 -20.905 -0.124 9.346 0.236 4.193 0.212 43.980 42.361
9.400 -19.081 -0.327 -20.085 -0.213 -20.757 -0.073 -20.971 -0.102 -20.894 -0.124 9.280 0.226 4.210 0.206 43.972 42.330
9.800 -19.045 -0.335 -20.047 -0.218 -20.728 -0.072 -20.958 -0.102 -20.883 -0.124 9.213 0.218 4.227 0.202 43.963 42.300
10.200 -19.008 -0.343 -20.007 -0.224 -20.698 -0.070 -20.943 -0.102 -20.871 -0.124 9.146 0.210 4.244 0.198 43.953 42.271
10.600 -18.971 -0.351 -19.968 -0.229 -20.668 -0.069 -20.929 -0.101 -20.858 -0.124 9.077 0.204 4.262 0.195 43.944 42.244
11.000 -18.934 -0.359 -19.928 -0.234 -20.637 -0.067 -20.913 -0.101 -20.845 -0.123 9.008 0.200 4.280 0.194 43.934 42.221
11.400 -18.896 -0.367 -19.887 -0.239 -20.605 -0.066 -20.897 -0.100 -20.832 -0.122 8.937 0.197 4.299 0.195 43.924 42.203
11.800 -18.858 -0.375 -19.847 -0.244 -20.573 -0.065 -20.881 -0.099 -20.818 -0.121 8.864 0.196 4.319 0.198 43.914 42.190
12.200 -18.819 -0.382 -19.806 -0.249 -20.540 -0.064 -20.864 -0.099 -20.804 -0.120 8.789 0.198 4.341 0.204 43.904 42.184
12.600 -18.781 -0.390 -19.764 -0.254 -20.507 -0.064 -20.847 -0.098 -20.790 -0.119 8.714 0.201 4.364 0.211 43.893 42.184
13.000 -18.742 -0.398 -19.723 -0.259 -20.473 -0.065 -20.829 -0.097 -20.775 -0.118 8.637 0.207 4.388 0.221 43.883 42.191
13.400 -18.702 -0.405 -19.681 -0.263 -20.438 -0.066 -20.810 -0.097 -20.760 -0.117 8.561 0.214 4.413 0.233 43.872 42.203
13.800 -18.663 -0.412 -19.639 -0.268 -20.403 -0.068 -20.791 -0.096 -20.745 -0.115 8.484 0.222 4.438 0.246 43.862 42.218
14.200 -18.623 -0.420 -19.596 -0.273 -20.367 -0.071 -20.772 -0.096 -20.730 -0.114 8.409 0.231 4.463 0.260 43.851 42.234
14.600 -18.583 -0.427 -19.554 -0.277 -20.330 -0.074 -20.752 -0.096 -20.714 -0.112 8.335 0.239 4.488 0.274 43.841 42.249
15.000 -18.542 -0.434 -19.511 -0.282 -20.294 -0.077 -20.731 -0.096 -20.698 -0.111 8.263 0.248 4.513 0.289 43.830 42.264
15.400 -18.502 -0.441 -19.468 -0.287 -20.257 -0.081 -20.710 -0.096 -20.682 -0.110 8.192 0.257 4.536 0.303 43.820 42.276
15.800 -18.461 -0.448 -19.425 -0.291 -20.219 -0.084 -20.689 -0.096 -20.665 -0.108 8.122 0.264 4.559 0.316 43.809 42.286
16.200 -18.420 -0.454 -19.382 -0.295 -20.182 -0.088 -20.666 -0.096 -20.649 -0.107 8.054 0.271 4.580 0.329 43.799 42.295
16.600 -18.379 -0.461 -19.339 -0.299 -20.144 -0.091 -20.643 -0.097 -20.632 -0.105 7.988 0.277 4.601 0.341 43.788 42.301
17.000 -18.338 -0.468 -19.295 -0.304 -20.105 -0.095 -20.620 -0.098 -20.615 -0.104 7.923 0.282 4.621 0.352 43.778 42.305
17.400 -18.296 -0.474 -19.252 -0.308 -20.067 -0.098 -20.596 -0.099 -20.598 -0.103 7.858 0.287 4.641 0.363 43.767 42.308
17.800 -18.254 -0.480 -19.209 -0.312 -20.028 -0.101 -20.572 -0.100 -20.580 -0.102 7.795 0.291 4.660 0.373 43.757 42.310
18.200 -18.213 -0.487 -19.165 -0.316 -19.990 -0.104 -20.547 -0.101 -20.562 -0.101 7.732 0.294 4.679 0.382 43.746 42.311
18.600 -18.171 -0.493 -19.122 -0.320 -19.951 -0.106 -20.522 -0.102 -20.544 -0.100 7.670 0.296 4.697 0.391 43.736 42.311
19.000 -18.129 -0.499 -19.078 -0.323 -19.913 -0.108 -20.496 -0.104 -20.526 -0.099 7.609 0.298 4.716 0.400 43.725 42.310
19.400 -18.086 -0.504 -19.035 -0.327 -19.874 -0.110 -20.470 -0.106 -20.508 -0.099 7.549 0.299 4.734 0.408 43.715 42.309
19.800 -18.044 -0.510 -18.992 -0.331 -19.835 -0.112 -20.443 -0.108 -20.489 -0.098 7.489 0.300 4.752 0.416 43.704 42.307
20.200 -18.002 -0.516 -18.948 -0.334 -19.797 -0.114 -20.416 -0.110 -20.470 -0.098 7.430 0.301 4.770 0.424 43.694 42.305
20.600 -17.959 -0.521 -18.905 -0.338 -19.759 -0.115 -20.389 -0.112 -20.451 -0.097 7.371 0.301 4.789 0.431 43.683 42.303
21.000 -17.917 -0.527 -18.862 -0.341 -19.721 -0.117 -20.362 -0.114 -20.433 -0.097 7.314 0.301 4.807 0.438 43.673 42.301
21.400 -17.874 -0.532 -18.819 -0.344 -19.683 -0.118 -20.334 -0.116 -20.414 -0.097 7.257 0.300 4.825 0.444 43.663 42.299
21.800 -17.832 -0.537 -18.776 -0.348 -19.646 -0.119 -20.306 -0.118 -20.395 -0.097 7.201 0.299 4.844 0.450 43.653 42.296
22.200 -17.789 -0.542 -18.733 -0.351 -19.609 -0.119 -20.279 -0.121 -20.376 -0.096 7.147 0.298 4.862 0.456 43.643 42.293
22.600 -17.747 -0.547 -18.691 -0.354 -19.572 -0.120 -20.251 -0.124 -20.357 -0.096 7.093 0.296 4.879 0.461 43.633 42.291
23.000 -17.704 -0.551 -18.648 -0.357 -19.536 -0.121 -20.223 -0.126 -20.338 -0.096 7.041 0.294 4.897 0.466 43.623 42.288
23.400 -17.661 -0.556 -18.606 -0.360 -19.500 -0.122 -20.195 -0.129 -20.319 -0.095 6.991 0.292 4.914 0.470 43.614 42.284
23.800 -17.618 -0.561 -18.563 -0.363 -19.465 -0.122 -20.166 -0.132 -20.300 -0.095 6.942 0.290 4.930 0.474 43.604 42.280
24.200 -17.576 -0.565 -18.521 -0.365 -19.430 -0.123 -20.138 -0.135 -20.282 -0.095 6.894 0.288 4.945 0.477 43.595 42.276
24.600 -17.533 -0.569 -18.480 -0.368 -19.396 -0.124 -20.110 -0.138 -20.263 -0.094 6.848 0.286 4.960 0.480 43.586 42.272
25.000 -17.490 -0.573 -18.438 -0.371 -19.362 -0.125 -20.082 -0.141 -20.245 -0.094 6.803 0.283 4.975 0.483 43.577 42.268
25.400 -17.448 -0.577 -18.396 -0.373 -19.328 -0.126 -20.055 -0.144 -20.227 -0.094 6.759 0.281 4.989 0.486 43.568 42.264
25.800 -17.405 -0.581 -18.355 -0.376 -19.295 -0.126 -20.027 -0.147 -20.208 -0.094 6.716 0.279 5.003 0.489 43.560 42.260
26.200 -17.362 -0.585 -18.314 -0.378 -19.262 -0.127 -19.999 -0.150 -20.190 -0.093 6.674 0.277 5.017 0.492 43.551 42.257
26.600 -17.320 -0.589 -18.272 -0.381 -19.230 -0.128 -19.972 -0.153 -20.173 -0.094 6.633 0.275 5.031 0.495 43.543 42.254
27.000 -17.277 -0.592 -18.231 -0.383 -19.198 -0.129 -19.944 -0.156 -20.155 -0.094 6.594 0.274 5.045 0.499 43.535 42.252
27.400 -17.234 -0.595 -18.191 -0.385 -19.166 -0.130 -19.917 -0.160 -20.137 -0.094 6.555 0.273 5.057 0.505 43.527 42.252
27.800 -17.192 -0.599 -18.150 -0.388 -19.134 -0.131 -19.890 -0.163 -20.120 -0.095 6.517 0.272 5.070 0.511 43.519 42.252
28.200 -17.150 -0.602 -18.110 -0.390 -19.103 -0.132 -19.863 -0.166 -20.103 -0.096 6.480 0.272 5.082 0.517 43.511 42.254
28.600 -17.107 -0.605 -18.069 -0.392 -19.072 -0.133 -19.836 -0.169 -20.086 -0.097 6.445 0.272 5.092 0.525 43.503 42.256
29.000 -17.065 -0.608 -18.029 -0.394 -19.041 -0.135 -19.809 -0.173 -20.068 -0.099 6.410 0.272 5.102 0.533 43.496 42.259
29.400 -17.022 -0.610 -17.989 -0.396 -19.010 -0.136 -19.782 -0.176 -20.051 -0.100 6.376 0.273 5.111 0.541 43.488 42.263
29.800 -16.980 -0.613 -17.949 -0.398 -18.979 -0.137 -19.755 -0.179 -20.034 -0.102 6.343 0.274 5.119 0.550 43.481 42.267
30.200 -16.938 -0.616 -17.909 -0.400 -18.949 -0.139 -19.729 -0.182 -20.017 -0.104 6.312 0.275 5.126 0.560 43.473 42.271
30.600 -16.896 -0.618 -17.870 -0.402 -18.918 -0.140 -19.703 -0.185 -20.000 -0.106 6.281 0.276 5.130 0.570 43.465 42.276
31.000 -16.854 -0.620 -17.830 -0.404 -18.887 -0.142 -19.676 -0.189 -19.982 -0.108 6.251 0.278 5.134 0.580 43.458 42.281
31.400 -16.812 -0.622 -17.791 -0.405 -18.857 -0.143 -19.650 -0.192 -19.965 -0.110 6.223 0.280 5.135 0.591 43.450 42.287
31.800 -16.770 -0.624 -17.751 -0.407 -18.826 -0.145 -19.624 -0.195 -19.947 -0.112 6.196 0.282 5.134 0.602 43.442 42.292
32.200 -16.728 -0.626 -17.712 -0.409 -18.795 -0.147 -19.598 -0.198 -19.929 -0.115 6.170 0.285 5.130 0.614 43.434 42.298
32.600 -16.687 -0.628 -17.673 -0.410 -18.764 -0.149 -19.572 -0.201 -19.910 -0.118 6.145 0.288 5.124 0.626 43.426 42.304
33.000 -16.645 -0.630 -17.634 -0.412 -18.733 -0.152 -19.546 -0.205 -19.892 -0.121 6.122 0.291 5.114 0.638 43.418 42.310
33.400 -16.603 -0.631 -17.595 -0.413 -18.702 -0.155 -19.521 -0.208 -19.873 -0.125 6.100 0.294 5.102 0.651 43.410 42.317
33.800 -16.562 -0.633 -17.556 -0.415 -18.670 -0.158 -19.495 -0.211 -19.853 -0.129 6.080 0.298 5.086 0.665 43.401 42.323
34.200 -16.521 -0.634 -17.517 -0.416 -18.638 -0.161 -19.470 -0.214 -19.833 -0.133 6.061 0.303 5.066 0.678 43.392 42.330
34.600 -16.479 -0.635 -17.479 -0.418 -18.606 -0.164 -19.444 -0.217 -19.813 -0.137 6.043 0.307 5.043 0.692 43.383 42.336
35.000 -16.438 -0.636 -17.440 -0.419 -18.574 -0.168 -19.419 -0.220 -19.793 -0.142 6.027 0.312 5.018 0.705 43.374 42.342
35.400 -16.397 -0.637 -17.402 -0.420 -18.542 -0.172 -19.393 -0.223 -19.772 -0.146 6.011 0.316 4.991 0.718 43.365 42.348
35.800 -16.356 -0.638 -17.363 -0.421 -18.509 -0.176 -19.368 -0.226 -19.751 -0.151 5.997 0.321 4.961 0.731 43.356 42.353
36.200 -16.315 -0.638 -17.325 -0.422 -18.477 -0.179 -19.343 -0.229 -19.729 -0.156 5.983 0.326 4.930 0.743 43.346 42.358
36.600 -16.275 -0.639 -17.286 -0.423 -18.444 -0.183 -19.317 -0.232 -19.707 -0.161 5.969 0.330 4.898 0.754 43.337 42.362
37.000 -16.234 -0.639 -17.248 -0.424 -18.411 -0.187 -19.292 -0.234 -19.685 -0.166 5.957 0.335 4.864 0.765 43.327 42.365
37.400 -16.194 -0.639 -17.210 -0.425 -18.378 -0.191 -19.267 -0.237 -19.663 -0.171 5.944 0.339 4.830 0.775 43.317 42.368
37.800 -16.153 -0.640 -17.172 -0.426 -18.345 -0.195 -19.242 -0.239 -19.640 -0.176 5.932 0.343 4.795 0.785 43.307 42.370
38.200 -16.113 -0.639 -17.134 -0.427 -18.312 -0.198 -19.216 -0.241 -19.618 -0.181 5.920 0.347 4.759 0.794 43.297 42.372
38.600 -16.073 -0.639 -17.096 -0.427 -18.279 -0.202 -19.191 -0.243 -19.595 -0.185 5.908 0.351 4.724 0.802 43.287 42.373
39.000 -16.033 -0.639 -17.059 -0.428 -18.246 -0.205 -19.166 -0.245 -19.571 -0.190 5.896 0.355 4.688 0.810 43.277 42.374
39.400 -15.993 -0.639 -17.021 -0.428 -18.212 -0.208 -19.141 -0.247 -19.548 -0.194 5.885 0.358 4.653 0.817 43.267 42.374
39.800 -15.953 -0.638 -16.984 -0.429 -18.179 -0.211 -19.116 -0.248 -19.525 -0.198 5.873 0.362 4.618 0.824 43.257 42.374
40.200 -15.914 -0.637 -16.946 -0.429 -18.146 -0.214 -19.091 -0.249 -19.501 -0.202 5.861 0.365 4.584 0.830 43.247 42.373
40.600 -15.874 -0.636 -16.909 -0.429 -18.113 -0.217 -19.066 -0.251 -19.477 -0.206 5.849 0.367 4.550 0.835 43.237 42.372
41.000 -15.835 -0.635 -16.872 -0.429 -18.080 -0.219 -19.041 -0.251 -19.453 -0.209 5.837 0.370 4.517 0.841 43.227 42.370
41.400 -15.796 -0.634 -16.835 -0.428 -18.047 -0.221 -19.016 -0.252 -19.429 -0.212 5.825 0.373 4.484 0.845 43.217 42.369
41.800 -15.757 -0.633 -16.799 -0.428 -18.014 -0.223 -18.991 -0.253 -19.405 -0.215 5.813 0.375 4.452 0.850 43.207 42.366
42.200 -15.719 -0.631 -16.762 -0.428 -17.981 -0.225 -18.966 -0.253 -19.381 -0.218 5.800 0.377 4.421 0.854 43.198 42.364
42.600 -15.680 -0.630 -16.726 -0.427 -17.948 -0.226 -18.941 -0.253 -19.357 -0.221 5.787 0.379 4.390 0.858 43.188 42.361
43.000 -15.642 -0.628 -16.689 -0.426 -17.915 -0.227 -18.917 -0.253 -19.332 -0.223 5.775 0.381 4.361 0.861 43.178 42.358
43.400 -15.604 -0.626 -16.653 -0.426 -17.883 -0.228 -18.892 -0.252 -19.308 -0.225 5.761 0.383 4.332 0.864 43.168 42.355
43.800 -15.566 -0.624 -16.618 -0.425 -17.850 -0.228 -18.868 -0.251 -19.284 -0.226 5.748 0.384 4.304 0.867 43.159 42.351
44.200 -15.528 -0.622 -16.582 -0.424 -17.818 -0.228 -18.843 -0.250 -19.259 -0.227 5.734 0.386 4.278 0.870 43.149 42.348
44.600 -15.491 -0.620 -16.547 -0.422 -17.786 -0.228 -18.819 -0.249 -19.235 -0.228 5.720 0.387 4.252 0.872 43.140 42.344
45.000 -15.453 -0.617 -16.512 -0.421 -17.754 -0.227 -18.795 -0.248 -19.211 -0.229 5.706 0.388 4.228 0.874 43.130 42.340
45.400 -15.416 -0.614 -16.477 -0.419 -17.722 -0.227 -18.771 -0.246 -19.186 -0.230 5.691 0.389 4.205 0.877 43.121 42.335
45.800 -15.379 -0.612 -16.442 -0.418 -17.690 -0.225 -18.747 -0.244 -19.162 -0.230 5.677 0.390 4.182 0.878 43.112 42.331
46.200 -15.343 -0.609 -16.408 -0.416 -17.659 -0.224 -18.723 -0.242 -19.138 -0.230 5.661 0.391 4.162 0.880 43.103 42.326
46.600 -15.306 -0.606 -16.374 -0.414 -17.628 -0.222 -18.699 -0.239 -19.114 -0.229 5.646 0.391 4.142 0.882 43.094 42.322
47.000 -15.270 -0.602 -16.340 -0.412 -17.597 -0.220 -18.676 -0.237 -19.090 -0.228 5.630 0.391 4.123 0.884 43.085 42.317
47.400 -15.234 -0.599 -16.307 -0.409 -17.566 -0.218 -18.653 -0.234 -19.066 -0.227 5.614 0.391 4.106 0.885 43.077 42.312
47.800 -15.199 -0.595 -16.274 -0.407 -17.536 -0.215 -18.630 -0.231 -19.042 -0.226 5.597 0.391 4.091 0.886 43.068 42.307
48.200 -15.163 -0.592 -16.241 -0.404 -17.506 -0.212 -18.607 -0.227 -19.019 -0.224 5.580 0.391 4.076 0.888 43.060 42.302
48.600 -15.128 -0.588 -16.208 -0.402 -17.476 -0.209 -18.584 -0.224 -18.995 -0.222 5.563 0.391 4.063 0.889 43.052 42.296
49.000 -15.093 -0.584 -16.176 -0.399 -17.447 -0.205 -18.561 -0.220 -18.972 -0.220 5.545 0.390 4.052 0.890 43.044 42.291
49.400 -15.059 -0.580 -16.144 -0.396 -17.418 -0.201 -18.539 -0.216 -18.949 -0.218 5.527 0.390 4.042 0.891 43.036 42.286
49.800 -15.024 -0.575 -16.113 -0.393 -17.389 -0.197 -18.517 -0.211 -18.926 -0.215 5.509 0.389 4.034 0.892 43.028 42.281
50.200 -14.990 -0.571 -16.082 -0.390 -17.360 -0.193 -18.495 -0.207 -18.903 -0.212 5.490 0.387 4.027 0.893 43.021 42.275
50.600 -14.957 -0.566 -16.051 -0.387 -17.332 -0.188 -18.474 -0.202 -18.880 -0.209 5.470 0.386 4.022 0.894 43.014 42.270
51.000 -14.923 -0.561 -16.021 -0.383 -17.304 -0.183 -18.452 -0.197 -18.858 -0.206 5.450 0.384 4.019 0.895 43.007 42.265
51.400 -14.890 -0.556 -15.991 -0.380 -17.277 -0.178 -18.431 -0.192 -18.836 -0.202 5.430 0.382 4.017 0.896 43.000 42.259
51.800 -14.857 -0.551 -15.962 -0.376 -17.250 -0.173 -18.410 -0.187 -18.814 -0.199 5.410 0.380 4.017 0.896 42.993 42.254
52.200 -14.825 -0.546 -15.933 -0.372 -17.223 -0.168 -18.390 -0.182 -18.792 -0.195 5.389 0.377 4.019 0.897 42.987 42.248
52.600 -14.792 -0.541 -15.904 -0.368 -17.197 -0.162 -18.369 -0.177 -18.771 -0.191 5.367 0.375 4.022 0.897 42.981 42.243
53.000 -14.761 -0.535 -15.876 -0.365 -17.171 -0.156 -18.349 -0.172 -18.750 -0.187 5.346 0.372 4.026 0.897 42.975 42.238
53.400 -14.729 -0.530 -15.848 -0.361 -17.146 -0.150 -18.329 -0.166 -18.729 -0.183 5.324 0.368 4.032 0.896 42.969 42.232
53.800 -14.698 -0.524 -15.821 -0.357 -17.121 -0.145 -18.310 -0.161 -18.709 -0.178 5.302 0.364 4.040 0.896 42.963 42.227
54.200 -14.667 -0.518 -15.794 -0.352 -17.097 -0.139 -18.290 -0.155 -18.689 -0.174 5.281 0.360 4.048 0.894 42.958 42.222
54.600 -14.636 -0.512 -15.768 -0.348 -17.073 -0.133 -18.271 -0.150 -18.669 -0.170 5.259 0.356 4.056 0.893 42.953 42.216
55.000 -14.606 -0.505 -15.742 -0.344 -17.050 -0.127 -18.253 -0.145 -18.650 -0.166 5.238 0.352 4.065 0.891 42.948 42.211
55.400 -14.576 -0.499 -15.717 -0.339 -17.027 -0.122 -18.234 -0.140 -18.631 -0.162 5.218 0.347 4.073 0.888 42.943 42.205
55.800 -14.546 -0.492 -15.692 -0.335 -17.004 -0.116 -18.216 -0.135 -18.612 -0.158 5.198 0.343 4.081 0.885 42.938 42.200
56.200 -14.517 -0.486 -15.667 -0.331 -16.982 -0.111 -18.198 -0.131 -18.594 -0.154 5.180 0.338 4.087 0.881 42.933 42.194
56.600 -14.488 -0.479 -15.643 -0.326 -16.961 -0.107 -18.180 -0.127 -18.577 -0.151 5.164 0.334 4.090 0.877 42.928 42.189
57.000 -14.459 -0.472 -15.620 -0.321 -16.940 -0.103 -18.162 -0.123 -18.559 -0.147 5.149 0.330 4.089 0.873 42.923 42.183
57.400 -14.431 -0.465 -15.597 -0.317 -16.920 -0.099 -18.145 -0.120 -18.542 -0.144 5.136 0.327 4.084 0.869 42.918 42.178
57.800 -14.403 -0.458 -15.574 -0.312 -16.900 -0.097 -18.128 -0.118 -18.526 -0.142 5.127 0.325 4.074 0.865 42.912 42.173
58.200 -14.375 -0.450 -15.552 -0.307 -16.881 -0.095 -18.111 -0.116 -18.510 -0.140 5.120 0.324 4.057 0.861 42.906 42.167
58.600 -14.348 -0.443 -15.530 -0.303 -16.863 -0.094 -18.094 -0.114 -18.495 -0.138 5.117 0.324 4.033 0.857 42.900 42.162
59.000 -14.321 -0.435 -15.509 -0.298 -16.845 -0.094 -18.077 -0.113 -18.480 -0.137 5.118 0.326 4.002 0.854 42.894 42.157
59.400 -14.295 -0.428 -15.488 -0.293 -16.828 -0.095 -18.061 -0.113 -18.466 -0.136 5.122 0.328 3.964 0.850 42.887 42.152
59.800 -14.268 -0.420 -15.468 -0.288 -16.811 -0.096 -18.044 -0.113 -18.452 -0.135 5.128 0.331 3.921 0.846 42.879 42.147
60.200 -14.243 -0.412 -15.448 -0.283 -16.795 -0.097 -18.028 -0.114 -18.439 -0.134 5.136 0.334 3.875 0.841 42.872 42.142
60.600 -14.217 -0.404 -15.429 -0.278 -16.779 -0.099 -18.012 -0.114 -18.426 -0.134 5.146 0.338 3.827 0.836 42.864 42.136
61.000 -14.192 -0.397 -15.409 -0.273 -16.763 -0.102 -17.997 -0.115 -18.413 -0.133 5.158 0.342 3.776 0.830 42.857 42.131
61.400 -14.167 -0.389 -15.391 -0.268 -16.748 -0.104 -17.981 -0.116 -18.401 -0.133 5.171 0.345 3.725 0.824 42.849 42.125
61.800 -14.142 -0.381 -15.373 -0.263 -16.734 -0.106 -17.966 -0.117 -18.389 -0.133 5.184 0.349 3.674 0.816 42.842 42.119
62.200 -14.118 -0.373 -15.355 -0.258 -16.720 -0.108 -17.951 -0.118 -18.377 -0.132 5.198 0.352 3.624 0.808 42.834 42.113
62.600 -14.094 -0.365 -15.337 -0.253 -16.706 -0.110 -17.936 -0.118 -18.366 -0.131 5.211 0.354 3.575 0.799 42.827 42.106
63.000 -14.071 -0.357 -15.320 -0.248 -16.692 -0.112 -17.921 -0.119 -18.354 -0.131 5.224 0.356 3.529 0.790 42.820 42.100
63.400 -14.048 -0.349 -15.304 -0.242 -16.679 -0.113 -17.907 -0.119 -18.344 -0.130 5.237 0.357 3.484 0.780 42.813 42.093
63.800 -14.025 -0.341 -15.287 -0.237 -16.666 -0.115 -17.893 -0.119 -18.333 -0.128 5.248 0.358 3.443 0.770 42.807 42.086
64.200 -14.003 -0.333 -15.271 -0.232 -16.653 -0.116 -17.878 -0.118 -18.323 -0.127 5.259 0.358 3.405 0.759 42.800 42.079
64.600 -13.980 -0.326 -15.255 -0.227 -16.640 -0.117 -17.864 -0.118 -18.312 -0.125 5.268 0.358 3.369 0.749 42.795 42.072
65.000 -13.959 -0.318 -15.240 -0.223 -16.628 -0.117 -17.851 -0.117 -18.302 -0.124 5.276 0.357 3.337 0.739 42.789 42.065
65.400 -13.937 -0.311 -15.225 -0.218 -16.616 -0.117 -17.837 -0.116 -18.293 -0.122 5.283 0.356 3.308 0.728 42.784 42.058
65.800 -13.916 -0.304 -15.210 -0.213 -16.604 -0.118 -17.823 -0.115 -18.283 -0.119 5.289 0.355 3.282 0.718 42.778 42.050
66.200 -13.896 -0.298 -15.195 -0.209 -16.592 -0.118 -17.810 -0.113 -18.273 -0.117 5.293 0.353 3.259 0.708 42.774 42.043
66.600 -13.875 -0.292 -15.180 -0.205 -16.580 -0.117 -17.797 -0.112 -18.264 -0.114 5.296 0.351 3.238 0.699 42.769 42.035
67.000 -13.856 -0.286 -15.166 -0.201 -16.568 -0.117 -17.784 -0.110 -18.254 -0.112 5.298 0.349 3.220 0.689 42.765 42.027
67.400 -13.836 -0.281 -15.152 -0.198 -16.556 -0.117 -17.771 -0.108 -18.245 -0.110 5.299 0.347 3.203 0.680 42.761 42.019
67.800 -13.817 -0.277 -15.137 -0.195 -16.545 -0.117 -17.758 -0.107 -18.236 -0.107 5.299 0.345 3.188 0.672 42.757 42.012
68.200 -13.798 -0.273 -15.123 -0.193 -16.533 -0.117 -17.745 -0.105 -18.226 -0.106 5.300 0.343 3.172 0.664 42.753 42.004
68.600 -13.780 -0.270 -15.109 -0.191 -16.521 -0.117 -17.732 -0.104 -18.217 -0.104 5.301 0.341 3.157 0.657 42.749 41.997
69.000 -13.762 -0.268 -15.095 -0.190 -16.510 -0.118 -17.719 -0.104 -18.208 -0.104 5.302 0.340 3.140 0.650 42.744 41.991
69.400 -13.745 -0.266 -15.081 -0.190 -16.498 -0.120 -17.707 -0.104 -18.199 -0.104 5.305 0.340 3.120 0.645 42.740 41.986
69.800 -13.728 -0.266 -15.067 -0.190 -16.486 -0.122 -17.694 -0.105 -18.189 -0.105 5.309 0.340 3.096 0.641 42.735 41.983
70.200 -13.712 -0.267 -15.053 -0.191 -16.474 -0.125 -17.682 -0.106 -18.180 -0.107 5.316 0.341 3.069 0.638 42.729 41.980
70.600 -13.696 -0.268 -15.038 -0.194 -16.462 -0.128 -17.669 -0.109 -18.170 -0.111 5.324 0.343 3.038 0.636 42.723 41.980
71.000 -13.681 -0.271 -15.024 -0.197 -16.450 -0.133 -17.657 -0.113 -18.161 -0.116 5.335 0.346 3.004 0.635 42.717 41.980
71.400 -13.666 -0.275 -15.009 -0.201 -16.438 -0.138 -17.644 -0.118 -18.151 -0.122 5.346 0.349 2.967 0.635 42.710 41.981
71.800 -13.651 -0.280 -14.994 -0.205 -16.426 -0.145 -17.632 -0.124 -18.141 -0.129 5.359 0.353 2.929 0.635 42.703 41.983
