"Time (MJD)" g-4671.78 g-4671.78_err i-7457.89 i-7457.89_err r-6141.12 r-6141.12_err w-5980.7 w-5980.7_err z-8922.78 z-8922.78_err "Temp./1e3 (K)" "Temp. Err." "Radius/1e15 (cm)" "Radius Err." "Log10(Bol. Lum)" "Log10(Bol. Err)"
-44.000 -18.628 -0.098 -18.736 -0.050 -18.733 -0.046 -18.560 -0.050 -18.429 -0.046 11.761 0.574 1.052 0.064 43.179 42.060
-43.600 -18.658 -0.095 -18.765 -0.049 -18.761 -0.044 -18.591 -0.048 -18.462 -0.044 11.730 0.557 1.070 0.064 43.189 42.058
-43.200 -18.688 -0.092 -18.794 -0.047 -18.790 -0.043 -18.621 -0.047 -18.494 -0.042 11.695 0.539 1.089 0.063 43.199 42.053
-42.800 -18.718 -0.090 -18.822 -0.045 -18.818 -0.041 -18.651 -0.046 -18.527 -0.041 11.656 0.520 1.109 0.062 43.209 42.047
-42.400 -18.748 -0.087 -18.850 -0.044 -18.846 -0.040 -18.681 -0.045 -18.560 -0.040 11.613 0.500 1.130 0.062 43.219 42.039
-42.000 -18.778 -0.085 -18.878 -0.043 -18.873 -0.039 -18.711 -0.045 -18.592 -0.039 11.568 0.480 1.151 0.061 43.228 42.029
-41.600 -18.808 -0.083 -18.906 -0.042 -18.901 -0.038 -18.742 -0.044 -18.625 -0.038 11.522 0.459 1.173 0.060 43.238 42.019
-41.200 -18.838 -0.081 -18.933 -0.041 -18.928 -0.037 -18.771 -0.044 -18.657 -0.038 11.474 0.439 1.196 0.059 43.247 42.007
-40.800 -18.868 -0.078 -18.961 -0.040 -18.955 -0.036 -18.801 -0.043 -18.690 -0.037 11.426 0.418 1.218 0.057 43.256 41.994
-40.400 -18.898 -0.076 -18.988 -0.039 -18.982 -0.035 -18.831 -0.043 -18.722 -0.037 11.379 0.398 1.241 0.056 43.265 41.980
-40.000 -18.928 -0.074 -19.015 -0.038 -19.009 -0.034 -18.861 -0.043 -18.754 -0.037 11.332 0.379 1.265 0.055 43.274 41.966
-39.600 -18.958 -0.072 -19.042 -0.037 -19.035 -0.033 -18.890 -0.042 -18.787 -0.036 11.286 0.361 1.289 0.054 43.283 41.952
-39.200 -18.988 -0.070 -19.068 -0.036 -19.062 -0.032 -18.919 -0.042 -18.819 -0.036 11.242 0.345 1.313 0.053 43.292 41.939
-38.800 -19.018 -0.069 -19.095 -0.035 -19.088 -0.031 -18.949 -0.042 -18.850 -0.035 11.199 0.329 1.337 0.052 43.302 41.926
-38.400 -19.047 -0.067 -19.122 -0.035 -19.114 -0.030 -18.978 -0.041 -18.882 -0.035 11.158 0.316 1.361 0.051 43.311 41.915
-38.000 -19.077 -0.065 -19.148 -0.034 -19.140 -0.029 -19.006 -0.041 -18.913 -0.034 11.118 0.304 1.385 0.050 43.320 41.906
-37.600 -19.106 -0.063 -19.174 -0.033 -19.166 -0.027 -19.035 -0.040 -18.944 -0.034 11.080 0.295 1.409 0.050 43.329 41.899
-37.200 -19.135 -0.061 -19.200 -0.032 -19.192 -0.026 -19.064 -0.040 -18.975 -0.033 11.044 0.287 1.434 0.050 43.338 41.895
-36.800 -19.164 -0.059 -19.226 -0.031 -19.218 -0.025 -19.092 -0.039 -19.006 -0.032 11.009 0.282 1.458 0.050 43.347 41.894
-36.400 -19.193 -0.057 -19.252 -0.030 -19.243 -0.024 -19.120 -0.038 -19.036 -0.031 10.977 0.279 1.483 0.051 43.357 41.897
-36.000 -19.221 -0.055 -19.278 -0.029 -19.269 -0.022 -19.147 -0.038 -19.066 -0.031 10.946 0.278 1.507 0.052 43.366 41.902
-35.600 -19.250 -0.052 -19.304 -0.028 -19.295 -0.021 -19.175 -0.037 -19.096 -0.030 10.919 0.278 1.531 0.053 43.375 41.910
-35.200 -19.278 -0.050 -19.330 -0.027 -19.320 -0.020 -19.202 -0.036 -19.125 -0.029 10.894 0.280 1.554 0.055 43.385 41.921
-34.800 -19.305 -0.048 -19.355 -0.027 -19.345 -0.019 -19.229 -0.035 -19.154 -0.028 10.872 0.283 1.578 0.056 43.394 41.933
-34.400 -19.333 -0.046 -19.381 -0.026 -19.371 -0.018 -19.256 -0.034 -19.182 -0.027 10.855 0.287 1.600 0.058 43.404 41.948
-34.000 -19.360 -0.043 -19.406 -0.026 -19.396 -0.018 -19.283 -0.033 -19.210 -0.027 10.843 0.292 1.622 0.060 43.414 41.963
-33.600 -19.387 -0.041 -19.431 -0.025 -19.421 -0.017 -19.309 -0.032 -19.238 -0.026 10.836 0.296 1.643 0.062 43.424 41.979
-33.200 -19.414 -0.039 -19.457 -0.025 -19.446 -0.017 -19.335 -0.031 -19.265 -0.025 10.835 0.300 1.663 0.064 43.434 41.994
-32.800 -19.440 -0.036 -19.482 -0.025 -19.471 -0.016 -19.360 -0.030 -19.291 -0.025 10.839 0.303 1.682 0.065 43.444 42.009
-32.400 -19.466 -0.034 -19.506 -0.024 -19.496 -0.016 -19.385 -0.029 -19.317 -0.024 10.847 0.306 1.700 0.066 43.455 42.023
-32.000 -19.491 -0.031 -19.531 -0.024 -19.521 -0.016 -19.410 -0.028 -19.343 -0.023 10.859 0.307 1.717 0.067 43.465 42.034
-31.600 -19.516 -0.029 -19.555 -0.024 -19.545 -0.016 -19.434 -0.027 -19.368 -0.023 10.875 0.307 1.733 0.068 43.476 42.043
-31.200 -19.541 -0.026 -19.579 -0.024 -19.569 -0.015 -19.458 -0.025 -19.392 -0.022 10.894 0.305 1.748 0.068 43.487 42.050
-30.800 -19.565 -0.024 -19.603 -0.023 -19.593 -0.014 -19.482 -0.024 -19.416 -0.021 10.915 0.302 1.763 0.068 43.497 42.052
-30.400 -19.589 -0.021 -19.627 -0.023 -19.617 -0.014 -19.505 -0.023 -19.440 -0.021 10.939 0.297 1.777 0.068 43.508 42.051
-30.000 -19.612 -0.018 -19.649 -0.022 -19.640 -0.013 -19.527 -0.022 -19.463 -0.020 10.964 0.289 1.790 0.067 43.518 42.044
-29.600 -19.635 -0.016 -19.672 -0.022 -19.662 -0.012 -19.549 -0.021 -19.485 -0.019 10.991 0.279 1.802 0.065 43.529 42.032
-29.200 -19.657 -0.014 -19.694 -0.022 -19.684 -0.011 -19.571 -0.020 -19.507 -0.019 11.018 0.267 1.814 0.064 43.539 42.014
-28.800 -19.679 -0.012 -19.716 -0.021 -19.706 -0.010 -19.591 -0.019 -19.528 -0.018 11.044 0.254 1.826 0.061 43.548 41.991
-28.400 -19.700 -0.011 -19.736 -0.021 -19.727 -0.010 -19.612 -0.019 -19.548 -0.018 11.066 0.243 1.839 0.060 43.558 41.968
-28.000 -19.720 -0.010 -19.757 -0.021 -19.747 -0.010 -19.631 -0.018 -19.568 -0.018 11.079 0.236 1.853 0.059 43.567 41.957
-27.600 -19.740 -0.010 -19.777 -0.022 -19.767 -0.010 -19.650 -0.019 -19.588 -0.018 11.084 0.236 1.869 0.060 43.575 41.965
-27.200 -19.759 -0.011 -19.796 -0.022 -19.786 -0.011 -19.669 -0.019 -19.606 -0.019 11.083 0.242 1.885 0.061 43.582 41.987
-26.800 -19.777 -0.012 -19.815 -0.022 -19.805 -0.012 -19.686 -0.020 -19.625 -0.020 11.080 0.250 1.902 0.064 43.589 42.016
-26.400 -19.795 -0.013 -19.833 -0.023 -19.823 -0.014 -19.704 -0.021 -19.642 -0.021 11.077 0.258 1.919 0.066 43.596 42.043
-26.000 -19.812 -0.014 -19.851 -0.024 -19.841 -0.015 -19.720 -0.022 -19.659 -0.022 11.075 0.265 1.934 0.068 43.603 42.066
-25.600 -19.829 -0.015 -19.868 -0.025 -19.858 -0.017 -19.737 -0.023 -19.676 -0.023 11.074 0.271 1.950 0.070 43.610 42.086
-25.200 -19.845 -0.016 -19.884 -0.025 -19.874 -0.018 -19.752 -0.024 -19.692 -0.024 11.074 0.275 1.964 0.071 43.616 42.102
-24.800 -19.861 -0.017 -19.900 -0.026 -19.890 -0.019 -19.768 -0.025 -19.708 -0.025 11.075 0.278 1.978 0.072 43.623 42.114
-24.400 -19.876 -0.018 -19.916 -0.027 -19.905 -0.021 -19.782 -0.026 -19.723 -0.026 11.075 0.281 1.992 0.073 43.629 42.125
-24.000 -19.891 -0.019 -19.931 -0.028 -19.920 -0.022 -19.797 -0.026 -19.738 -0.027 11.076 0.282 2.005 0.074 43.635 42.133
-23.600 -19.905 -0.019 -19.945 -0.029 -19.934 -0.023 -19.811 -0.027 -19.752 -0.028 11.076 0.283 2.018 0.075 43.640 42.140
-23.200 -19.919 -0.020 -19.959 -0.029 -19.948 -0.024 -19.824 -0.028 -19.766 -0.029 11.076 0.283 2.031 0.076 43.646 42.145
-22.800 -19.932 -0.020 -19.973 -0.030 -19.962 -0.024 -19.838 -0.029 -19.780 -0.029 11.076 0.284 2.044 0.076 43.651 42.150
-22.400 -19.944 -0.020 -19.986 -0.030 -19.975 -0.025 -19.851 -0.029 -19.793 -0.030 11.074 0.284 2.057 0.077 43.656 42.155
-22.000 -19.957 -0.021 -19.998 -0.030 -19.987 -0.025 -19.863 -0.029 -19.806 -0.031 11.072 0.285 2.069 0.078 43.661 42.161
-21.600 -19.969 -0.021 -20.011 -0.031 -19.999 -0.026 -19.876 -0.030 -19.819 -0.031 11.068 0.286 2.081 0.078 43.666 42.166
-21.200 -19.980 -0.021 -20.023 -0.031 -20.011 -0.026 -19.888 -0.030 -19.831 -0.031 11.065 0.286 2.094 0.079 43.670 42.172
-20.800 -19.991 -0.021 -20.034 -0.031 -20.023 -0.026 -19.900 -0.030 -19.843 -0.032 11.060 0.287 2.106 0.080 43.675 42.178
-20.400 -20.002 -0.021 -20.045 -0.030 -20.034 -0.025 -19.911 -0.029 -19.855 -0.032 11.056 0.288 2.118 0.081 43.679 42.183
-20.000 -20.012 -0.021 -20.056 -0.030 -20.045 -0.025 -19.922 -0.029 -19.867 -0.032 11.051 0.289 2.130 0.081 43.683 42.188
-19.600 -20.022 -0.021 -20.067 -0.030 -20.055 -0.025 -19.933 -0.029 -19.878 -0.032 11.046 0.290 2.141 0.082 43.687 42.193
-19.200 -20.032 -0.021 -20.077 -0.029 -20.066 -0.024 -19.944 -0.028 -19.889 -0.031 11.042 0.290 2.153 0.083 43.691 42.197
-18.800 -20.042 -0.020 -20.087 -0.029 -20.075 -0.023 -19.955 -0.027 -19.900 -0.031 11.038 0.290 2.164 0.083 43.695 42.201
-18.400 -20.051 -0.020 -20.097 -0.028 -20.085 -0.022 -19.965 -0.027 -19.911 -0.031 11.034 0.291 2.174 0.084 43.698 42.205
-18.000 -20.060 -0.019 -20.106 -0.028 -20.095 -0.021 -19.975 -0.026 -19.921 -0.030 11.031 0.291 2.184 0.084 43.702 42.208
-17.600 -20.069 -0.019 -20.116 -0.027 -20.104 -0.020 -19.985 -0.025 -19.932 -0.030 11.029 0.290 2.194 0.084 43.706 42.210
-17.200 -20.078 -0.018 -20.125 -0.026 -20.113 -0.019 -19.995 -0.024 -19.942 -0.029 11.027 0.290 2.204 0.085 43.709 42.213
-16.800 -20.087 -0.017 -20.134 -0.026 -20.122 -0.018 -20.005 -0.023 -19.952 -0.028 11.027 0.290 2.213 0.085 43.713 42.217
-16.400 -20.096 -0.017 -20.142 -0.025 -20.131 -0.018 -20.015 -0.021 -19.962 -0.028 11.027 0.291 2.222 0.086 43.716 42.221
-16.000 -20.104 -0.016 -20.151 -0.025 -20.140 -0.017 -20.024 -0.020 -19.972 -0.027 11.027 0.293 2.231 0.086 43.719 42.228
-15.600 -20.113 -0.016 -20.160 -0.024 -20.148 -0.016 -20.034 -0.019 -19.982 -0.026 11.028 0.295 2.239 0.087 43.723 42.238
-15.200 -20.121 -0.016 -20.168 -0.024 -20.157 -0.016 -20.043 -0.018 -19.991 -0.026 11.028 0.299 2.247 0.088 43.726 42.250
-14.800 -20.130 -0.016 -20.176 -0.023 -20.165 -0.015 -20.052 -0.017 -20.001 -0.025 11.029 0.305 2.256 0.090 43.730 42.265
-14.400 -20.138 -0.016 -20.184 -0.023 -20.173 -0.015 -20.061 -0.016 -20.010 -0.025 11.030 0.311 2.264 0.092 43.733 42.281
-14.000 -20.146 -0.016 -20.192 -0.023 -20.181 -0.015 -20.070 -0.015 -20.019 -0.024 11.032 0.318 2.271 0.094 43.736 42.299
-13.600 -20.154 -0.016 -20.200 -0.023 -20.189 -0.015 -20.079 -0.015 -20.029 -0.024 11.033 0.326 2.279 0.096 43.739 42.318
-13.200 -20.162 -0.016 -20.208 -0.023 -20.197 -0.015 -20.087 -0.014 -20.038 -0.023 11.033 0.335 2.287 0.098 43.742 42.336
-12.800 -20.170 -0.016 -20.216 -0.023 -20.205 -0.015 -20.095 -0.013 -20.047 -0.023 11.032 0.344 2.296 0.100 43.745 42.355
-12.400 -20.178 -0.016 -20.223 -0.022 -20.213 -0.015 -20.103 -0.013 -20.056 -0.022 11.028 0.353 2.305 0.103 43.748 42.372
-12.000 -20.186 -0.016 -20.230 -0.022 -20.220 -0.015 -20.111 -0.013 -20.064 -0.022 11.019 0.362 2.316 0.106 43.751 42.388
-11.600 -20.194 -0.017 -20.238 -0.022 -20.227 -0.015 -20.118 -0.013 -20.073 -0.021 11.005 0.371 2.328 0.109 43.753 42.402
-11.200 -20.201 -0.017 -20.245 -0.022 -20.235 -0.015 -20.125 -0.013 -20.082 -0.021 10.987 0.379 2.342 0.113 43.755 42.415
-10.800 -20.208 -0.017 -20.252 -0.022 -20.242 -0.015 -20.132 -0.013 -20.090 -0.020 10.968 0.387 2.356 0.116 43.758 42.426
-10.400 -20.215 -0.017 -20.258 -0.022 -20.249 -0.015 -20.138 -0.014 -20.098 -0.020 10.948 0.394 2.370 0.119 43.760 42.436
-10.000 -20.222 -0.016 -20.265 -0.022 -20.255 -0.015 -20.145 -0.014 -20.106 -0.019 10.928 0.401 2.385 0.122 43.762 42.445
-9.600 -20.229 -0.016 -20.272 -0.022 -20.262 -0.015 -20.151 -0.014 -20.114 -0.018 10.909 0.406 2.399 0.125 43.764 42.454
-9.200 -20.236 -0.016 -20.278 -0.021 -20.269 -0.014 -20.157 -0.014 -20.121 -0.017 10.890 0.411 2.412 0.128 43.766 42.461
-8.800 -20.242 -0.015 -20.284 -0.021 -20.275 -0.014 -20.163 -0.013 -20.128 -0.016 10.873 0.415 2.426 0.130 43.768 42.468
-8.400 -20.248 -0.014 -20.291 -0.021 -20.281 -0.013 -20.168 -0.013 -20.135 -0.015 10.857 0.418 2.438 0.132 43.770 42.474
-8.000 -20.254 -0.013 -20.297 -0.020 -20.288 -0.013 -20.174 -0.012 -20.142 -0.014 10.842 0.420 2.451 0.134 43.772 42.478
-7.600 -20.260 -0.012 -20.303 -0.020 -20.294 -0.012 -20.180 -0.012 -20.148 -0.013 10.828 0.421 2.463 0.135 43.774 42.482
-7.200 -20.265 -0.012 -20.308 -0.020 -20.299 -0.011 -20.185 -0.011 -20.154 -0.012 10.815 0.420 2.474 0.135 43.776 42.484
-6.800 -20.271 -0.011 -20.314 -0.020 -20.305 -0.010 -20.191 -0.010 -20.160 -0.011 10.802 0.417 2.485 0.136 43.778 42.485
-6.400 -20.276 -0.010 -20.320 -0.019 -20.311 -0.009 -20.196 -0.009 -20.165 -0.010 10.791 0.413 2.496 0.135 43.779 42.483
-6.000 -20.280 -0.009 -20.325 -0.019 -20.316 -0.009 -20.202 -0.009 -20.170 -0.009 10.781 0.407 2.505 0.134 43.781 42.480
-5.600 -20.285 -0.009 -20.330 -0.019 -20.321 -0.008 -20.208 -0.008 -20.174 -0.009 10.773 0.400 2.514 0.132 43.783 42.474
-5.200 -20.289 -0.008 -20.335 -0.019 -20.326 -0.008 -20.213 -0.008 -20.178 -0.008 10.767 0.391 2.522 0.129 43.785 42.466
-4.800 -20.293 -0.008 -20.340 -0.019 -20.330 -0.008 -20.219 -0.008 -20.182 -0.008 10.761 0.381 2.529 0.127 43.786 42.457
-4.400 -20.297 -0.008 -20.344 -0.019 -20.335 -0.008 -20.225 -0.008 -20.185 -0.008 10.756 0.371 2.536 0.124 43.788 42.447
-4.000 -20.300 -0.008 -20.348 -0.019 -20.339 -0.008 -20.231 -0.008 -20.188 -0.008 10.748 0.361 2.543 0.121 43.789 42.438
-3.600 -20.303 -0.008 -20.353 -0.019 -20.343 -0.008 -20.236 -0.008 -20.191 -0.008 10.737 0.352 2.552 0.118 43.790 42.430
-3.200 -20.306 -0.008 -20.357 -0.020 -20.347 -0.008 -20.242 -0.008 -20.193 -0.008 10.722 0.346 2.561 0.116 43.791 42.425
-2.800 -20.308 -0.009 -20.361 -0.020 -20.351 -0.008 -20.247 -0.008 -20.196 -0.008 10.701 0.341 2.571 0.115 43.791 42.424
-2.400 -20.309 -0.009 -20.364 -0.020 -20.355 -0.008 -20.252 -0.008 -20.198 -0.008 10.675 0.340 2.584 0.114 43.791 42.427
-2.000 -20.310 -0.010 -20.368 -0.020 -20.358 -0.008 -20.256 -0.008 -20.201 -0.008 10.645 0.340 2.597 0.114 43.790 42.431
-1.600 -20.311 -0.011 -20.371 -0.020 -20.362 -0.008 -20.260 -0.008 -20.203 -0.008 10.613 0.341 2.611 0.115 43.790 42.436
-1.200 -20.311 -0.013 -20.375 -0.020 -20.365 -0.008 -20.264 -0.008 -20.206 -0.008 10.580 0.342 2.625 0.115 43.789 42.441
-0.800 -20.311 -0.014 -20.378 -0.020 -20.369 -0.008 -20.268 -0.008 -20.208 -0.008 10.547 0.343 2.639 0.116 43.788 42.445
-0.400 -20.310 -0.015 -20.380 -0.020 -20.372 -0.008 -20.271 -0.008 -20.211 -0.008 10.515 0.345 2.652 0.117 43.787 42.449
-0.000 -20.309 -0.016 -20.383 -0.020 -20.374 -0.008 -20.274 -0.008 -20.213 -0.008 10.485 0.345 2.665 0.118 43.787 42.451
0.400 -20.308 -0.016 -20.385 -0.020 -20.377 -0.008 -20.277 -0.008 -20.216 -0.008 10.458 0.343 2.677 0.118 43.786 42.449
0.800 -20.306 -0.017 -20.387 -0.020 -20.379 -0.009 -20.279 -0.009 -20.218 -0.009 10.433 0.338 2.689 0.117 43.786 42.443
1.200 -20.304 -0.018 -20.389 -0.021 -20.381 -0.009 -20.281 -0.009 -20.221 -0.009 10.410 0.331 2.699 0.116 43.785 42.433
1.600 -20.302 -0.018 -20.390 -0.021 -20.382 -0.010 -20.282 -0.010 -20.223 -0.009 10.386 0.322 2.710 0.114 43.785 42.420
2.000 -20.300 -0.018 -20.391 -0.021 -20.383 -0.011 -20.284 -0.011 -20.226 -0.010 10.359 0.315 2.722 0.113 43.784 42.408
2.400 -20.297 -0.018 -20.392 -0.021 -20.384 -0.011 -20.284 -0.011 -20.228 -0.010 10.329 0.307 2.735 0.111 43.783 42.396
2.800 -20.294 -0.018 -20.392 -0.022 -20.385 -0.012 -20.285 -0.012 -20.231 -0.010 10.295 0.301 2.749 0.110 43.782 42.385
3.200 -20.291 -0.018 -20.393 -0.022 -20.385 -0.012 -20.285 -0.012 -20.233 -0.010 10.259 0.296 2.764 0.110 43.780 42.376
3.600 -20.287 -0.017 -20.392 -0.022 -20.385 -0.013 -20.285 -0.013 -20.236 -0.010 10.221 0.291 2.779 0.110 43.779 42.368
4.000 -20.284 -0.016 -20.392 -0.022 -20.385 -0.013 -20.285 -0.013 -20.238 -0.010 10.181 0.287 2.795 0.110 43.777 42.361
4.400 -20.280 -0.016 -20.391 -0.022 -20.384 -0.013 -20.284 -0.013 -20.240 -0.009 10.140 0.284 2.811 0.110 43.775 42.355
4.800 -20.276 -0.015 -20.390 -0.022 -20.383 -0.013 -20.284 -0.013 -20.243 -0.009 10.100 0.281 2.827 0.110 43.773 42.350
5.200 -20.272 -0.014 -20.388 -0.022 -20.382 -0.012 -20.283 -0.012 -20.244 -0.009 10.063 0.279 2.842 0.111 43.771 42.345
5.600 -20.268 -0.013 -20.386 -0.022 -20.380 -0.012 -20.282 -0.012 -20.246 -0.008 10.033 0.279 2.853 0.112 43.769 42.341
6.000 -20.263 -0.013 -20.384 -0.022 -20.378 -0.012 -20.281 -0.012 -20.248 -0.008 10.008 0.279 2.861 0.114 43.767 42.335
6.400 -20.259 -0.012 -20.382 -0.021 -20.376 -0.011 -20.280 -0.011 -20.249 -0.008 9.987 0.281 2.867 0.116 43.766 42.330
6.800 -20.254 -0.011 -20.379 -0.021 -20.374 -0.011 -20.278 -0.011 -20.250 -0.008 9.969 0.282 2.872 0.118 43.764 42.323
7.200 -20.249 -0.011 -20.376 -0.021 -20.371 -0.010 -20.277 -0.010 -20.251 -0.008 9.952 0.283 2.875 0.120 43.762 42.315
7.600 -20.244 -0.010 -20.373 -0.021 -20.368 -0.010 -20.275 -0.010 -20.252 -0.008 9.935 0.283 2.878 0.121 43.760 42.307
8.000 -20.238 -0.009 -20.369 -0.021 -20.365 -0.009 -20.274 -0.009 -20.252 -0.008 9.916 0.282 2.882 0.122 43.758 42.297
8.400 -20.231 -0.009 -20.365 -0.021 -20.361 -0.009 -20.272 -0.009 -20.251 -0.009 9.894 0.280 2.886 0.123 43.755 42.285
8.800 -20.224 -0.009 -20.361 -0.021 -20.357 -0.009 -20.270 -0.009 -20.251 -0.009 9.868 0.277 2.892 0.123 43.752 42.273
9.200 -20.216 -0.010 -20.356 -0.021 -20.353 -0.010 -20.268 -0.010 -20.250 -0.010 9.835 0.273 2.901 0.122 43.749 42.260
9.600 -20.207 -0.011 -20.351 -0.021 -20.348 -0.010 -20.266 -0.010 -20.248 -0.010 9.798 0.268 2.912 0.121 43.746 42.245
10.000 -20.198 -0.011 -20.346 -0.021 -20.343 -0.011 -20.264 -0.011 -20.246 -0.011 9.756 0.261 2.925 0.120 43.742 42.228
10.400 -20.188 -0.012 -20.341 -0.022 -20.338 -0.012 -20.262 -0.012 -20.244 -0.012 9.708 0.253 2.940 0.118 43.738 42.209
10.800 -20.178 -0.013 -20.335 -0.022 -20.333 -0.013 -20.259 -0.013 -20.241 -0.013 9.662 0.245 2.954 0.116 43.734 42.189
11.200 -20.167 -0.014 -20.329 -0.022 -20.327 -0.014 -20.257 -0.014 -20.238 -0.014 9.614 0.236 2.969 0.113 43.730 42.166
11.600 -20.156 -0.015 -20.323 -0.023 -20.322 -0.015 -20.254 -0.015 -20.235 -0.015 9.566 0.226 2.985 0.110 43.726 42.143
12.000 -20.144 -0.015 -20.317 -0.023 -20.316 -0.015 -20.252 -0.015 -20.232 -0.015 9.516 0.217 3.001 0.107 43.721 42.118
12.400 -20.132 -0.015 -20.311 -0.023 -20.310 -0.015 -20.249 -0.015 -20.228 -0.015 9.465 0.208 3.017 0.104 43.717 42.093
12.800 -20.119 -0.016 -20.304 -0.023 -20.304 -0.015 -20.246 -0.016 -20.225 -0.015 9.413 0.199 3.034 0.101 43.712 42.067
13.200 -20.106 -0.015 -20.298 -0.023 -20.298 -0.015 -20.243 -0.015 -20.221 -0.015 9.360 0.190 3.052 0.098 43.707 42.042
13.600 -20.092 -0.015 -20.291 -0.023 -20.291 -0.015 -20.240 -0.015 -20.217 -0.015 9.307 0.182 3.070 0.096 43.702 42.017
14.000 -20.078 -0.015 -20.285 -0.023 -20.285 -0.015 -20.236 -0.015 -20.213 -0.015 9.253 0.174 3.089 0.093 43.697 41.993
14.400 -20.064 -0.014 -20.278 -0.022 -20.279 -0.014 -20.233 -0.014 -20.210 -0.014 9.198 0.168 3.108 0.092 43.692 41.971
14.800 -20.050 -0.013 -20.272 -0.022 -20.273 -0.013 -20.229 -0.013 -20.206 -0.013 9.142 0.162 3.128 0.090 43.687 41.951
15.200 -20.035 -0.012 -20.265 -0.022 -20.266 -0.012 -20.225 -0.012 -20.202 -0.012 9.086 0.158 3.148 0.089 43.682 41.933
15.600 -20.020 -0.012 -20.258 -0.021 -20.260 -0.011 -20.221 -0.012 -20.199 -0.012 9.029 0.155 3.169 0.089 43.677 41.919
16.000 -20.005 -0.011 -20.252 -0.021 -20.254 -0.011 -20.217 -0.011 -20.195 -0.011 8.972 0.153 3.191 0.089 43.672 41.907
16.400 -19.989 -0.010 -20.245 -0.021 -20.248 -0.010 -20.213 -0.010 -20.192 -0.010 8.915 0.152 3.213 0.091 43.667 41.900
16.800 -19.974 -0.009 -20.239 -0.021 -20.242 -0.009 -20.208 -0.009 -20.189 -0.009 8.857 0.153 3.236 0.093 43.662 41.896
17.200 -19.958 -0.009 -20.232 -0.021 -20.236 -0.009 -20.203 -0.009 -20.187 -0.009 8.800 0.155 3.260 0.096 43.657 41.897
17.600 -19.943 -0.009 -20.226 -0.021 -20.230 -0.009 -20.198 -0.009 -20.184 -0.009 8.743 0.159 3.284 0.101 43.652 41.902
18.000 -19.927 -0.010 -20.219 -0.021 -20.224 -0.010 -20.193 -0.010 -20.182 -0.010 8.686 0.164 3.308 0.106 43.647 41.909
18.400 -19.911 -0.010 -20.213 -0.021 -20.218 -0.010 -20.188 -0.010 -20.180 -0.010 8.630 0.170 3.333 0.112 43.643 41.917
18.800 -19.895 -0.010 -20.207 -0.021 -20.213 -0.010 -20.183 -0.010 -20.178 -0.010 8.574 0.176 3.359 0.118 43.638 41.926
19.200 -19.879 -0.010 -20.200 -0.021 -20.207 -0.010 -20.177 -0.010 -20.176 -0.010 8.519 0.182 3.384 0.124 43.633 41.934
19.600 -19.864 -0.010 -20.194 -0.021 -20.202 -0.010 -20.172 -0.010 -20.174 -0.010 8.465 0.187 3.410 0.131 43.629 41.942
20.000 -19.848 -0.010 -20.188 -0.021 -20.196 -0.010 -20.167 -0.010 -20.172 -0.010 8.411 0.192 3.435 0.137 43.624 41.948
20.400 -19.833 -0.010 -20.182 -0.021 -20.191 -0.010 -20.162 -0.010 -20.171 -0.010 8.359 0.197 3.461 0.143 43.620 41.954
20.800 -19.817 -0.010 -20.176 -0.021 -20.185 -0.010 -20.156 -0.010 -20.169 -0.010 8.308 0.201 3.486 0.148 43.615 41.958
21.200 -19.802 -0.009 -20.169 -0.021 -20.180 -0.009 -20.151 -0.009 -20.167 -0.009 8.258 0.204 3.510 0.154 43.611 41.962
21.600 -19.787 -0.009 -20.163 -0.021 -20.174 -0.009 -20.147 -0.009 -20.164 -0.009 8.215 0.208 3.531 0.159 43.607 41.966
22.000 -19.772 -0.009 -20.157 -0.021 -20.168 -0.009 -20.142 -0.009 -20.162 -0.009 8.170 0.212 3.554 0.164 43.603 41.969
22.400 -19.758 -0.010 -20.150 -0.021 -20.163 -0.010 -20.138 -0.010 -20.159 -0.010 8.127 0.216 3.576 0.170 43.599 41.974
22.800 -19.743 -0.011 -20.144 -0.021 -20.157 -0.011 -20.133 -0.011 -20.156 -0.011 8.087 0.220 3.597 0.176 43.596 41.978
23.200 -19.729 -0.012 -20.137 -0.022 -20.151 -0.012 -20.129 -0.012 -20.153 -0.012 8.048 0.225 3.617 0.182 43.592 41.982
23.600 -19.715 -0.013 -20.130 -0.022 -20.146 -0.012 -20.125 -0.012 -20.150 -0.012 8.011 0.229 3.636 0.188 43.589 41.986
24.000 -19.701 -0.014 -20.123 -0.022 -20.139 -0.013 -20.121 -0.013 -20.146 -0.013 7.975 0.233 3.655 0.193 43.585 41.989
24.400 -19.686 -0.015 -20.116 -0.023 -20.133 -0.014 -20.118 -0.014 -20.142 -0.014 7.940 0.236 3.673 0.198 43.582 41.991
24.800 -19.671 -0.016 -20.109 -0.023 -20.127 -0.015 -20.114 -0.015 -20.138 -0.015 7.905 0.239 3.690 0.203 43.579 41.992
25.200 -19.657 -0.017 -20.101 -0.023 -20.120 -0.015 -20.110 -0.015 -20.133 -0.015 7.871 0.242 3.707 0.208 43.575 41.993
25.600 -19.641 -0.018 -20.093 -0.023 -20.113 -0.016 -20.106 -0.016 -20.128 -0.016 7.837 0.244 3.724 0.212 43.571 41.994
26.000 -19.626 -0.018 -20.085 -0.023 -20.106 -0.016 -20.102 -0.016 -20.123 -0.016 7.804 0.247 3.740 0.216 43.568 41.995
26.400 -19.609 -0.018 -20.076 -0.023 -20.098 -0.016 -20.098 -0.016 -20.118 -0.016 7.771 0.249 3.755 0.220 43.564 41.995
26.800 -19.593 -0.019 -20.067 -0.023 -20.090 -0.015 -20.094 -0.015 -20.112 -0.015 7.739 0.251 3.770 0.224 43.560 41.996
27.200 -19.575 -0.019 -20.057 -0.023 -20.082 -0.015 -20.089 -0.015 -20.106 -0.015 7.707 0.254 3.783 0.228 43.556 41.998
27.600 -19.557 -0.019 -20.047 -0.023 -20.073 -0.014 -20.084 -0.014 -20.100 -0.014 7.676 0.257 3.796 0.232 43.552 42.000
28.000 -19.538 -0.018 -20.037 -0.022 -20.064 -0.013 -20.079 -0.013 -20.093 -0.013 7.647 0.261 3.807 0.236 43.548 42.003
28.400 -19.518 -0.018 -20.026 -0.022 -20.054 -0.012 -20.074 -0.012 -20.086 -0.012 7.619 0.265 3.816 0.241 43.544 42.006
28.800 -19.497 -0.018 -20.014 -0.022 -20.044 -0.011 -20.069 -0.011 -20.079 -0.011 7.593 0.270 3.823 0.245 43.539 42.011
29.200 -19.476 -0.018 -20.002 -0.021 -20.033 -0.011 -20.063 -0.011 -20.072 -0.011 7.567 0.276 3.829 0.250 43.535 42.015
29.600 -19.453 -0.018 -19.990 -0.021 -20.021 -0.010 -20.056 -0.010 -20.064 -0.010 7.540 0.281 3.837 0.255 43.530 42.018
30.000 -19.429 -0.018 -19.977 -0.021 -20.010 -0.010 -20.049 -0.010 -20.056 -0.010 7.504 0.285 3.850 0.261 43.525 42.018
30.400 -19.404 -0.018 -19.963 -0.021 -19.997 -0.010 -20.042 -0.010 -20.047 -0.010 7.456 0.287 3.874 0.269 43.519 42.015
30.800 -19.377 -0.018 -19.949 -0.021 -19.984 -0.010 -20.035 -0.010 -20.038 -0.010 7.394 0.288 3.910 0.277 43.513 42.010
31.200 -19.350 -0.018 -19.934 -0.022 -19.970 -0.011 -20.026 -0.011 -20.029 -0.011 7.314 0.287 3.963 0.288 43.506 42.004
31.600 -19.321 -0.019 -19.918 -0.022 -19.956 -0.012 -20.018 -0.012 -20.020 -0.012 7.251 0.288 4.001 0.298 43.499 42.001
32.000 -19.291 -0.019 -19.902 -0.022 -19.941 -0.013 -20.009 -0.013 -20.010 -0.013 7.170 0.288 4.059 0.310 43.492 41.999
32.400 -19.260 -0.020 -19.885 -0.023 -19.925 -0.014 -19.999 -0.014 -20.000 -0.014 7.109 0.289 4.096 0.322 43.485 42.000
32.800 -19.229 -0.020 -19.868 -0.023 -19.909 -0.014 -19.989 -0.014 -19.989 -0.014 7.042 0.291 4.140 0.334 43.478 42.003
33.200 -19.196 -0.021 -19.850 -0.023 -19.893 -0.015 -19.979 -0.015 -19.979 -0.015 6.976 0.292 4.184 0.347 43.470 42.006
33.600 -19.163 -0.021 -19.832 -0.023 -19.876 -0.015 -19.968 -0.015 -19.968 -0.015 6.912 0.294 4.227 0.360 43.463 42.011
34.000 -19.128 -0.021 -19.813 -0.023 -19.858 -0.015 -19.956 -0.015 -19.957 -0.015 6.850 0.297 4.269 0.373 43.456 42.015
34.400 -19.093 -0.021 -19.794 -0.023 -19.840 -0.015 -19.944 -0.015 -19.945 -0.015 6.790 0.299 4.309 0.387 43.449 42.020
34.800 -19.058 -0.021 -19.774 -0.023 -19.822 -0.015 -19.932 -0.015 -19.934 -0.015 6.732 0.302 4.346 0.400 43.442 42.025
35.200 -19.022 -0.020 -19.754 -0.023 -19.803 -0.015 -19.919 -0.015 -19.922 -0.015 6.677 0.305 4.382 0.413 43.435 42.029
35.600 -18.985 -0.020 -19.733 -0.023 -19.784 -0.014 -19.906 -0.014 -19.910 -0.014 6.625 0.308 4.414 0.425 43.427 42.032
36.000 -18.947 -0.020 -19.712 -0.023 -19.764 -0.013 -19.892 -0.013 -19.897 -0.014 6.577 0.312 4.442 0.438 43.420 42.034
36.400 -18.910 -0.019 -19.690 -0.022 -19.744 -0.013 -19.878 -0.013 -19.885 -0.013 6.532 0.317 4.466 0.450 43.413 42.035
36.800 -18.872 -0.019 -19.669 -0.022 -19.724 -0.012 -19.863 -0.012 -19.872 -0.012 6.491 0.322 4.484 0.462 43.406 42.034
37.200 -18.833 -0.018 -19.646 -0.022 -19.703 -0.011 -19.848 -0.011 -19.859 -0.011 6.455 0.327 4.497 0.473 43.398 42.032
37.600 -18.794 -0.018 -19.624 -0.021 -19.682 -0.010 -19.832 -0.010 -19.846 -0.010 6.421 0.332 4.508 0.483 43.391 42.029
38.000 -18.755 -0.018 -19.601 -0.021 -19.660 -0.010 -19.816 -0.010 -19.833 -0.010 6.386 0.337 4.520 0.494 43.384 42.026
38.400 -18.716 -0.018 -19.578 -0.021 -19.639 -0.009 -19.800 -0.009 -19.820 -0.009 6.344 0.339 4.540 0.505 43.376 42.026
38.800 -18.677 -0.018 -19.555 -0.021 -19.617 -0.010 -19.783 -0.010 -19.806 -0.010 6.294 0.339 4.573 0.517 43.369 42.029
39.200 -18.637 -0.019 -19.531 -0.021 -19.595 -0.010 -19.766 -0.010 -19.792 -0.010 6.239 0.339 4.612 0.530 43.361 42.034
39.600 -18.598 -0.019 -19.507 -0.021 -19.573 -0.010 -19.748 -0.010 -19.779 -0.010 6.185 0.338 4.653 0.544 43.354 42.039
40.000 -18.558 -0.020 -19.483 -0.021 -19.550 -0.011 -19.730 -0.011 -19.765 -0.011 6.135 0.338 4.689 0.557 43.346 42.043
40.400 -18.518 -0.021 -19.459 -0.021 -19.527 -0.011 -19.712 -0.011 -19.750 -0.011 6.091 0.338 4.717 0.568 43.339 42.045
40.800 -18.479 -0.022 -19.435 -0.021 -19.504 -0.011 -19.693 -0.011 -19.736 -0.011 6.054 0.340 4.734 0.579 43.332 42.044
41.200 -18.439 -0.023 -19.410 -0.021 -19.481 -0.011 -19.675 -0.011 -19.721 -0.011 6.023 0.342 4.743 0.587 43.324 42.040
41.600 -18.400 -0.023 -19.385 -0.021 -19.458 -0.011 -19.655 -0.011 -19.706 -0.011 6.003 0.345 4.734 0.592 43.317 42.033
42.000 -18.360 -0.024 -19.360 -0.021 -19.434 -0.011 -19.636 -0.011 -19.691 -0.011 5.991 0.348 4.714 0.595 43.309 42.021
42.400 -18.321 -0.025 -19.335 -0.021 -19.411 -0.011 -19.617 -0.011 -19.675 -0.011 5.984 0.350 4.683 0.593 43.302 42.006
42.800 -18.282 -0.026 -19.310 -0.021 -19.387 -0.010 -19.597 -0.010 -19.659 -0.010 5.983 0.352 4.645 0.589 43.294 41.988
43.200 -18.244 -0.027 -19.284 -0.021 -19.363 -0.010 -19.577 -0.010 -19.643 -0.010 5.980 0.353 4.608 0.583 43.287 41.971
43.600 -18.205 -0.028 -19.258 -0.021 -19.338 -0.009 -19.557 -0.009 -19.627 -0.009 5.969 0.353 4.584 0.580 43.279 41.957
44.000 -18.167 -0.029 -19.233 -0.021 -19.314 -0.010 -19.537 -0.010 -19.610 -0.010 5.940 0.352 4.586 0.584 43.271 41.954
44.400 -18.129 -0.030 -19.207 -0.022 -19.289 -0.010 -19.517 -0.010 -19.592 -0.010 5.897 0.351 4.609 0.596 43.263 41.961
44.800 -18.091 -0.031 -19.181 -0.022 -19.264 -0.011 -19.497 -0.011 -19.575 -0.011 5.841 0.350 4.653 0.613 43.254 41.977
45.200 -18.054 -0.032 -19.155 -0.023 -19.240 -0.013 -19.477 -0.013 -19.557 -0.013 5.780 0.347 4.710 0.632 43.247 41.996
45.600 -18.017 -0.033 -19.128 -0.023 -19.215 -0.014 -19.457 -0.014 -19.538 -0.014 5.718 0.344 4.769 0.652 43.239 42.014
46.000 -17.980 -0.034 -19.102 -0.024 -19.189 -0.015 -19.437 -0.015 -19.520 -0.015 5.661 0.340 4.825 0.670 43.231 42.031
46.400 -17.943 -0.035 -19.076 -0.025 -19.164 -0.017 -19.417 -0.017 -19.501 -0.017 5.608 0.337 4.875 0.686 43.224 42.046
46.800 -17.907 -0.036 -19.049 -0.025 -19.139 -0.018 -19.396 -0.018 -19.482 -0.018 5.560 0.334 4.917 0.700 43.216 42.057
47.200 -17.871 -0.037 -19.023 -0.026 -19.114 -0.019 -19.376 -0.019 -19.463 -0.019 5.517 0.331 4.952 0.712 43.209 42.066
47.600 -17.835 -0.038 -18.996 -0.027 -19.088 -0.020 -19.355 -0.020 -19.443 -0.020 5.478 0.328 4.979 0.723 43.202 42.073
48.000 -17.800 -0.039 -18.970 -0.027 -19.063 -0.021 -19.335 -0.021 -19.424 -0.021 5.443 0.326 4.999 0.731 43.194 42.078
48.400 -17.765 -0.039 -18.943 -0.028 -19.038 -0.022 -19.314 -0.022 -19.404 -0.022 5.410 0.324 5.017 0.739 43.187 42.081
48.800 -17.730 -0.040 -18.917 -0.028 -19.012 -0.023 -19.294 -0.023 -19.384 -0.023 5.383 0.322 5.023 0.745 43.179 42.082
49.200 -17.695 -0.040 -18.890 -0.029 -18.987 -0.023 -19.273 -0.023 -19.364 -0.023 5.358 0.321 5.023 0.749 43.171 42.081
49.600 -17.661 -0.041 -18.864 -0.029 -18.961 -0.023 -19.253 -0.023 -19.344 -0.023 5.337 0.320 5.017 0.753 43.163 42.079
50.000 -17.626 -0.041 -18.838 -0.029 -18.936 -0.023 -19.232 -0.023 -19.324 -0.023 5.318 0.319 5.007 0.755 43.155 42.076
50.400 -17.592 -0.042 -18.811 -0.029 -18.911 -0.023 -19.211 -0.023 -19.304 -0.023 5.301 0.319 4.992 0.755 43.147 42.071
50.800 -17.559 -0.042 -18.785 -0.029 -18.885 -0.023 -19.190 -0.023 -19.284 -0.023 5.287 0.319 4.971 0.755 43.138 42.065
51.200 -17.525 -0.042 -18.759 -0.029 -18.860 -0.023 -19.170 -0.023 -19.264 -0.023 5.275 0.319 4.946 0.753 43.130 42.057
51.600 -17.492 -0.042 -18.733 -0.028 -18.835 -0.022 -19.149 -0.022 -19.244 -0.022 5.265 0.319 4.916 0.750 43.122 42.048
52.000 -17.459 -0.042 -18.707 -0.028 -18.810 -0.021 -19.128 -0.021 -19.225 -0.021 5.258 0.320 4.882 0.746 43.113 42.038
52.400 -17.426 -0.042 -18.680 -0.027 -18.784 -0.021 -19.107 -0.021 -19.205 -0.021 5.253 0.320 4.843 0.740 43.105 42.026
52.800 -17.393 -0.042 -18.654 -0.027 -18.759 -0.020 -19.086 -0.020 -19.185 -0.020 5.250 0.321 4.802 0.733 43.096 42.013
53.200 -17.361 -0.042 -18.629 -0.026 -18.734 -0.019 -19.065 -0.019 -19.166 -0.019 5.249 0.321 4.758 0.725 43.088 41.999
53.600 -17.329 -0.042 -18.603 -0.026 -18.709 -0.018 -19.044 -0.018 -19.146 -0.018 5.248 0.321 4.713 0.716 43.079 41.984
54.000 -17.297 -0.042 -18.577 -0.026 -18.684 -0.018 -19.023 -0.018 -19.127 -0.018 5.246 0.320 4.670 0.706 43.071 41.969
54.400 -17.265 -0.043 -18.551 -0.025 -18.659 -0.017 -19.002 -0.017 -19.108 -0.017 5.243 0.320 4.631 0.697 43.062 41.955
54.800 -17.233 -0.043 -18.526 -0.025 -18.635 -0.017 -18.981 -0.017 -19.090 -0.017 5.236 0.318 4.600 0.690 43.054 41.944
55.200 -17.202 -0.044 -18.500 -0.025 -18.610 -0.017 -18.960 -0.017 -19.071 -0.017 5.225 0.316 4.578 0.684 43.046 41.935
55.600 -17.171 -0.044 -18.474 -0.025 -18.585 -0.017 -18.939 -0.017 -19.053 -0.017 5.210 0.314 4.563 0.680 43.039 41.927
56.000 -17.140 -0.045 -18.449 -0.025 -18.560 -0.017 -18.918 -0.017 -19.035 -0.017 5.193 0.311 4.553 0.677 43.031 41.922
56.400 -17.109 -0.046 -18.424 -0.025 -18.536 -0.017 -18.897 -0.017 -19.017 -0.017 5.175 0.308 4.548 0.675 43.024 41.917
56.800 -17.078 -0.047 -18.398 -0.026 -18.511 -0.018 -18.876 -0.018 -18.999 -0.018 5.155 0.305 4.545 0.673 43.017 41.913
57.200 -17.048 -0.048 -18.373 -0.026 -18.487 -0.018 -18.856 -0.018 -18.982 -0.018 5.134 0.301 4.544 0.672 43.010 41.910
57.600 -17.018 -0.049 -18.348 -0.026 -18.462 -0.019 -18.835 -0.019 -18.965 -0.019 5.114 0.298 4.545 0.670 43.003 41.906
58.000 -16.988 -0.050 -18.322 -0.027 -18.437 -0.020 -18.815 -0.019 -18.948 -0.020 5.093 0.294 4.546 0.669 42.996 41.903
58.400 -16.958 -0.052 -18.297 -0.027 -18.413 -0.020 -18.795 -0.020 -18.931 -0.020 5.072 0.291 4.548 0.667 42.989 41.899
58.800 -16.928 -0.054 -18.272 -0.028 -18.388 -0.021 -18.775 -0.021 -18.914 -0.021 5.052 0.287 4.549 0.664 42.982 41.895
59.200 -16.899 -0.055 -18.247 -0.028 -18.364 -0.022 -18.756 -0.022 -18.897 -0.022 5.033 0.283 4.548 0.661 42.976 41.890
59.600 -16.870 -0.057 -18.221 -0.029 -18.339 -0.023 -18.736 -0.022 -18.881 -0.023 5.015 0.279 4.546 0.657 42.969 41.885
60.000 -16.841 -0.059 -18.196 -0.029 -18.314 -0.023 -18.717 -0.023 -18.864 -0.023 4.998 0.276 4.541 0.651 42.962 41.878
60.400 -16.812 -0.061 -18.171 -0.030 -18.290 -0.024 -18.698 -0.024 -18.847 -0.024 4.983 0.272 4.533 0.645 42.955 41.870
60.800 -16.783 -0.063 -18.145 -0.030 -18.265 -0.025 -18.679 -0.024 -18.831 -0.024 4.969 0.268 4.522 0.638 42.949 41.861
61.200 -16.755 -0.065 -18.120 -0.031 -18.240 -0.025 -18.660 -0.025 -18.814 -0.025 4.956 0.264 4.510 0.630 42.942 41.851
61.600 -16.727 -0.067 -18.095 -0.031 -18.216 -0.026 -18.641 -0.025 -18.798 -0.025 4.944 0.260 4.495 0.621 42.935 41.840
62.000 -16.699 -0.070 -18.069 -0.032 -18.191 -0.026 -18.622 -0.026 -18.781 -0.026 4.933 0.256 4.478 0.611 42.927 41.828
62.400 -16.672 -0.072 -18.044 -0.032 -18.166 -0.027 -18.603 -0.026 -18.764 -0.026 4.922 0.252 4.461 0.601 42.920 41.815
62.800 -16.644 -0.074 -18.018 -0.033 -18.141 -0.027 -18.584 -0.027 -18.747 -0.027 4.912 0.248 4.442 0.590 42.913 41.803
63.200 -16.617 -0.077 -17.993 -0.033 -18.116 -0.028 -18.566 -0.027 -18.730 -0.027 4.902 0.244 4.423 0.580 42.906 41.789
63.600 -16.590 -0.079 -17.967 -0.034 -18.091 -0.028 -18.547 -0.027 -18.712 -0.027 4.892 0.240 4.404 0.569 42.899 41.776
64.000 -16.564 -0.082 -17.942 -0.034 -18.065 -0.029 -18.528 -0.028 -18.695 -0.028 4.882 0.236 4.385 0.559 42.891 41.763
64.400 -16.538 -0.085 -17.916 -0.035 -18.040 -0.030 -18.510 -0.028 -18.677 -0.028 4.871 0.232 4.367 0.550 42.884 41.751
64.800 -16.512 -0.087 -17.890 -0.036 -18.014 -0.031 -18.491 -0.029 -18.658 -0.029 4.860 0.228 4.349 0.541 42.876 41.738
65.200 -16.486 -0.090 -17.864 -0.037 -17.989 -0.031 -18.472 -0.029 -18.640 -0.029 4.849 0.225 4.332 0.532 42.869 41.726
65.600 -16.461 -0.093 -17.838 -0.038 -17.963 -0.032 -18.453 -0.030 -18.622 -0.030 4.838 0.221 4.315 0.524 42.862 41.714
66.000 -16.436 -0.096 -17.812 -0.039 -17.938 -0.033 -18.434 -0.030 -18.603 -0.031 4.827 0.218 4.298 0.516 42.854 41.703
66.400 -16.411 -0.099 -17.786 -0.040 -17.912 -0.035 -18.415 -0.031 -18.584 -0.031 4.815 0.215 4.283 0.509 42.847 41.692
66.800 -16.386 -0.102 -17.760 -0.041 -17.886 -0.036 -18.396 -0.032 -18.566 -0.032 4.803 0.213 4.268 0.503 42.839 41.682
67.200 -16.361 -0.106 -17.734 -0.042 -17.860 -0.037 -18.377 -0.032 -18.547 -0.033 4.791 0.210 4.254 0.497 42.832 41.672
67.600 -16.337 -0.109 -17.708 -0.044 -17.834 -0.039 -18.358 -0.033 -18.528 -0.034 4.778 0.207 4.241 0.492 42.825 41.663
68.000 -16.312 -0.112 -17.682 -0.045 -17.808 -0.040 -18.338 -0.034 -18.509 -0.035 4.764 0.205 4.230 0.487 42.818 41.655
68.400 -16.288 -0.116 -17.656 -0.047 -17.783 -0.042 -18.319 -0.035 -18.490 -0.037 4.750 0.203 4.221 0.483 42.810 41.648
68.800 -16.264 -0.119 -17.629 -0.049 -17.757 -0.044 -18.299 -0.037 -18.471 -0.038 4.735 0.200 4.213 0.480 42.803 41.642
69.200 -16.241 -0.123 -17.603 -0.051 -17.731 -0.046 -18.280 -0.038 -18.452 -0.040 4.720 0.198 4.208 0.477 42.797 41.636
69.600 -16.217 -0.127 -17.577 -0.053 -17.705 -0.048 -18.260 -0.040 -18.433 -0.042 4.704 0.195 4.203 0.473 42.790 41.631
70.000 -16.193 -0.131 -17.551 -0.055 -17.679 -0.051 -18.240 -0.042 -18.414 -0.045 4.687 0.192 4.201 0.470 42.783 41.626
70.400 -16.170 -0.135 -17.525 -0.058 -17.653 -0.053 -18.219 -0.044 -18.396 -0.048 4.670 0.189 4.198 0.466 42.776 41.620
70.800 -16.146 -0.139 -17.499 -0.061 -17.627 -0.056 -18.199 -0.047 -18.377 -0.051 4.653 0.186 4.196 0.462 42.770 41.615
