"Time (MJD)" B-4369.53 B-4369.53_err UVM2-2245.03 UVM2-2245.03_err UVW1-2681.67 UVW1-2681.67_err UVW2-2083.95 UVW2-2083.95_err g-4671.78 g-4671.78_err i-7457.89 i-7457.89_err r-6141.12 r-6141.12_err u-3520.88 u-3520.88_err "Temp./1e3 (K)" "Temp. Err." "Radius/1e15 (cm)" "Radius Err." "Log10(Bol. Lum)" "Log10(Bol. Err)"
-50.000 -18.584 -0.181 -18.739 -0.156 -19.103 -0.156 -19.483 -0.174 -19.467 -0.158 -19.455 -0.165 -19.506 -0.159 -18.918 -0.227 15.151 0.417 1.014 0.055 43.586 42.146
-49.600 -18.629 -0.178 -18.786 -0.153 -19.152 -0.154 -19.534 -0.171 -19.515 -0.155 -19.501 -0.162 -19.549 -0.155 -18.963 -0.223 15.152 0.415 1.036 0.056 43.605 42.164
-49.200 -18.674 -0.175 -18.832 -0.150 -19.201 -0.152 -19.584 -0.170 -19.562 -0.153 -19.548 -0.160 -19.591 -0.152 -19.008 -0.219 15.154 0.414 1.058 0.057 43.624 42.183
-48.800 -18.719 -0.172 -18.878 -0.148 -19.250 -0.151 -19.634 -0.168 -19.610 -0.151 -19.594 -0.158 -19.633 -0.149 -19.054 -0.215 15.156 0.413 1.081 0.058 43.643 42.202
-48.400 -18.764 -0.170 -18.924 -0.146 -19.298 -0.150 -19.685 -0.167 -19.658 -0.149 -19.641 -0.156 -19.675 -0.146 -19.099 -0.212 15.159 0.412 1.104 0.059 43.662 42.221
-48.000 -18.809 -0.168 -18.971 -0.145 -19.347 -0.149 -19.735 -0.166 -19.706 -0.148 -19.687 -0.154 -19.717 -0.143 -19.144 -0.209 15.162 0.411 1.128 0.060 43.680 42.240
-47.600 -18.854 -0.167 -19.017 -0.144 -19.396 -0.149 -19.784 -0.166 -19.753 -0.147 -19.733 -0.153 -19.758 -0.140 -19.189 -0.206 15.166 0.409 1.152 0.061 43.699 42.259
-47.200 -18.898 -0.166 -19.062 -0.144 -19.444 -0.149 -19.834 -0.165 -19.801 -0.147 -19.779 -0.152 -19.799 -0.138 -19.235 -0.204 15.170 0.408 1.176 0.062 43.717 42.278
-46.800 -18.943 -0.165 -19.108 -0.144 -19.493 -0.149 -19.884 -0.165 -19.848 -0.146 -19.826 -0.151 -19.840 -0.136 -19.280 -0.202 15.175 0.407 1.200 0.063 43.736 42.296
-46.400 -18.987 -0.165 -19.154 -0.144 -19.541 -0.150 -19.933 -0.165 -19.896 -0.146 -19.872 -0.151 -19.880 -0.134 -19.325 -0.200 15.180 0.406 1.225 0.064 43.754 42.315
-46.000 -19.031 -0.165 -19.199 -0.145 -19.589 -0.150 -19.982 -0.165 -19.943 -0.146 -19.917 -0.150 -19.920 -0.133 -19.371 -0.198 15.186 0.405 1.250 0.065 43.773 42.334
-45.600 -19.075 -0.165 -19.245 -0.146 -19.637 -0.151 -20.031 -0.166 -19.990 -0.146 -19.963 -0.150 -19.960 -0.132 -19.416 -0.196 15.192 0.404 1.276 0.066 43.791 42.352
-45.200 -19.119 -0.165 -19.290 -0.146 -19.684 -0.152 -20.080 -0.166 -20.037 -0.146 -20.009 -0.150 -19.999 -0.130 -19.461 -0.194 15.199 0.403 1.302 0.067 43.809 42.370
-44.800 -19.162 -0.166 -19.335 -0.148 -19.732 -0.153 -20.128 -0.166 -20.084 -0.147 -20.054 -0.150 -20.039 -0.129 -19.506 -0.193 15.206 0.402 1.328 0.067 43.827 42.389
-44.400 -19.206 -0.166 -19.379 -0.149 -19.779 -0.154 -20.176 -0.167 -20.130 -0.147 -20.099 -0.150 -20.078 -0.129 -19.551 -0.192 15.213 0.401 1.354 0.068 43.845 42.407
-44.000 -19.249 -0.167 -19.424 -0.150 -19.826 -0.155 -20.224 -0.168 -20.176 -0.147 -20.145 -0.150 -20.117 -0.128 -19.596 -0.191 15.221 0.400 1.381 0.069 43.863 42.425
-43.600 -19.292 -0.168 -19.468 -0.151 -19.872 -0.157 -20.272 -0.168 -20.223 -0.148 -20.189 -0.150 -20.155 -0.127 -19.641 -0.189 15.228 0.399 1.408 0.070 43.881 42.442
-43.200 -19.334 -0.168 -19.512 -0.153 -19.919 -0.158 -20.320 -0.169 -20.269 -0.148 -20.234 -0.150 -20.194 -0.127 -19.686 -0.188 15.236 0.398 1.436 0.071 43.899 42.460
-42.800 -19.377 -0.169 -19.556 -0.154 -19.965 -0.159 -20.367 -0.169 -20.314 -0.149 -20.278 -0.150 -20.232 -0.126 -19.730 -0.187 15.243 0.397 1.464 0.072 43.916 42.478
-42.400 -19.419 -0.170 -19.599 -0.155 -20.010 -0.160 -20.414 -0.170 -20.360 -0.149 -20.322 -0.150 -20.270 -0.126 -19.774 -0.186 15.251 0.396 1.492 0.073 43.934 42.495
-42.000 -19.460 -0.171 -19.642 -0.157 -20.056 -0.161 -20.461 -0.171 -20.405 -0.150 -20.366 -0.150 -20.308 -0.126 -19.819 -0.185 15.258 0.396 1.521 0.074 43.951 42.513
-41.600 -19.502 -0.172 -19.685 -0.158 -20.101 -0.162 -20.507 -0.171 -20.450 -0.150 -20.410 -0.150 -20.346 -0.126 -19.863 -0.184 15.265 0.395 1.550 0.075 43.968 42.530
-41.200 -19.543 -0.173 -19.727 -0.159 -20.146 -0.163 -20.553 -0.172 -20.494 -0.150 -20.453 -0.150 -20.383 -0.125 -19.906 -0.183 15.271 0.395 1.579 0.076 43.985 42.547
-40.800 -19.583 -0.173 -19.769 -0.160 -20.190 -0.164 -20.599 -0.172 -20.539 -0.151 -20.496 -0.150 -20.421 -0.125 -19.950 -0.182 15.277 0.394 1.609 0.078 44.002 42.565
-40.400 -19.623 -0.174 -19.811 -0.161 -20.234 -0.165 -20.644 -0.172 -20.582 -0.151 -20.539 -0.149 -20.458 -0.125 -19.993 -0.181 15.282 0.394 1.639 0.079 44.019 42.582
-40.000 -19.663 -0.175 -19.852 -0.162 -20.278 -0.165 -20.689 -0.173 -20.626 -0.151 -20.581 -0.149 -20.495 -0.125 -20.036 -0.180 15.287 0.394 1.670 0.080 44.035 42.599
-39.600 -19.703 -0.175 -19.893 -0.163 -20.321 -0.166 -20.733 -0.173 -20.669 -0.151 -20.623 -0.149 -20.532 -0.125 -20.079 -0.179 15.291 0.394 1.701 0.081 44.052 42.617
-39.200 -19.742 -0.175 -19.933 -0.163 -20.363 -0.166 -20.778 -0.173 -20.712 -0.151 -20.664 -0.148 -20.568 -0.125 -20.122 -0.178 15.294 0.395 1.732 0.083 44.068 42.634
-38.800 -19.780 -0.176 -19.973 -0.164 -20.406 -0.166 -20.821 -0.172 -20.755 -0.150 -20.705 -0.147 -20.605 -0.125 -20.164 -0.176 15.296 0.395 1.764 0.084 44.084 42.651
-38.400 -19.818 -0.176 -20.012 -0.164 -20.447 -0.166 -20.865 -0.172 -20.797 -0.150 -20.746 -0.146 -20.641 -0.125 -20.206 -0.175 15.298 0.396 1.797 0.086 44.100 42.668
-38.000 -19.856 -0.176 -20.051 -0.164 -20.489 -0.166 -20.908 -0.172 -20.838 -0.149 -20.787 -0.145 -20.677 -0.125 -20.247 -0.173 15.299 0.396 1.829 0.087 44.116 42.685
-37.600 -19.893 -0.175 -20.090 -0.164 -20.529 -0.166 -20.950 -0.171 -20.879 -0.149 -20.827 -0.144 -20.713 -0.125 -20.289 -0.172 15.298 0.397 1.863 0.089 44.132 42.702
-37.200 -19.929 -0.175 -20.128 -0.164 -20.569 -0.166 -20.992 -0.171 -20.920 -0.148 -20.866 -0.143 -20.748 -0.125 -20.330 -0.170 15.297 0.398 1.896 0.091 44.147 42.719
-36.800 -19.965 -0.175 -20.165 -0.164 -20.609 -0.165 -21.034 -0.170 -20.961 -0.147 -20.905 -0.142 -20.784 -0.124 -20.370 -0.168 15.295 0.399 1.930 0.093 44.162 42.736
-36.400 -20.001 -0.174 -20.202 -0.163 -20.648 -0.164 -21.075 -0.169 -21.000 -0.146 -20.944 -0.140 -20.818 -0.124 -20.410 -0.167 15.292 0.400 1.965 0.094 44.177 42.752
-36.000 -20.036 -0.173 -20.238 -0.162 -20.687 -0.164 -21.116 -0.168 -21.040 -0.145 -20.982 -0.138 -20.853 -0.123 -20.450 -0.165 15.288 0.401 2.000 0.096 44.192 42.769
-35.600 -20.070 -0.172 -20.274 -0.161 -20.725 -0.163 -21.156 -0.167 -21.079 -0.144 -21.020 -0.137 -20.887 -0.123 -20.489 -0.163 15.283 0.402 2.035 0.098 44.207 42.785
-35.200 -20.104 -0.171 -20.309 -0.160 -20.762 -0.161 -21.196 -0.166 -21.117 -0.143 -21.057 -0.135 -20.921 -0.122 -20.528 -0.160 15.277 0.403 2.071 0.100 44.221 42.802
-34.800 -20.137 -0.170 -20.343 -0.159 -20.799 -0.160 -21.235 -0.164 -21.155 -0.141 -21.094 -0.133 -20.954 -0.121 -20.567 -0.158 15.270 0.404 2.107 0.102 44.236 42.818
-34.400 -20.170 -0.168 -20.377 -0.158 -20.835 -0.159 -21.273 -0.163 -21.192 -0.140 -21.130 -0.130 -20.988 -0.120 -20.605 -0.156 15.262 0.406 2.144 0.104 44.250 42.833
-34.000 -20.201 -0.167 -20.410 -0.156 -20.870 -0.157 -21.311 -0.161 -21.229 -0.138 -21.165 -0.128 -21.020 -0.119 -20.643 -0.154 15.253 0.407 2.181 0.106 44.263 42.849
-33.600 -20.233 -0.165 -20.443 -0.155 -20.905 -0.155 -21.349 -0.159 -21.265 -0.136 -21.201 -0.126 -21.053 -0.118 -20.680 -0.151 15.243 0.408 2.218 0.109 44.277 42.864
-33.200 -20.263 -0.163 -20.474 -0.153 -20.939 -0.153 -21.386 -0.157 -21.301 -0.134 -21.235 -0.123 -21.084 -0.117 -20.716 -0.148 15.232 0.409 2.255 0.111 44.290 42.880
-32.800 -20.293 -0.161 -20.505 -0.151 -20.972 -0.151 -21.422 -0.155 -21.336 -0.132 -21.269 -0.121 -21.116 -0.115 -20.752 -0.146 15.219 0.410 2.293 0.113 44.303 42.895
-32.400 -20.322 -0.159 -20.536 -0.149 -21.005 -0.149 -21.458 -0.153 -21.370 -0.130 -21.303 -0.118 -21.147 -0.114 -20.788 -0.143 15.206 0.412 2.331 0.115 44.316 42.909
-32.000 -20.350 -0.157 -20.565 -0.146 -21.036 -0.146 -21.493 -0.150 -21.404 -0.128 -21.336 -0.115 -21.177 -0.112 -20.823 -0.140 15.192 0.413 2.370 0.118 44.329 42.924
-31.600 -20.378 -0.154 -20.594 -0.144 -21.068 -0.144 -21.528 -0.148 -21.437 -0.126 -21.368 -0.112 -21.207 -0.111 -20.857 -0.137 15.176 0.414 2.408 0.120 44.341 42.938
-31.200 -20.405 -0.152 -20.622 -0.141 -21.098 -0.141 -21.561 -0.145 -21.470 -0.124 -21.400 -0.109 -21.237 -0.109 -20.891 -0.134 15.160 0.415 2.447 0.123 44.353 42.951
-30.800 -20.431 -0.149 -20.650 -0.138 -21.127 -0.138 -21.595 -0.142 -21.502 -0.122 -21.431 -0.106 -21.266 -0.107 -20.925 -0.131 15.142 0.416 2.486 0.125 44.365 42.965
-30.400 -20.457 -0.146 -20.676 -0.135 -21.156 -0.136 -21.627 -0.140 -21.534 -0.120 -21.461 -0.103 -21.295 -0.105 -20.958 -0.128 15.123 0.417 2.526 0.128 44.376 42.978
-30.000 -20.481 -0.143 -20.702 -0.132 -21.184 -0.133 -21.659 -0.137 -21.564 -0.117 -21.491 -0.100 -21.323 -0.103 -20.990 -0.125 15.103 0.418 2.565 0.130 44.387 42.991
-29.600 -20.505 -0.140 -20.727 -0.129 -21.211 -0.129 -21.691 -0.133 -21.595 -0.115 -21.520 -0.097 -21.350 -0.101 -21.021 -0.122 15.082 0.419 2.605 0.133 44.398 43.004
-29.200 -20.528 -0.136 -20.751 -0.126 -21.237 -0.126 -21.721 -0.130 -21.624 -0.113 -21.549 -0.094 -21.377 -0.099 -21.052 -0.119 15.060 0.420 2.645 0.135 44.409 43.016
-28.800 -20.550 -0.133 -20.775 -0.122 -21.263 -0.123 -21.751 -0.127 -21.653 -0.111 -21.577 -0.091 -21.404 -0.097 -21.082 -0.116 15.036 0.420 2.685 0.138 44.419 43.028
-28.400 -20.571 -0.129 -20.797 -0.119 -21.287 -0.119 -21.781 -0.124 -21.681 -0.108 -21.604 -0.088 -21.430 -0.095 -21.112 -0.113 15.011 0.421 2.725 0.141 44.429 43.039
-28.000 -20.592 -0.126 -20.818 -0.115 -21.311 -0.116 -21.809 -0.120 -21.709 -0.106 -21.631 -0.085 -21.455 -0.093 -21.141 -0.110 14.984 0.422 2.766 0.144 44.439 43.050
-27.600 -20.611 -0.122 -20.839 -0.111 -21.334 -0.112 -21.837 -0.116 -21.735 -0.104 -21.657 -0.082 -21.480 -0.091 -21.169 -0.107 14.956 0.422 2.806 0.147 44.448 43.061
-27.200 -20.630 -0.118 -20.859 -0.107 -21.355 -0.108 -21.865 -0.113 -21.762 -0.102 -21.683 -0.079 -21.504 -0.089 -21.196 -0.104 14.926 0.423 2.847 0.150 44.457 43.072
-26.800 -20.648 -0.114 -20.878 -0.104 -21.376 -0.105 -21.891 -0.109 -21.787 -0.100 -21.707 -0.077 -21.527 -0.087 -21.223 -0.102 14.895 0.423 2.888 0.154 44.466 43.082
-26.400 -20.664 -0.111 -20.895 -0.100 -21.396 -0.101 -21.917 -0.105 -21.812 -0.098 -21.731 -0.074 -21.550 -0.085 -21.249 -0.099 14.861 0.424 2.930 0.157 44.475 43.092
-26.000 -20.680 -0.107 -20.912 -0.096 -21.415 -0.097 -21.942 -0.102 -21.836 -0.096 -21.755 -0.072 -21.573 -0.083 -21.275 -0.096 14.826 0.424 2.971 0.161 44.483 43.102
-25.600 -20.695 -0.103 -20.928 -0.091 -21.434 -0.093 -21.966 -0.098 -21.860 -0.094 -21.777 -0.070 -21.595 -0.081 -21.299 -0.094 14.789 0.425 3.014 0.165 44.491 43.111
-25.200 -20.709 -0.099 -20.943 -0.087 -21.451 -0.089 -21.990 -0.094 -21.882 -0.092 -21.799 -0.068 -21.616 -0.079 -21.323 -0.092 14.749 0.425 3.056 0.170 44.498 43.121
-24.800 -20.722 -0.094 -20.957 -0.083 -21.467 -0.086 -22.013 -0.090 -21.905 -0.090 -21.821 -0.066 -21.637 -0.077 -21.346 -0.090 14.707 0.426 3.100 0.174 44.506 43.130
-24.400 -20.734 -0.090 -20.970 -0.079 -21.483 -0.082 -22.035 -0.086 -21.926 -0.089 -21.842 -0.065 -21.657 -0.075 -21.368 -0.088 14.663 0.427 3.144 0.179 44.513 43.140
-24.000 -20.745 -0.086 -20.982 -0.075 -21.497 -0.078 -22.056 -0.082 -21.947 -0.087 -21.862 -0.063 -21.677 -0.073 -21.390 -0.086 14.616 0.428 3.188 0.185 44.519 43.149
-23.600 -20.755 -0.082 -20.993 -0.071 -21.510 -0.074 -22.077 -0.079 -21.967 -0.085 -21.881 -0.062 -21.696 -0.072 -21.411 -0.085 14.567 0.429 3.234 0.191 44.526 43.159
-23.200 -20.764 -0.078 -21.003 -0.068 -21.523 -0.071 -22.097 -0.075 -21.987 -0.084 -21.900 -0.061 -21.715 -0.070 -21.431 -0.083 14.515 0.430 3.280 0.197 44.532 43.169
-22.800 -20.772 -0.075 -21.012 -0.064 -21.535 -0.067 -22.116 -0.071 -22.006 -0.082 -21.918 -0.060 -21.733 -0.069 -21.451 -0.082 14.460 0.431 3.328 0.204 44.538 43.179
-22.400 -20.779 -0.071 -21.020 -0.060 -21.545 -0.064 -22.134 -0.068 -22.024 -0.081 -21.936 -0.059 -21.750 -0.067 -21.470 -0.081 14.402 0.433 3.377 0.212 44.543 43.190
-22.000 -20.785 -0.067 -21.027 -0.057 -21.555 -0.061 -22.151 -0.064 -22.042 -0.079 -21.953 -0.058 -21.767 -0.066 -21.488 -0.080 14.342 0.434 3.427 0.220 44.549 43.201
-21.600 -20.790 -0.064 -21.032 -0.054 -21.564 -0.058 -22.168 -0.061 -22.060 -0.078 -21.970 -0.057 -21.784 -0.065 -21.506 -0.079 14.279 0.436 3.478 0.228 44.554 43.212
-21.200 -20.794 -0.061 -21.037 -0.051 -21.572 -0.055 -22.184 -0.058 -22.077 -0.076 -21.986 -0.057 -21.800 -0.064 -21.524 -0.078 14.213 0.438 3.530 0.237 44.559 43.225
-20.800 -20.797 -0.058 -21.040 -0.049 -21.579 -0.053 -22.199 -0.056 -22.093 -0.075 -22.002 -0.056 -21.816 -0.063 -21.540 -0.077 14.146 0.441 3.584 0.247 44.564 43.237
-20.400 -20.798 -0.056 -21.043 -0.047 -21.585 -0.052 -22.214 -0.053 -22.109 -0.073 -22.017 -0.056 -21.831 -0.062 -21.556 -0.077 14.077 0.443 3.638 0.256 44.569 43.250
-20.000 -20.799 -0.054 -21.044 -0.045 -21.590 -0.050 -22.227 -0.051 -22.124 -0.072 -22.032 -0.055 -21.845 -0.062 -21.572 -0.077 14.007 0.445 3.693 0.265 44.573 43.262
-19.600 -20.799 -0.052 -21.044 -0.044 -21.595 -0.049 -22.240 -0.050 -22.139 -0.071 -22.046 -0.055 -21.860 -0.062 -21.587 -0.077 13.937 0.447 3.748 0.274 44.577 43.275
-19.200 -20.797 -0.050 -21.044 -0.043 -21.599 -0.049 -22.252 -0.048 -22.153 -0.069 -22.060 -0.055 -21.874 -0.061 -21.602 -0.077 13.867 0.448 3.802 0.283 44.581 43.287
-18.800 -20.795 -0.049 -21.042 -0.043 -21.601 -0.049 -22.263 -0.047 -22.167 -0.068 -22.074 -0.055 -21.887 -0.061 -21.616 -0.077 13.797 0.450 3.857 0.292 44.584 43.298
-18.400 -20.792 -0.048 -21.039 -0.043 -21.604 -0.049 -22.274 -0.047 -22.181 -0.067 -22.087 -0.055 -21.900 -0.062 -21.630 -0.078 13.728 0.451 3.911 0.300 44.588 43.309
-18.000 -20.788 -0.048 -21.035 -0.043 -21.605 -0.049 -22.284 -0.046 -22.194 -0.066 -22.099 -0.055 -21.913 -0.062 -21.643 -0.079 13.659 0.452 3.965 0.308 44.591 43.320
-17.600 -20.783 -0.047 -21.031 -0.043 -21.606 -0.050 -22.293 -0.046 -22.206 -0.065 -22.112 -0.056 -21.926 -0.062 -21.655 -0.080 13.589 0.453 4.020 0.317 44.594 43.331
-17.200 -20.777 -0.047 -21.026 -0.044 -21.606 -0.051 -22.302 -0.045 -22.219 -0.064 -22.124 -0.057 -21.938 -0.063 -21.668 -0.081 13.519 0.454 4.076 0.325 44.597 43.342
-16.800 -20.771 -0.047 -21.020 -0.044 -21.605 -0.052 -22.310 -0.045 -22.231 -0.064 -22.136 -0.058 -21.950 -0.064 -21.680 -0.082 13.448 0.455 4.132 0.334 44.600 43.352
-16.400 -20.764 -0.047 -21.014 -0.045 -21.604 -0.053 -22.318 -0.045 -22.243 -0.063 -22.147 -0.059 -21.961 -0.064 -21.691 -0.084 13.377 0.456 4.190 0.344 44.603 43.363
-16.000 -20.757 -0.047 -21.007 -0.046 -21.602 -0.054 -22.325 -0.045 -22.254 -0.063 -22.159 -0.060 -21.972 -0.065 -21.702 -0.086 13.305 0.458 4.248 0.354 44.605 43.374
-15.600 -20.749 -0.047 -21.000 -0.046 -21.600 -0.054 -22.332 -0.045 -22.265 -0.063 -22.170 -0.062 -21.983 -0.066 -21.713 -0.088 13.233 0.459 4.307 0.365 44.608 43.385
-15.200 -20.741 -0.047 -20.992 -0.047 -21.598 -0.055 -22.339 -0.045 -22.276 -0.064 -22.181 -0.063 -21.994 -0.068 -21.723 -0.090 13.161 0.461 4.367 0.376 44.610 43.397
-14.800 -20.732 -0.047 -20.984 -0.048 -21.594 -0.056 -22.345 -0.045 -22.287 -0.065 -22.192 -0.066 -22.004 -0.069 -21.733 -0.093 13.088 0.463 4.429 0.388 44.613 43.409
-14.400 -20.723 -0.047 -20.975 -0.048 -21.591 -0.057 -22.351 -0.044 -22.297 -0.066 -22.202 -0.068 -22.014 -0.070 -21.743 -0.095 13.015 0.465 4.491 0.401 44.615 43.422
-14.000 -20.714 -0.047 -20.966 -0.049 -21.587 -0.057 -22.356 -0.044 -22.308 -0.067 -22.212 -0.070 -22.023 -0.072 -21.752 -0.098 12.942 0.468 4.555 0.415 44.618 43.435
-13.600 -20.705 -0.048 -20.957 -0.049 -21.582 -0.058 -22.361 -0.044 -22.317 -0.069 -22.222 -0.073 -22.033 -0.073 -21.761 -0.101 12.870 0.471 4.621 0.429 44.620 43.448
-13.200 -20.695 -0.048 -20.948 -0.049 -21.577 -0.058 -22.366 -0.043 -22.327 -0.071 -22.232 -0.076 -22.042 -0.074 -21.769 -0.104 12.797 0.474 4.687 0.445 44.623 43.462
-12.800 -20.685 -0.048 -20.939 -0.049 -21.572 -0.059 -22.371 -0.043 -22.337 -0.073 -22.242 -0.079 -22.050 -0.075 -21.777 -0.107 12.724 0.477 4.755 0.461 44.626 43.476
-12.400 -20.675 -0.048 -20.929 -0.050 -21.567 -0.059 -22.376 -0.042 -22.346 -0.075 -22.251 -0.082 -22.059 -0.077 -21.785 -0.111 12.652 0.480 4.824 0.478 44.628 43.490
-12.000 -20.664 -0.048 -20.919 -0.050 -21.561 -0.059 -22.380 -0.042 -22.355 -0.078 -22.261 -0.085 -22.067 -0.078 -21.793 -0.114 12.580 0.483 4.894 0.495 44.631 43.504
-11.600 -20.654 -0.047 -20.909 -0.050 -21.555 -0.059 -22.384 -0.041 -22.363 -0.080 -22.270 -0.088 -22.075 -0.079 -21.800 -0.117 12.510 0.485 4.963 0.512 44.633 43.517
-11.200 -20.644 -0.047 -20.899 -0.050 -21.549 -0.059 -22.388 -0.041 -22.372 -0.083 -22.278 -0.091 -22.082 -0.080 -21.807 -0.120 12.441 0.488 5.033 0.529 44.636 43.531
-10.800 -20.634 -0.047 -20.889 -0.050 -21.542 -0.058 -22.392 -0.040 -22.380 -0.086 -22.287 -0.095 -22.090 -0.080 -21.814 -0.124 12.374 0.490 5.101 0.546 44.638 43.543
-10.400 -20.623 -0.047 -20.879 -0.050 -21.536 -0.058 -22.396 -0.040 -22.388 -0.089 -22.295 -0.098 -22.096 -0.081 -21.820 -0.127 12.310 0.492 5.167 0.563 44.640 43.554
-10.000 -20.613 -0.047 -20.869 -0.050 -21.529 -0.058 -22.399 -0.040 -22.395 -0.091 -22.303 -0.101 -22.103 -0.082 -21.826 -0.130 12.249 0.494 5.230 0.578 44.642 43.565
-9.600 -20.603 -0.047 -20.859 -0.049 -21.521 -0.058 -22.402 -0.040 -22.403 -0.094 -22.311 -0.104 -22.109 -0.082 -21.832 -0.133 12.192 0.495 5.289 0.593 44.644 43.575
-9.200 -20.592 -0.048 -20.849 -0.049 -21.514 -0.057 -22.405 -0.039 -22.410 -0.097 -22.318 -0.107 -22.115 -0.082 -21.837 -0.136 12.136 0.496 5.345 0.607 44.645 43.583
-8.800 -20.582 -0.048 -20.838 -0.049 -21.506 -0.057 -22.408 -0.039 -22.417 -0.100 -22.326 -0.110 -22.121 -0.083 -21.842 -0.139 12.084 0.496 5.398 0.620 44.646 43.591
-8.400 -20.571 -0.048 -20.828 -0.049 -21.499 -0.057 -22.411 -0.040 -22.423 -0.102 -22.333 -0.113 -22.126 -0.083 -21.847 -0.142 12.035 0.497 5.447 0.632 44.647 43.599
-8.000 -20.560 -0.048 -20.817 -0.049 -21.491 -0.056 -22.413 -0.040 -22.429 -0.105 -22.339 -0.116 -22.132 -0.083 -21.852 -0.145 11.988 0.496 5.492 0.643 44.647 43.605
-7.600 -20.548 -0.048 -20.806 -0.049 -21.482 -0.056 -22.414 -0.040 -22.435 -0.108 -22.346 -0.119 -22.136 -0.082 -21.856 -0.148 11.943 0.496 5.533 0.653 44.647 43.610
-7.200 -20.537 -0.049 -20.795 -0.049 -21.474 -0.056 -22.416 -0.040 -22.440 -0.110 -22.352 -0.122 -22.141 -0.082 -21.860 -0.150 11.901 0.495 5.571 0.662 44.647 43.615
-6.800 -20.524 -0.049 -20.784 -0.049 -21.465 -0.055 -22.416 -0.041 -22.445 -0.113 -22.357 -0.125 -22.145 -0.082 -21.864 -0.153 11.860 0.494 5.605 0.670 44.646 43.618
-6.400 -20.512 -0.049 -20.772 -0.048 -21.456 -0.055 -22.417 -0.041 -22.450 -0.115 -22.363 -0.127 -22.149 -0.081 -21.868 -0.155 11.821 0.492 5.636 0.677 44.645 43.621
-6.000 -20.499 -0.050 -20.760 -0.048 -21.446 -0.055 -22.416 -0.042 -22.454 -0.117 -22.368 -0.129 -22.153 -0.081 -21.871 -0.158 11.783 0.491 5.666 0.683 44.644 43.624
-5.600 -20.486 -0.050 -20.747 -0.048 -21.437 -0.054 -22.416 -0.042 -22.458 -0.119 -22.373 -0.132 -22.156 -0.080 -21.874 -0.160 11.745 0.489 5.693 0.689 44.643 43.625
-5.200 -20.472 -0.051 -20.734 -0.048 -21.426 -0.054 -22.415 -0.042 -22.462 -0.121 -22.377 -0.134 -22.159 -0.080 -21.877 -0.162 11.708 0.487 5.720 0.694 44.642 43.627
-4.800 -20.458 -0.051 -20.721 -0.048 -21.416 -0.054 -22.413 -0.043 -22.465 -0.123 -22.381 -0.136 -22.162 -0.080 -21.879 -0.164 11.672 0.485 5.745 0.698 44.640 43.628
-4.400 -20.443 -0.052 -20.707 -0.048 -21.405 -0.053 -22.410 -0.043 -22.468 -0.125 -22.385 -0.138 -22.164 -0.079 -21.882 -0.165 11.636 0.482 5.768 0.703 44.638 43.628
-4.000 -20.428 -0.052 -20.693 -0.048 -21.393 -0.053 -22.407 -0.044 -22.471 -0.127 -22.388 -0.140 -22.166 -0.079 -21.884 -0.167 11.600 0.480 5.791 0.706 44.636 43.628
-3.600 -20.413 -0.053 -20.678 -0.048 -21.381 -0.053 -22.404 -0.044 -22.473 -0.128 -22.392 -0.141 -22.168 -0.078 -21.886 -0.169 11.565 0.478 5.812 0.709 44.634 43.628
-3.200 -20.397 -0.053 -20.663 -0.049 -21.368 -0.053 -22.400 -0.045 -22.475 -0.130 -22.394 -0.143 -22.170 -0.078 -21.887 -0.170 11.530 0.475 5.832 0.711 44.632 43.627
-2.800 -20.380 -0.054 -20.647 -0.049 -21.355 -0.053 -22.395 -0.046 -22.476 -0.131 -22.397 -0.144 -22.171 -0.078 -21.889 -0.171 11.495 0.472 5.850 0.713 44.629 43.625
-2.400 -20.363 -0.055 -20.631 -0.050 -21.341 -0.054 -22.389 -0.046 -22.477 -0.133 -22.399 -0.145 -22.172 -0.079 -21.890 -0.172 11.462 0.468 5.867 0.714 44.627 43.623
-2.000 -20.346 -0.056 -20.615 -0.050 -21.327 -0.054 -22.383 -0.047 -22.478 -0.134 -22.401 -0.146 -22.173 -0.079 -21.891 -0.173 11.428 0.465 5.882 0.713 44.624 43.620
-1.600 -20.328 -0.057 -20.597 -0.051 -21.312 -0.055 -22.376 -0.049 -22.478 -0.135 -22.402 -0.147 -22.173 -0.080 -21.892 -0.174 11.395 0.461 5.896 0.713 44.621 43.617
-1.200 -20.309 -0.058 -20.580 -0.052 -21.297 -0.056 -22.368 -0.050 -22.478 -0.135 -22.403 -0.148 -22.173 -0.081 -21.893 -0.175 11.361 0.457 5.910 0.712 44.618 43.614
-0.800 -20.290 -0.060 -20.562 -0.053 -21.281 -0.057 -22.360 -0.051 -22.477 -0.136 -22.404 -0.148 -22.173 -0.082 -21.893 -0.175 11.326 0.453 5.924 0.711 44.614 43.611
-0.400 -20.270 -0.061 -20.543 -0.054 -21.264 -0.058 -22.351 -0.052 -22.476 -0.137 -22.404 -0.149 -22.173 -0.083 -21.893 -0.175 11.291 0.449 5.939 0.710 44.611 43.607
-0.000 -20.250 -0.062 -20.524 -0.056 -21.247 -0.059 -22.342 -0.053 -22.475 -0.137 -22.404 -0.149 -22.172 -0.084 -21.893 -0.175 11.254 0.446 5.955 0.710 44.608 43.604
0.400 -20.230 -0.064 -20.505 -0.057 -21.230 -0.061 -22.332 -0.055 -22.473 -0.138 -22.404 -0.149 -22.171 -0.085 -21.893 -0.175 11.217 0.442 5.973 0.710 44.605 43.601
0.800 -20.209 -0.065 -20.484 -0.058 -21.211 -0.062 -22.321 -0.056 -22.470 -0.138 -22.403 -0.149 -22.170 -0.086 -21.893 -0.175 11.178 0.439 5.991 0.710 44.601 43.598
1.200 -20.188 -0.066 -20.464 -0.059 -21.193 -0.063 -22.310 -0.057 -22.468 -0.138 -22.402 -0.149 -22.168 -0.088 -21.893 -0.175 11.139 0.436 6.012 0.711 44.598 43.596
1.600 -20.166 -0.067 -20.443 -0.060 -21.174 -0.064 -22.298 -0.058 -22.465 -0.138 -22.401 -0.149 -22.167 -0.089 -21.892 -0.175 11.098 0.432 6.033 0.712 44.595 43.593
2.000 -20.143 -0.068 -20.421 -0.061 -21.154 -0.065 -22.286 -0.058 -22.461 -0.138 -22.399 -0.148 -22.165 -0.090 -21.891 -0.174 11.057 0.430 6.055 0.714 44.592 43.591
2.400 -20.120 -0.069 -20.399 -0.062 -21.134 -0.066 -22.273 -0.059 -22.457 -0.137 -22.397 -0.148 -22.163 -0.092 -21.890 -0.173 11.015 0.427 6.079 0.717 44.588 43.589
2.800 -20.097 -0.070 -20.377 -0.063 -21.113 -0.067 -22.260 -0.059 -22.453 -0.137 -22.394 -0.147 -22.160 -0.093 -21.889 -0.172 10.972 0.424 6.104 0.720 44.585 43.588
3.200 -20.074 -0.071 -20.354 -0.063 -21.092 -0.067 -22.247 -0.060 -22.449 -0.136 -22.392 -0.146 -22.158 -0.094 -21.888 -0.171 10.928 0.421 6.130 0.723 44.582 43.586
3.600 -20.049 -0.071 -20.330 -0.064 -21.071 -0.068 -22.232 -0.060 -22.444 -0.136 -22.388 -0.145 -22.155 -0.095 -21.887 -0.170 10.884 0.419 6.157 0.726 44.579 43.584
4.000 -20.025 -0.072 -20.307 -0.064 -21.049 -0.069 -22.218 -0.060 -22.438 -0.135 -22.385 -0.143 -22.152 -0.096 -21.885 -0.169 10.839 0.417 6.184 0.730 44.575 43.583
4.400 -20.000 -0.073 -20.282 -0.065 -21.027 -0.069 -22.203 -0.060 -22.432 -0.134 -22.381 -0.142 -22.149 -0.097 -21.884 -0.167 10.794 0.414 6.213 0.734 44.572 43.581
4.800 -19.974 -0.073 -20.258 -0.065 -21.005 -0.069 -22.187 -0.060 -22.426 -0.133 -22.377 -0.141 -22.146 -0.097 -21.882 -0.166 10.748 0.412 6.241 0.738 44.569 43.580
5.200 -19.949 -0.073 -20.233 -0.065 -20.982 -0.070 -22.172 -0.059 -22.420 -0.132 -22.373 -0.139 -22.142 -0.098 -21.880 -0.164 10.702 0.409 6.271 0.742 44.565 43.578
5.600 -19.922 -0.073 -20.207 -0.065 -20.959 -0.070 -22.155 -0.059 -22.413 -0.131 -22.368 -0.137 -22.139 -0.098 -21.878 -0.162 10.657 0.407 6.300 0.746 44.562 43.577
6.000 -19.896 -0.074 -20.181 -0.065 -20.935 -0.070 -22.139 -0.058 -22.406 -0.130 -22.363 -0.135 -22.135 -0.098 -21.876 -0.160 10.611 0.405 6.329 0.750 44.558 43.575
6.400 -19.869 -0.074 -20.155 -0.065 -20.912 -0.070 -22.122 -0.058 -22.398 -0.128 -22.358 -0.133 -22.131 -0.098 -21.874 -0.158 10.565 0.402 6.358 0.754 44.555 43.572
6.800 -19.841 -0.074 -20.129 -0.065 -20.888 -0.070 -22.105 -0.057 -22.390 -0.127 -22.352 -0.131 -22.127 -0.098 -21.872 -0.156 10.520 0.400 6.386 0.757 44.551 43.570
7.200 -19.813 -0.074 -20.102 -0.065 -20.864 -0.070 -22.087 -0.057 -22.382 -0.125 -22.346 -0.129 -22.123 -0.098 -21.870 -0.153 10.475 0.397 6.412 0.759 44.547 43.567
7.600 -19.785 -0.074 -20.074 -0.065 -20.840 -0.070 -22.069 -0.056 -22.373 -0.124 -22.340 -0.126 -22.119 -0.097 -21.867 -0.151 10.431 0.394 6.437 0.761 44.543 43.563
8.000 -19.757 -0.075 -20.047 -0.066 -20.815 -0.070 -22.051 -0.056 -22.365 -0.122 -22.333 -0.124 -22.115 -0.097 -21.865 -0.148 10.388 0.391 6.459 0.761 44.539 43.559
8.400 -19.727 -0.075 -20.019 -0.066 -20.791 -0.070 -22.032 -0.056 -22.355 -0.121 -22.327 -0.121 -22.110 -0.096 -21.862 -0.146 10.346 0.387 6.479 0.760 44.535 43.553
8.800 -19.698 -0.076 -19.991 -0.066 -20.766 -0.070 -22.013 -0.056 -22.346 -0.119 -22.320 -0.118 -22.106 -0.095 -21.859 -0.143 10.305 0.384 6.496 0.758 44.530 43.547
9.200 -19.668 -0.076 -19.962 -0.066 -20.741 -0.070 -21.994 -0.056 -22.336 -0.117 -22.312 -0.116 -22.101 -0.094 -21.856 -0.140 10.265 0.380 6.509 0.755 44.525 43.541
9.600 -19.638 -0.077 -19.934 -0.066 -20.716 -0.070 -21.975 -0.056 -22.326 -0.115 -22.305 -0.113 -22.096 -0.093 -21.854 -0.137 10.227 0.376 6.521 0.750 44.520 43.533
10.000 -19.608 -0.078 -19.905 -0.067 -20.692 -0.070 -21.955 -0.056 -22.316 -0.113 -22.297 -0.110 -22.091 -0.092 -21.851 -0.135 10.189 0.372 6.530 0.745 44.515 43.525
10.400 -19.577 -0.079 -19.875 -0.067 -20.667 -0.071 -21.935 -0.057 -22.305 -0.112 -22.289 -0.107 -22.086 -0.091 -21.848 -0.132 10.151 0.367 6.539 0.738 44.510 43.516
10.800 -19.546 -0.080 -19.846 -0.068 -20.641 -0.071 -21.915 -0.057 -22.294 -0.110 -22.281 -0.104 -22.081 -0.089 -21.845 -0.129 10.114 0.363 6.546 0.732 44.504 43.507
11.200 -19.514 -0.081 -19.816 -0.069 -20.616 -0.071 -21.894 -0.058 -22.283 -0.108 -22.272 -0.101 -22.076 -0.088 -21.842 -0.126 10.077 0.359 6.553 0.725 44.499 43.497
11.600 -19.483 -0.083 -19.786 -0.070 -20.591 -0.072 -21.874 -0.058 -22.272 -0.106 -22.264 -0.098 -22.071 -0.086 -21.838 -0.123 10.041 0.356 6.560 0.718 44.494 43.487
12.000 -19.451 -0.084 -19.756 -0.071 -20.565 -0.072 -21.853 -0.059 -22.260 -0.105 -22.255 -0.095 -22.066 -0.084 -21.835 -0.120 10.004 0.352 6.567 0.711 44.488 43.477
12.400 -19.419 -0.086 -19.726 -0.072 -20.540 -0.073 -21.832 -0.060 -22.249 -0.103 -22.245 -0.092 -22.061 -0.083 -21.832 -0.117 9.968 0.349 6.574 0.704 44.483 43.467
12.800 -19.387 -0.088 -19.696 -0.073 -20.514 -0.073 -21.811 -0.061 -22.237 -0.101 -22.236 -0.089 -22.056 -0.081 -21.829 -0.114 9.932 0.346 6.582 0.697 44.478 43.457
13.200 -19.355 -0.090 -19.666 -0.074 -20.488 -0.074 -21.790 -0.061 -22.224 -0.100 -22.227 -0.086 -22.051 -0.079 -21.826 -0.112 9.896 0.343 6.590 0.690 44.472 43.447
13.600 -19.323 -0.092 -19.635 -0.076 -20.462 -0.075 -21.768 -0.062 -22.212 -0.098 -22.217 -0.084 -22.045 -0.078 -21.822 -0.109 9.860 0.341 6.599 0.684 44.467 43.437
14.000 -19.291 -0.094 -19.604 -0.078 -20.436 -0.076 -21.747 -0.063 -22.200 -0.097 -22.207 -0.081 -22.040 -0.076 -21.819 -0.107 9.824 0.339 6.609 0.679 44.462 43.427
14.400 -19.258 -0.096 -19.574 -0.080 -20.410 -0.077 -21.725 -0.064 -22.187 -0.096 -22.197 -0.079 -22.035 -0.075 -21.816 -0.104 9.789 0.337 6.619 0.673 44.457 43.417
14.800 -19.226 -0.099 -19.543 -0.082 -20.384 -0.078 -21.703 -0.066 -22.174 -0.095 -22.187 -0.077 -22.030 -0.073 -21.812 -0.102 9.753 0.336 6.629 0.669 44.452 43.408
15.200 -19.193 -0.102 -19.512 -0.084 -20.357 -0.080 -21.681 -0.067 -22.161 -0.094 -22.177 -0.075 -22.024 -0.072 -21.809 -0.101 9.718 0.335 6.640 0.664 44.448 43.398
15.600 -19.161 -0.105 -19.481 -0.087 -20.331 -0.082 -21.659 -0.069 -22.148 -0.093 -22.166 -0.074 -22.019 -0.072 -21.805 -0.099 9.683 0.334 6.652 0.661 44.443 43.390
16.000 -19.129 -0.108 -19.451 -0.090 -20.304 -0.084 -21.636 -0.071 -22.134 -0.092 -22.156 -0.073 -22.014 -0.071 -21.802 -0.097 9.648 0.334 6.664 0.658 44.438 43.381
16.400 -19.096 -0.111 -19.420 -0.093 -20.277 -0.086 -21.614 -0.073 -22.121 -0.092 -22.145 -0.072 -22.009 -0.071 -21.799 -0.096 9.614 0.334 6.677 0.656 44.433 43.373
16.800 -19.064 -0.115 -19.389 -0.096 -20.250 -0.088 -21.592 -0.075 -22.107 -0.091 -22.134 -0.071 -22.004 -0.071 -21.795 -0.095 9.579 0.334 6.690 0.654 44.429 43.365
17.200 -19.032 -0.119 -19.358 -0.100 -20.223 -0.091 -21.569 -0.078 -22.094 -0.091 -22.123 -0.071 -21.999 -0.071 -21.792 -0.095 9.545 0.334 6.703 0.653 44.424 43.358
17.600 -19.000 -0.123 -19.327 -0.104 -20.196 -0.094 -21.546 -0.081 -22.080 -0.090 -22.112 -0.071 -21.993 -0.071 -21.788 -0.094 9.511 0.334 6.717 0.652 44.420 43.351
18.000 -18.967 -0.127 -19.296 -0.108 -20.168 -0.098 -21.524 -0.084 -22.066 -0.090 -22.101 -0.071 -21.988 -0.071 -21.785 -0.094 9.477 0.335 6.731 0.652 44.416 43.345
18.400 -18.935 -0.132 -19.265 -0.112 -20.141 -0.101 -21.501 -0.087 -22.052 -0.090 -22.090 -0.072 -21.983 -0.072 -21.781 -0.094 9.443 0.335 6.746 0.652 44.411 43.338
18.800 -18.903 -0.137 -19.234 -0.117 -20.113 -0.105 -21.478 -0.090 -22.038 -0.090 -22.079 -0.072 -21.978 -0.073 -21.778 -0.094 9.410 0.336 6.761 0.653 44.407 43.332
19.200 -18.871 -0.142 -19.204 -0.121 -20.086 -0.109 -21.455 -0.093 -22.023 -0.089 -22.067 -0.073 -21.973 -0.073 -21.775 -0.094 9.376 0.337 6.777 0.653 44.403 43.326
19.600 -18.839 -0.147 -19.173 -0.126 -20.058 -0.113 -21.432 -0.097 -22.009 -0.089 -22.056 -0.073 -21.968 -0.074 -21.771 -0.094 9.343 0.337 6.793 0.654 44.399 43.320
20.000 -18.807 -0.152 -19.142 -0.131 -20.030 -0.117 -21.409 -0.100 -21.995 -0.089 -22.044 -0.074 -21.963 -0.075 -21.768 -0.094 9.311 0.338 6.809 0.656 44.395 43.314
20.400 -18.775 -0.157 -19.111 -0.136 -20.002 -0.122 -21.386 -0.104 -21.980 -0.089 -22.033 -0.074 -21.958 -0.075 -21.764 -0.094 9.278 0.339 6.825 0.657 44.391 43.308
20.800 -18.743 -0.162 -19.080 -0.142 -19.974 -0.126 -21.363 -0.107 -21.966 -0.089 -22.021 -0.075 -21.953 -0.076 -21.761 -0.094 9.246 0.340 6.842 0.659 44.387 43.303
21.200 -18.711 -0.168 -19.049 -0.147 -19.946 -0.131 -21.340 -0.111 -21.951 -0.089 -22.009 -0.075 -21.947 -0.076 -21.757 -0.095 9.215 0.341 6.859 0.660 44.383 43.297
21.600 -18.679 -0.174 -19.019 -0.153 -19.918 -0.135 -21.316 -0.115 -21.937 -0.089 -21.997 -0.076 -21.942 -0.077 -21.754 -0.095 9.183 0.343 6.876 0.662 44.380 43.291
22.000 -18.648 -0.179 -18.988 -0.158 -19.890 -0.140 -21.293 -0.119 -21.922 -0.088 -21.986 -0.076 -21.937 -0.077 -21.750 -0.095 9.153 0.344 6.894 0.665 44.376 43.285
22.400 -18.616 -0.185 -18.957 -0.164 -19.862 -0.145 -21.270 -0.122 -21.907 -0.088 -21.974 -0.076 -21.932 -0.077 -21.746 -0.095 9.122 0.345 6.911 0.667 44.372 43.280
22.800 -18.584 -0.191 -18.926 -0.170 -19.834 -0.150 -21.247 -0.126 -21.893 -0.088 -21.962 -0.076 -21.926 -0.078 -21.743 -0.095 9.092 0.347 6.928 0.669 44.369 43.274
23.200 -18.552 -0.197 -18.895 -0.176 -19.805 -0.155 -21.223 -0.130 -21.878 -0.087 -21.950 -0.076 -21.921 -0.078 -21.739 -0.095 9.063 0.349 6.945 0.672 44.365 43.268
23.600 -18.520 -0.203 -18.864 -0.182 -19.777 -0.161 -21.200 -0.134 -21.863 -0.087 -21.938 -0.076 -21.916 -0.078 -21.736 -0.095 9.034 0.350 6.962 0.674 44.362 43.262
24.000 -18.488 -0.209 -18.834 -0.188 -19.749 -0.166 -21.177 -0.138 -21.848 -0.087 -21.926 -0.076 -21.910 -0.077 -21.732 -0.095 9.005 0.352 6.978 0.677 44.358 43.256
24.400 -18.456 -0.215 -18.803 -0.194 -19.720 -0.171 -21.153 -0.141 -21.833 -0.086 -21.914 -0.076 -21.905 -0.077 -21.728 -0.095 8.977 0.354 6.994 0.680 44.355 43.250
24.800 -18.424 -0.221 -18.772 -0.200 -19.692 -0.177 -21.130 -0.145 -21.819 -0.086 -21.901 -0.076 -21.899 -0.077 -21.725 -0.094 8.950 0.355 7.010 0.683 44.351 43.244
25.200 -18.392 -0.227 -18.741 -0.206 -19.663 -0.182 -21.107 -0.149 -21.804 -0.085 -21.889 -0.075 -21.894 -0.077 -21.721 -0.094 8.923 0.357 7.025 0.685 44.348 43.238
25.600 -18.361 -0.233 -18.710 -0.212 -19.635 -0.187 -21.083 -0.153 -21.789 -0.085 -21.877 -0.075 -21.888 -0.076 -21.717 -0.094 8.896 0.358 7.040 0.688 44.345 43.232
26.000 -18.329 -0.239 -18.679 -0.218 -19.607 -0.193 -21.060 -0.156 -21.774 -0.084 -21.865 -0.075 -21.882 -0.076 -21.713 -0.094 8.870 0.360 7.054 0.691 44.341 43.225
26.400 -18.297 -0.246 -18.648 -0.224 -19.578 -0.198 -21.037 -0.160 -21.759 -0.084 -21.853 -0.074 -21.877 -0.076 -21.709 -0.093 8.844 0.361 7.068 0.694 44.338 43.219
26.800 -18.265 -0.252 -18.618 -0.231 -19.550 -0.204 -21.013 -0.164 -21.744 -0.084 -21.841 -0.074 -21.871 -0.075 -21.705 -0.093 8.818 0.363 7.082 0.696 44.335 43.213
27.200 -18.233 -0.258 -18.587 -0.237 -19.521 -0.209 -20.990 -0.167 -21.729 -0.084 -21.829 -0.074 -21.865 -0.075 -21.702 -0.093 8.793 0.363 7.095 0.699 44.331 43.207
27.600 -18.201 -0.264 -18.556 -0.243 -19.493 -0.214 -20.967 -0.171 -21.715 -0.083 -21.817 -0.073 -21.859 -0.075 -21.698 -0.092 8.767 0.364 7.108 0.701 44.328 43.201
28.000 -18.169 -0.270 -18.525 -0.249 -19.464 -0.220 -20.943 -0.174 -21.700 -0.083 -21.804 -0.073 -21.853 -0.074 -21.694 -0.092 8.741 0.365 7.122 0.703 44.324 43.194
28.400 -18.137 -0.276 -18.494 -0.255 -19.436 -0.225 -20.920 -0.178 -21.685 -0.084 -21.792 -0.073 -21.846 -0.074 -21.690 -0.092 8.715 0.365 7.135 0.705 44.321 43.189
28.800 -18.105 -0.283 -18.463 -0.261 -19.407 -0.231 -20.897 -0.181 -21.670 -0.084 -21.780 -0.073 -21.840 -0.074 -21.686 -0.092 8.689 0.365 7.148 0.707 44.317 43.183
29.200 -18.074 -0.289 -18.432 -0.267 -19.379 -0.236 -20.874 -0.185 -21.655 -0.084 -21.768 -0.073 -21.834 -0.075 -21.681 -0.092 8.662 0.364 7.162 0.708 44.313 43.177
29.600 -18.042 -0.295 -18.401 -0.274 -19.350 -0.242 -20.851 -0.188 -21.640 -0.085 -21.756 -0.074 -21.827 -0.075 -21.677 -0.092 8.635 0.363 7.176 0.710 44.310 43.172
30.000 -18.010 -0.301 -18.370 -0.280 -19.322 -0.247 -20.828 -0.192 -21.626 -0.085 -21.744 -0.074 -21.820 -0.076 -21.673 -0.092 8.607 0.362 7.190 0.711 44.306 43.166
30.400 -17.978 -0.307 -18.339 -0.286 -19.293 -0.252 -20.804 -0.195 -21.611 -0.086 -21.732 -0.075 -21.814 -0.076 -21.669 -0.093 8.580 0.361 7.204 0.713 44.302 43.161
30.800 -17.946 -0.313 -18.308 -0.292 -19.265 -0.258 -20.781 -0.199 -21.596 -0.087 -21.720 -0.075 -21.807 -0.077 -21.664 -0.093 8.552 0.360 7.218 0.714 44.298 43.156
31.200 -17.914 -0.319 -18.277 -0.298 -19.236 -0.263 -20.758 -0.202 -21.581 -0.088 -21.709 -0.076 -21.800 -0.077 -21.660 -0.093 8.525 0.359 7.233 0.715 44.294 43.151
31.600 -17.882 -0.325 -18.246 -0.304 -19.208 -0.268 -20.735 -0.205 -21.566 -0.089 -21.697 -0.076 -21.793 -0.078 -21.655 -0.093 8.497 0.357 7.246 0.716 44.290 43.146
32.000 -17.850 -0.331 -18.215 -0.309 -19.179 -0.274 -20.712 -0.208 -21.551 -0.090 -21.685 -0.077 -21.785 -0.078 -21.651 -0.093 8.470 0.356 7.260 0.717 44.286 43.141
32.400 -17.818 -0.337 -18.184 -0.315 -19.151 -0.279 -20.689 -0.212 -21.537 -0.091 -21.673 -0.078 -21.778 -0.079 -21.646 -0.093 8.443 0.355 7.273 0.718 44.282 43.136
32.800 -17.786 -0.342 -18.153 -0.321 -19.122 -0.284 -20.666 -0.215 -21.522 -0.091 -21.661 -0.078 -21.771 -0.080 -21.642 -0.093 8.416 0.353 7.286 0.719 44.278 43.132
33.200 -17.754 -0.348 -18.122 -0.327 -19.094 -0.289 -20.643 -0.218 -21.507 -0.092 -21.649 -0.079 -21.763 -0.080 -21.637 -0.093 8.389 0.352 7.299 0.720 44.274 43.127
33.600 -17.722 -0.354 -18.091 -0.332 -19.065 -0.294 -20.621 -0.221 -21.492 -0.093 -21.637 -0.079 -21.756 -0.080 -21.632 -0.093 8.363 0.351 7.311 0.721 44.270 43.122
34.000 -17.690 -0.360 -18.060 -0.338 -19.037 -0.299 -20.598 -0.224 -21.477 -0.094 -21.625 -0.079 -21.748 -0.081 -21.627 -0.093 8.338 0.350 7.322 0.723 44.266 43.117
34.400 -17.658 -0.365 -18.029 -0.344 -19.008 -0.304 -20.575 -0.227 -21.463 -0.095 -21.613 -0.080 -21.740 -0.081 -21.622 -0.093 8.313 0.349 7.333 0.724 44.262 43.112
34.800 -17.626 -0.371 -17.998 -0.349 -18.980 -0.309 -20.552 -0.230 -21.448 -0.096 -21.601 -0.080 -21.732 -0.081 -21.617 -0.093 8.288 0.348 7.343 0.725 44.258 43.107
35.200 -17.594 -0.376 -17.967 -0.355 -18.952 -0.314 -20.530 -0.233 -21.433 -0.096 -21.589 -0.080 -21.724 -0.081 -21.612 -0.093 8.264 0.347 7.352 0.726 44.254 43.102
35.600 -17.562 -0.382 -17.936 -0.360 -18.923 -0.319 -20.507 -0.236 -21.418 -0.097 -21.577 -0.080 -21.716 -0.081 -21.606 -0.092 8.240 0.347 7.360 0.727 44.250 43.096
36.000 -17.530 -0.387 -17.905 -0.365 -18.895 -0.324 -20.484 -0.239 -21.403 -0.097 -21.564 -0.080 -21.708 -0.080 -21.601 -0.092 8.217 0.346 7.368 0.728 44.246 43.091
36.400 -17.498 -0.392 -17.874 -0.371 -18.866 -0.329 -20.462 -0.242 -21.389 -0.098 -21.552 -0.079 -21.700 -0.080 -21.595 -0.091 8.195 0.346 7.375 0.730 44.243 43.086
36.800 -17.466 -0.398 -17.843 -0.376 -18.838 -0.333 -20.439 -0.245 -21.374 -0.098 -21.540 -0.079 -21.691 -0.080 -21.590 -0.091 8.173 0.345 7.382 0.731 44.239 43.081
37.200 -17.433 -0.403 -17.812 -0.381 -18.810 -0.338 -20.417 -0.248 -21.359 -0.099 -21.528 -0.079 -21.683 -0.079 -21.584 -0.090 8.151 0.345 7.388 0.732 44.235 43.075
37.600 -17.401 -0.408 -17.781 -0.386 -18.781 -0.342 -20.394 -0.250 -21.344 -0.099 -21.515 -0.078 -21.674 -0.079 -21.578 -0.090 8.129 0.345 7.394 0.733 44.231 43.070
38.000 -17.369 -0.413 -17.750 -0.391 -18.753 -0.347 -20.372 -0.253 -21.329 -0.099 -21.503 -0.078 -21.666 -0.078 -21.572 -0.089 8.108 0.345 7.399 0.735 44.227 43.065
38.400 -17.337 -0.418 -17.719 -0.396 -18.725 -0.351 -20.349 -0.256 -21.314 -0.100 -21.491 -0.077 -21.657 -0.077 -21.566 -0.089 8.087 0.344 7.404 0.736 44.223 43.059
38.800 -17.305 -0.423 -17.688 -0.401 -18.696 -0.356 -20.327 -0.258 -21.299 -0.100 -21.478 -0.077 -21.648 -0.077 -21.560 -0.088 8.066 0.344 7.409 0.737 44.219 43.054
39.200 -17.273 -0.428 -17.657 -0.406 -18.668 -0.360 -20.305 -0.261 -21.284 -0.100 -21.465 -0.077 -21.639 -0.076 -21.554 -0.088 8.045 0.344 7.415 0.739 44.215 43.049
39.600 -17.241 -0.432 -17.626 -0.410 -18.640 -0.364 -20.282 -0.264 -21.269 -0.101 -21.453 -0.076 -21.630 -0.076 -21.547 -0.087 8.024 0.343 7.421 0.740 44.211 43.044
40.000 -17.208 -0.437 -17.594 -0.415 -18.612 -0.369 -20.260 -0.266 -21.254 -0.101 -21.440 -0.076 -21.621 -0.075 -21.540 -0.087 8.002 0.343 7.428 0.742 44.207 43.039
40.400 -17.176 -0.441 -17.563 -0.419 -18.583 -0.373 -20.238 -0.269 -21.239 -0.101 -21.427 -0.076 -21.612 -0.075 -21.534 -0.087 7.980 0.342 7.436 0.743 44.203 43.034
40.800 -17.144 -0.446 -17.532 -0.424 -18.555 -0.377 -20.216 -0.271 -21.224 -0.102 -21.414 -0.076 -21.603 -0.075 -21.527 -0.087 7.957 0.341 7.445 0.745 44.200 43.030
41.200 -17.112 -0.450 -17.501 -0.428 -18.527 -0.381 -20.194 -0.274 -21.209 -0.102 -21.401 -0.076 -21.593 -0.074 -21.520 -0.088 7.933 0.340 7.456 0.747 44.196 43.026
41.600 -17.080 -0.455 -17.470 -0.433 -18.499 -0.385 -20.172 -0.276 -21.193 -0.103 -21.388 -0.076 -21.584 -0.075 -21.513 -0.088 7.909 0.338 7.468 0.749 44.192 43.022
42.000 -17.048 -0.459 -17.439 -0.437 -18.471 -0.388 -20.150 -0.279 -21.178 -0.104 -21.375 -0.077 -21.575 -0.075 -21.505 -0.089 7.884 0.337 7.481 0.751 44.188 43.019
42.400 -17.015 -0.463 -17.408 -0.441 -18.442 -0.392 -20.128 -0.281 -21.163 -0.104 -21.362 -0.077 -21.565 -0.075 -21.498 -0.090 7.857 0.335 7.497 0.753 44.184 43.016
42.800 -16.983 -0.467 -17.377 -0.445 -18.414 -0.396 -20.106 -0.283 -21.148 -0.105 -21.349 -0.078 -21.556 -0.076 -21.490 -0.091 7.830 0.333 7.513 0.756 44.180 43.013
43.200 -16.951 -0.471 -17.345 -0.449 -18.386 -0.399 -20.084 -0.286 -21.132 -0.106 -21.335 -0.079 -21.546 -0.077 -21.483 -0.092 7.802 0.331 7.532 0.758 44.176 43.011
43.600 -16.919 -0.475 -17.314 -0.453 -18.358 -0.403 -20.062 -0.288 -21.117 -0.108 -21.322 -0.081 -21.537 -0.078 -21.475 -0.094 7.774 0.328 7.552 0.761 44.172 43.010
44.000 -16.886 -0.479 -17.283 -0.456 -18.330 -0.406 -20.040 -0.290 -21.102 -0.109 -21.309 -0.082 -21.527 -0.080 -21.467 -0.095 7.744 0.326 7.574 0.764 44.167 43.009
44.400 -16.854 -0.482 -17.252 -0.460 -18.302 -0.410 -20.018 -0.293 -21.087 -0.111 -21.295 -0.084 -21.518 -0.081 -21.459 -0.097 7.714 0.323 7.597 0.767 44.163 43.008
44.800 -16.822 -0.486 -17.221 -0.464 -18.274 -0.413 -19.997 -0.295 -21.071 -0.112 -21.282 -0.086 -21.508 -0.083 -21.451 -0.100 7.684 0.320 7.622 0.770 44.159 43.008
45.200 -16.790 -0.489 -17.190 -0.467 -18.246 -0.416 -19.975 -0.297 -21.056 -0.114 -21.268 -0.088 -21.499 -0.085 -21.442 -0.102 7.653 0.317 7.646 0.774 44.155 43.008
45.600 -16.757 -0.493 -17.158 -0.471 -18.218 -0.419 -19.953 -0.299 -21.041 -0.116 -21.255 -0.090 -21.489 -0.087 -21.434 -0.104 7.622 0.314 7.672 0.777 44.151 43.008
46.000 -16.725 -0.496 -17.127 -0.474 -18.189 -0.423 -19.932 -0.301 -21.025 -0.118 -21.241 -0.093 -21.479 -0.090 -21.425 -0.107 7.592 0.312 7.697 0.781 44.147 43.009
46.400 -16.693 -0.499 -17.096 -0.477 -18.161 -0.425 -19.910 -0.303 -21.010 -0.120 -21.228 -0.095 -21.470 -0.092 -21.417 -0.109 7.561 0.309 7.723 0.785 44.143 43.009
46.800 -16.660 -0.502 -17.065 -0.480 -18.133 -0.428 -19.888 -0.305 -20.995 -0.123 -21.214 -0.098 -21.460 -0.095 -21.408 -0.112 7.531 0.306 7.748 0.788 44.139 43.010
47.200 -16.628 -0.505 -17.034 -0.483 -18.105 -0.431 -19.867 -0.307 -20.979 -0.125 -21.200 -0.100 -21.451 -0.097 -21.399 -0.115 7.501 0.303 7.772 0.792 44.134 43.010
47.600 -16.596 -0.508 -17.002 -0.486 -18.077 -0.434 -19.845 -0.309 -20.964 -0.127 -21.187 -0.103 -21.441 -0.100 -21.390 -0.118 7.472 0.300 7.797 0.796 44.130 43.011
48.000 -16.563 -0.511 -16.971 -0.489 -18.049 -0.437 -19.824 -0.311 -20.948 -0.129 -21.173 -0.105 -21.432 -0.103 -21.381 -0.120 7.443 0.297 7.820 0.799 44.126 43.012
48.400 -16.531 -0.514 -16.940 -0.492 -18.021 -0.439 -19.802 -0.313 -20.933 -0.132 -21.159 -0.108 -21.422 -0.105 -21.372 -0.123 7.414 0.295 7.843 0.803 44.122 43.012
48.800 -16.498 -0.516 -16.909 -0.494 -17.993 -0.442 -19.781 -0.315 -20.918 -0.134 -21.145 -0.110 -21.412 -0.108 -21.363 -0.126 7.386 0.292 7.865 0.807 44.118 43.012
49.200 -16.466 -0.519 -16.877 -0.497 -17.966 -0.444 -19.760 -0.317 -20.902 -0.136 -21.132 -0.113 -21.403 -0.110 -21.354 -0.129 7.359 0.290 7.886 0.810 44.114 43.013
49.600 -16.434 -0.521 -16.846 -0.499 -17.938 -0.446 -19.738 -0.319 -20.887 -0.139 -21.118 -0.115 -21.393 -0.113 -21.345 -0.131 7.332 0.287 7.907 0.814 44.110 43.013
50.000 -16.401 -0.524 -16.815 -0.502 -17.910 -0.448 -19.717 -0.320 -20.871 -0.141 -21.104 -0.117 -21.384 -0.115 -21.336 -0.134 7.305 0.285 7.926 0.818 44.106 43.013
50.400 -16.369 -0.526 -16.784 -0.504 -17.882 -0.451 -19.696 -0.322 -20.856 -0.143 -21.090 -0.120 -21.374 -0.117 -21.326 -0.136 7.279 0.283 7.945 0.821 44.101 43.013
50.800 -16.336 -0.528 -16.752 -0.506 -17.854 -0.453 -19.674 -0.324 -20.840 -0.145 -21.076 -0.122 -21.364 -0.119 -21.317 -0.139 7.254 0.281 7.963 0.825 44.097 43.013
51.200 -16.304 -0.530 -16.721 -0.508 -17.826 -0.455 -19.653 -0.325 -20.825 -0.147 -21.062 -0.124 -21.355 -0.121 -21.307 -0.141 7.229 0.279 7.980 0.828 44.093 43.013
51.600 -16.272 -0.532 -16.690 -0.510 -17.798 -0.456 -19.632 -0.327 -20.809 -0.149 -21.048 -0.126 -21.345 -0.123 -21.298 -0.144 7.205 0.277 7.997 0.832 44.089 43.013
52.000 -16.239 -0.533 -16.658 -0.511 -17.770 -0.458 -19.611 -0.328 -20.794 -0.151 -21.034 -0.128 -21.336 -0.125 -21.288 -0.146 7.181 0.275 8.013 0.835 44.085 43.013
52.400 -16.207 -0.535 -16.627 -0.513 -17.742 -0.460 -19.589 -0.330 -20.778 -0.153 -21.020 -0.130 -21.326 -0.127 -21.278 -0.148 7.157 0.274 8.028 0.839 44.081 43.012
52.800 -16.174 -0.537 -16.596 -0.515 -17.714 -0.461 -19.568 -0.331 -20.762 -0.155 -21.006 -0.131 -21.317 -0.129 -21.269 -0.150 7.134 0.272 8.042 0.842 44.077 43.011
53.200 -16.142 -0.538 -16.565 -0.516 -17.686 -0.463 -19.547 -0.332 -20.747 -0.156 -20.992 -0.133 -21.307 -0.130 -21.259 -0.152 7.112 0.270 8.056 0.845 44.073 43.011
53.600 -16.109 -0.539 -16.533 -0.518 -17.659 -0.464 -19.526 -0.334 -20.731 -0.158 -20.978 -0.134 -21.297 -0.131 -21.249 -0.154 7.089 0.269 8.069 0.849 44.069 43.010
54.000 -16.077 -0.541 -16.502 -0.519 -17.631 -0.466 -19.505 -0.335 -20.715 -0.159 -20.963 -0.136 -21.288 -0.133 -21.239 -0.155 7.067 0.268 8.082 0.852 44.065 43.009
54.400 -16.044 -0.542 -16.470 -0.520 -17.603 -0.467 -19.484 -0.336 -20.700 -0.161 -20.949 -0.137 -21.278 -0.134 -21.230 -0.157 7.046 0.266 8.094 0.855 44.061 43.008
54.800 -16.011 -0.543 -16.439 -0.521 -17.575 -0.468 -19.463 -0.337 -20.684 -0.162 -20.935 -0.138 -21.269 -0.135 -21.220 -0.158 7.025 0.265 8.106 0.858 44.057 43.007
55.200 -15.979 -0.544 -16.408 -0.522 -17.547 -0.469 -19.442 -0.338 -20.668 -0.163 -20.920 -0.139 -21.259 -0.135 -21.210 -0.160 7.004 0.264 8.117 0.861 44.053 43.006
55.600 -15.946 -0.544 -16.376 -0.523 -17.519 -0.470 -19.421 -0.339 -20.652 -0.165 -20.906 -0.140 -21.250 -0.136 -21.200 -0.161 6.983 0.263 8.128 0.865 44.049 43.005
56.000 -15.914 -0.545 -16.345 -0.523 -17.491 -0.471 -19.400 -0.340 -20.636 -0.166 -20.892 -0.140 -21.240 -0.137 -21.190 -0.162 6.963 0.261 8.138 0.868 44.045 43.003
56.400 -15.881 -0.545 -16.314 -0.524 -17.464 -0.471 -19.379 -0.341 -20.621 -0.166 -20.877 -0.141 -21.231 -0.137 -21.180 -0.163 6.943 0.260 8.148 0.871 44.041 43.002
56.800 -15.849 -0.546 -16.282 -0.524 -17.436 -0.472 -19.358 -0.342 -20.605 -0.167 -20.862 -0.141 -21.221 -0.137 -21.170 -0.164 6.923 0.259 8.158 0.874 44.037 43.000
57.200 -15.816 -0.546 -16.251 -0.525 -17.408 -0.472 -19.337 -0.343 -20.589 -0.168 -20.848 -0.142 -21.212 -0.138 -21.160 -0.165 6.903 0.258 8.168 0.876 44.033 42.998
57.600 -15.783 -0.546 -16.219 -0.525 -17.380 -0.473 -19.316 -0.344 -20.573 -0.169 -20.833 -0.142 -21.203 -0.138 -21.150 -0.166 6.884 0.257 8.177 0.879 44.029 42.997
58.000 -15.751 -0.546 -16.188 -0.525 -17.352 -0.473 -19.295 -0.344 -20.557 -0.169 -20.818 -0.142 -21.193 -0.138 -21.140 -0.166 6.865 0.256 8.186 0.882 44.026 42.995
58.400 -15.718 -0.546 -16.157 -0.525 -17.325 -0.473 -19.274 -0.345 -20.540 -0.170 -20.804 -0.142 -21.184 -0.137 -21.130 -0.167 6.846 0.255 8.195 0.884 44.022 42.993
58.800 -15.686 -0.546 -16.125 -0.525 -17.297 -0.473 -19.253 -0.345 -20.524 -0.170 -20.789 -0.142 -21.175 -0.137 -21.120 -0.167 6.827 0.254 8.204 0.887 44.018 42.991
59.200 -15.653 -0.546 -16.094 -0.525 -17.269 -0.473 -19.232 -0.346 -20.508 -0.171 -20.774 -0.142 -21.165 -0.137 -21.110 -0.168 6.808 0.254 8.213 0.889 44.014 42.989
59.600 -15.620 -0.545 -16.062 -0.524 -17.241 -0.473 -19.211 -0.346 -20.492 -0.171 -20.759 -0.142 -21.156 -0.136 -21.100 -0.168 6.790 0.253 8.222 0.892 44.010 42.986
60.000 -15.588 -0.545 -16.031 -0.524 -17.213 -0.473 -19.190 -0.346 -20.475 -0.171 -20.744 -0.142 -21.147 -0.136 -21.090 -0.168 6.772 0.252 8.231 0.894 44.006 42.984
60.400 -15.555 -0.544 -15.999 -0.523 -17.185 -0.473 -19.170 -0.347 -20.459 -0.171 -20.728 -0.142 -21.138 -0.135 -21.080 -0.169 6.753 0.251 8.240 0.896 44.003 42.982
60.800 -15.522 -0.543 -15.968 -0.523 -17.158 -0.473 -19.149 -0.347 -20.443 -0.172 -20.713 -0.142 -21.129 -0.134 -21.070 -0.169 6.735 0.250 8.249 0.898 43.999 42.979
61.200 -15.490 -0.543 -15.936 -0.522 -17.130 -0.472 -19.128 -0.347 -20.426 -0.172 -20.698 -0.141 -21.120 -0.134 -21.060 -0.169 6.717 0.249 8.258 0.900 43.995 42.977
61.600 -15.457 -0.542 -15.905 -0.521 -17.102 -0.471 -19.107 -0.347 -20.409 -0.172 -20.682 -0.141 -21.111 -0.133 -21.051 -0.169 6.699 0.248 8.267 0.901 43.992 42.974
62.000 -15.424 -0.540 -15.873 -0.520 -17.074 -0.471 -19.086 -0.347 -20.393 -0.172 -20.667 -0.141 -21.102 -0.132 -21.041 -0.169 6.681 0.247 8.277 0.903 43.988 42.971
62.400 -15.391 -0.539 -15.842 -0.519 -17.046 -0.470 -19.065 -0.347 -20.376 -0.172 -20.651 -0.140 -21.093 -0.131 -21.031 -0.169 6.663 0.246 8.286 0.904 43.984 42.968
62.800 -15.359 -0.538 -15.810 -0.518 -17.019 -0.469 -19.044 -0.347 -20.359 -0.172 -20.635 -0.140 -21.084 -0.130 -21.021 -0.169 6.644 0.245 8.296 0.906 43.980 42.966
63.200 -15.326 -0.536 -15.779 -0.516 -16.991 -0.468 -19.023 -0.347 -20.342 -0.172 -20.619 -0.140 -21.076 -0.129 -21.011 -0.169 6.626 0.243 8.306 0.907 43.977 42.963
63.600 -15.293 -0.535 -15.747 -0.515 -16.963 -0.467 -19.003 -0.346 -20.325 -0.172 -20.603 -0.140 -21.067 -0.128 -21.001 -0.168 6.608 0.242 8.317 0.908 43.973 42.960
64.000 -15.261 -0.533 -15.716 -0.513 -16.935 -0.465 -18.982 -0.346 -20.308 -0.172 -20.587 -0.140 -21.058 -0.127 -20.991 -0.168 6.590 0.241 8.328 0.909 43.969 42.957
64.400 -15.228 -0.531 -15.684 -0.511 -16.907 -0.464 -18.961 -0.345 -20.291 -0.172 -20.571 -0.140 -21.050 -0.126 -20.981 -0.168 6.572 0.240 8.339 0.910 43.966 42.954
64.800 -15.195 -0.529 -15.653 -0.509 -16.880 -0.463 -18.940 -0.345 -20.274 -0.172 -20.555 -0.140 -21.041 -0.126 -20.972 -0.168 6.553 0.238 8.351 0.910 43.962 42.951
65.200 -15.162 -0.527 -15.621 -0.507 -16.852 -0.461 -18.919 -0.344 -20.256 -0.173 -20.538 -0.140 -21.033 -0.125 -20.962 -0.168 6.535 0.237 8.363 0.911 43.959 42.948
65.600 -15.130 -0.525 -15.589 -0.505 -16.824 -0.459 -18.898 -0.344 -20.239 -0.173 -20.522 -0.140 -21.025 -0.124 -20.952 -0.168 6.516 0.235 8.376 0.911 43.955 42.945
66.000 -15.097 -0.522 -15.558 -0.503 -16.796 -0.458 -18.877 -0.343 -20.222 -0.173 -20.505 -0.141 -21.016 -0.123 -20.943 -0.168 6.498 0.234 8.390 0.911 43.951 42.941
66.400 -15.064 -0.520 -15.526 -0.500 -16.768 -0.456 -18.856 -0.342 -20.204 -0.173 -20.488 -0.141 -21.008 -0.122 -20.933 -0.168 6.479 0.232 8.404 0.912 43.948 42.938
66.800 -15.031 -0.517 -15.495 -0.498 -16.740 -0.454 -18.835 -0.341 -20.186 -0.173 -20.471 -0.142 -21.000 -0.121 -20.923 -0.168 6.460 0.230 8.418 0.912 43.944 42.935
67.200 -14.999 -0.515 -15.463 -0.495 -16.713 -0.451 -18.814 -0.340 -20.169 -0.173 -20.454 -0.143 -20.991 -0.120 -20.914 -0.168 6.441 0.229 8.433 0.911 43.941 42.932
67.600 -14.966 -0.512 -15.432 -0.493 -16.685 -0.449 -18.793 -0.339 -20.151 -0.173 -20.437 -0.143 -20.983 -0.119 -20.904 -0.168 6.422 0.227 8.449 0.911 43.937 42.928
68.000 -14.933 -0.509 -15.400 -0.490 -16.657 -0.447 -18.772 -0.338 -20.133 -0.174 -20.419 -0.144 -20.975 -0.118 -20.895 -0.168 6.404 0.225 8.465 0.911 43.934 42.925
68.400 -14.900 -0.506 -15.368 -0.487 -16.629 -0.444 -18.751 -0.337 -20.115 -0.174 -20.402 -0.145 -20.967 -0.117 -20.885 -0.168 6.385 0.224 8.482 0.911 43.930 42.922
68.800 -14.867 -0.503 -15.337 -0.484 -16.601 -0.442 -18.730 -0.336 -20.097 -0.174 -20.385 -0.145 -20.958 -0.115 -20.876 -0.168 6.366 0.222 8.500 0.910 43.927 42.918
69.200 -14.835 -0.499 -15.305 -0.480 -16.573 -0.439 -18.709 -0.335 -20.079 -0.174 -20.367 -0.146 -20.950 -0.114 -20.867 -0.168 6.347 0.220 8.519 0.910 43.924 42.915
69.600 -14.802 -0.496 -15.273 -0.477 -16.545 -0.436 -18.688 -0.333 -20.061 -0.174 -20.349 -0.147 -20.941 -0.113 -20.858 -0.168 6.327 0.218 8.538 0.910 43.920 42.911
70.000 -14.769 -0.492 -15.242 -0.473 -16.518 -0.433 -18.667 -0.332 -20.042 -0.175 -20.332 -0.148 -20.933 -0.112 -20.849 -0.168 6.308 0.217 8.558 0.909 43.917 42.908
70.400 -14.737 -0.488 -15.210 -0.470 -16.490 -0.430 -18.646 -0.330 -20.024 -0.175 -20.314 -0.149 -20.925 -0.110 -20.840 -0.168 6.289 0.215 8.579 0.909 43.914 42.904
70.800 -14.704 -0.485 -15.179 -0.466 -16.462 -0.427 -18.625 -0.329 -20.006 -0.175 -20.296 -0.149 -20.916 -0.109 -20.831 -0.168 6.270 0.213 8.600 0.909 43.911 42.901
71.200 -14.671 -0.481 -15.147 -0.462 -16.434 -0.424 -18.604 -0.327 -19.987 -0.175 -20.278 -0.150 -20.907 -0.107 -20.822 -0.168 6.251 0.211 8.623 0.908 43.908 42.897
71.600 -14.638 -0.477 -15.115 -0.458 -16.406 -0.421 -18.583 -0.325 -19.969 -0.175 -20.260 -0.151 -20.899 -0.106 -20.813 -0.167 6.232 0.209 8.646 0.908 43.905 42.894
72.000 -14.606 -0.472 -15.084 -0.454 -16.378 -0.417 -18.562 -0.323 -19.950 -0.175 -20.242 -0.152 -20.890 -0.105 -20.805 -0.167 6.213 0.208 8.669 0.907 43.902 42.890
72.400 -14.573 -0.468 -15.052 -0.450 -16.350 -0.414 -18.540 -0.321 -19.931 -0.175 -20.223 -0.152 -20.881 -0.103 -20.796 -0.167 6.194 0.206 8.693 0.907 43.899 42.887
72.800 -14.540 -0.464 -15.021 -0.446 -16.322 -0.410 -18.519 -0.319 -19.913 -0.176 -20.205 -0.153 -20.872 -0.102 -20.788 -0.167 6.174 0.204 8.718 0.906 43.896 42.883
73.200 -14.508 -0.459 -14.989 -0.441 -16.294 -0.406 -18.498 -0.317 -19.894 -0.176 -20.187 -0.154 -20.863 -0.100 -20.779 -0.166 6.155 0.202 8.743 0.906 43.893 42.880
73.600 -14.475 -0.455 -14.957 -0.437 -16.267 -0.402 -18.477 -0.315 -19.875 -0.176 -20.168 -0.154 -20.853 -0.099 -20.771 -0.166 6.137 0.200 8.768 0.905 43.890 42.876
74.000 -14.442 -0.450 -14.926 -0.432 -16.239 -0.398 -18.455 -0.313 -19.856 -0.175 -20.150 -0.155 -20.844 -0.098 -20.763 -0.166 6.118 0.199 8.793 0.905 43.887 42.873
74.400 -14.410 -0.445 -14.894 -0.427 -16.211 -0.394 -18.434 -0.311 -19.837 -0.175 -20.131 -0.156 -20.834 -0.097 -20.755 -0.165 6.099 0.197 8.817 0.904 43.885 42.870
74.800 -14.377 -0.440 -14.863 -0.422 -16.183 -0.390 -18.413 -0.308 -19.818 -0.175 -20.113 -0.156 -20.825 -0.096 -20.747 -0.165 6.081 0.195 8.841 0.903 43.882 42.866
75.200 -14.345 -0.435 -14.831 -0.417 -16.155 -0.385 -18.391 -0.306 -19.799 -0.175 -20.094 -0.157 -20.815 -0.095 -20.740 -0.165 6.062 0.193 8.864 0.902 43.879 42.863
75.600 -14.312 -0.430 -14.800 -0.412 -16.127 -0.381 -18.370 -0.303 -19.780 -0.175 -20.076 -0.157 -20.805 -0.094 -20.732 -0.164 6.044 0.191 8.886 0.901 43.876 42.860
76.000 -14.280 -0.424 -14.768 -0.407 -16.099 -0.376 -18.348 -0.301 -19.761 -0.175 -20.057 -0.158 -20.794 -0.094 -20.725 -0.164 6.026 0.189 8.907 0.899 43.872 42.857
76.400 -14.247 -0.419 -14.737 -0.401 -16.071 -0.372 -18.327 -0.298 -19.741 -0.174 -20.038 -0.158 -20.784 -0.093 -20.718 -0.164 6.009 0.187 8.925 0.898 43.869 42.854
76.800 -14.215 -0.413 -14.705 -0.396 -16.043 -0.367 -18.305 -0.295 -19.722 -0.174 -20.020 -0.158 -20.773 -0.093 -20.711 -0.163 5.992 0.184 8.942 0.896 43.866 42.851
77.200 -14.182 -0.408 -14.674 -0.390 -16.015 -0.362 -18.283 -0.292 -19.702 -0.174 -20.001 -0.159 -20.762 -0.093 -20.704 -0.163 5.975 0.182 8.957 0.894 43.862 42.849
77.600 -14.150 -0.402 -14.642 -0.384 -15.987 -0.357 -18.262 -0.290 -19.683 -0.173 -19.982 -0.159 -20.751 -0.094 -20.697 -0.162 5.958 0.180 8.969 0.892 43.859 42.846
78.000 -14.118 -0.396 -14.611 -0.379 -15.959 -0.352 -18.240 -0.287 -19.663 -0.173 -19.963 -0.159 -20.740 -0.094 -20.690 -0.162 5.942 0.177 8.978 0.889 43.855 42.843
78.400 -14.085 -0.390 -14.580 -0.373 -15.932 -0.347 -18.218 -0.284 -19.643 -0.172 -19.945 -0.159 -20.728 -0.095 -20.684 -0.161 5.927 0.175 8.984 0.886 43.851 42.841
78.800 -14.053 -0.384 -14.548 -0.367 -15.904 -0.341 -18.196 -0.280 -19.623 -0.172 -19.926 -0.159 -20.716 -0.096 -20.677 -0.161 5.911 0.173 8.987 0.883 43.847 42.838
79.200 -14.021 -0.378 -14.517 -0.361 -15.876 -0.336 -18.174 -0.277 -19.603 -0.171 -19.907 -0.159 -20.703 -0.097 -20.671 -0.160 5.897 0.170 8.987 0.880 43.842 42.836
79.600 -13.989 -0.372 -14.486 -0.354 -15.848 -0.330 -18.152 -0.274 -19.583 -0.171 -19.888 -0.159 -20.691 -0.099 -20.664 -0.159 5.882 0.168 8.984 0.877 43.838 42.833
80.000 -13.957 -0.366 -14.454 -0.348 -15.820 -0.325 -18.130 -0.271 -19.563 -0.170 -19.868 -0.159 -20.678 -0.101 -20.658 -0.158 5.868 0.165 8.978 0.874 43.833 42.831
80.400 -13.925 -0.360 -14.423 -0.342 -15.792 -0.319 -18.108 -0.267 -19.542 -0.169 -19.849 -0.159 -20.665 -0.103 -20.652 -0.157 5.855 0.163 8.970 0.871 43.828 42.829
80.800 -13.893 -0.353 -14.392 -0.335 -15.764 -0.314 -18.086 -0.264 -19.522 -0.168 -19.830 -0.159 -20.652 -0.105 -20.646 -0.156 5.841 0.161 8.959 0.868 43.823 42.826
81.200 -13.861 -0.347 -14.361 -0.329 -15.736 -0.308 -18.063 -0.260 -19.501 -0.167 -19.810 -0.158 -20.638 -0.107 -20.640 -0.155 5.829 0.158 8.947 0.865 43.818 42.824
81.600 -13.829 -0.341 -14.330 -0.322 -15.708 -0.302 -18.041 -0.257 -19.480 -0.166 -19.791 -0.158 -20.624 -0.110 -20.634 -0.154 5.816 0.156 8.932 0.862 43.813 42.822
82.000 -13.797 -0.334 -14.299 -0.316 -15.680 -0.296 -18.019 -0.253 -19.460 -0.165 -19.771 -0.157 -20.611 -0.113 -20.628 -0.153 5.804 0.154 8.916 0.859 43.808 42.820
82.400 -13.765 -0.328 -14.268 -0.309 -15.652 -0.290 -17.996 -0.249 -19.439 -0.164 -19.751 -0.157 -20.597 -0.116 -20.622 -0.151 5.792 0.152 8.898 0.857 43.803 42.818
82.800 -13.734 -0.321 -14.237 -0.302 -15.624 -0.284 -17.973 -0.246 -19.418 -0.163 -19.731 -0.156 -20.583 -0.119 -20.616 -0.150 5.780 0.150 8.880 0.854 43.797 42.816
83.200 -13.702 -0.315 -14.206 -0.295 -15.597 -0.278 -17.951 -0.242 -19.397 -0.161 -19.711 -0.155 -20.568 -0.122 -20.610 -0.148 5.768 0.148 8.861 0.852 43.792 42.814
83.600 -13.671 -0.308 -14.175 -0.289 -15.569 -0.272 -17.928 -0.238 -19.375 -0.160 -19.691 -0.154 -20.554 -0.126 -20.604 -0.147 5.756 0.146 8.841 0.851 43.786 42.812
84.000 -13.640 -0.302 -14.145 -0.282 -15.541 -0.266 -17.905 -0.234 -19.354 -0.158 -19.671 -0.153 -20.539 -0.129 -20.598 -0.145 5.745 0.145 8.821 0.849 43.781 42.810
84.400 -13.608 -0.295 -14.114 -0.275 -15.513 -0.260 -17.882 -0.230 -19.333 -0.157 -19.651 -0.152 -20.525 -0.133 -20.592 -0.143 5.733 0.143 8.801 0.848 43.776 42.808
84.800 -13.577 -0.289 -14.083 -0.269 -15.485 -0.254 -17.859 -0.227 -19.311 -0.155 -19.630 -0.151 -20.510 -0.137 -20.586 -0.141 5.722 0.142 8.781 0.848 43.770 42.806
85.200 -13.546 -0.283 -14.053 -0.262 -15.457 -0.248 -17.835 -0.223 -19.289 -0.153 -19.610 -0.150 -20.495 -0.141 -20.580 -0.139 5.711 0.140 8.761 0.847 43.765 42.804
85.600 -13.515 -0.277 -14.022 -0.255 -15.429 -0.242 -17.812 -0.219 -19.268 -0.152 -19.589 -0.149 -20.480 -0.144 -20.574 -0.137 5.699 0.139 8.741 0.847 43.759 42.802
86.000 -13.484 -0.270 -13.992 -0.249 -15.402 -0.236 -17.788 -0.216 -19.246 -0.150 -19.568 -0.148 -20.465 -0.149 -20.568 -0.135 5.688 0.138 8.722 0.848 43.754 42.800
86.400 -13.454 -0.265 -13.962 -0.242 -15.374 -0.230 -17.765 -0.212 -19.224 -0.148 -19.548 -0.147 -20.449 -0.153 -20.562 -0.133 5.677 0.137 8.703 0.849 43.749 42.799
86.800 -13.423 -0.259 -13.932 -0.236 -15.346 -0.225 -17.741 -0.208 -19.201 -0.147 -19.527 -0.146 -20.434 -0.157 -20.555 -0.131 5.666 0.136 8.684 0.850 43.743 42.798
87.200 -13.393 -0.253 -13.902 -0.230 -15.318 -0.219 -17.717 -0.205 -19.179 -0.145 -19.505 -0.145 -20.418 -0.161 -20.549 -0.129 5.654 0.135 8.666 0.852 43.738 42.796
87.600 -13.363 -0.248 -13.872 -0.224 -15.291 -0.214 -17.693 -0.202 -19.157 -0.143 -19.484 -0.144 -20.403 -0.165 -20.543 -0.127 5.643 0.134 8.649 0.855 43.733 42.795
88.000 -13.333 -0.243 -13.842 -0.219 -15.263 -0.209 -17.669 -0.199 -19.134 -0.142 -19.463 -0.143 -20.387 -0.170 -20.536 -0.125 5.632 0.134 8.632 0.858 43.728 42.794
88.400 -13.303 -0.238 -13.813 -0.213 -15.235 -0.204 -17.644 -0.196 -19.112 -0.141 -19.442 -0.143 -20.372 -0.174 -20.530 -0.123 5.621 0.133 8.616 0.861 43.723 42.794
88.800 -13.273 -0.234 -13.783 -0.209 -15.208 -0.199 -17.620 -0.193 -19.089 -0.139 -19.420 -0.142 -20.356 -0.179 -20.523 -0.122 5.609 0.133 8.600 0.866 43.717 42.794
89.200 -13.243 -0.230 -13.754 -0.204 -15.180 -0.195 -17.595 -0.190 -19.066 -0.138 -19.398 -0.142 -20.340 -0.183 -20.517 -0.120 5.598 0.133 8.585 0.871 43.712 42.794
89.600 -13.214 -0.227 -13.725 -0.200 -15.152 -0.191 -17.570 -0.188 -19.043 -0.137 -19.377 -0.141 -20.324 -0.188 -20.510 -0.119 5.586 0.133 8.571 0.877 43.707 42.794
90.000 -13.185 -0.224 -13.696 -0.196 -15.125 -0.187 -17.545 -0.186 -19.020 -0.137 -19.355 -0.141 -20.308 -0.192 -20.503 -0.118 5.575 0.133 8.557 0.885 43.702 42.795
90.400 -13.156 -0.221 -13.667 -0.193 -15.097 -0.184 -17.520 -0.184 -18.997 -0.137 -19.333 -0.142 -20.292 -0.197 -20.496 -0.118 5.563 0.133 8.544 0.893 43.697 42.796
90.800 -13.127 -0.219 -13.638 -0.191 -15.069 -0.181 -17.494 -0.183 -18.974 -0.137 -19.311 -0.142 -20.276 -0.202 -20.489 -0.118 5.552 0.134 8.530 0.903 43.693 42.798
91.200 -13.098 -0.218 -13.610 -0.189 -15.042 -0.179 -17.468 -0.182 -18.950 -0.137 -19.289 -0.143 -20.260 -0.207 -20.482 -0.119 5.541 0.134 8.517 0.914 43.688 42.801
91.600 -13.070 -0.217 -13.581 -0.188 -15.014 -0.178 -17.442 -0.182 -18.927 -0.138 -19.267 -0.145 -20.244 -0.212 -20.475 -0.120 5.529 0.135 8.503 0.926 43.683 42.803
92.000 -13.042 -0.217 -13.553 -0.187 -14.987 -0.177 -17.416 -0.182 -18.903 -0.139 -19.245 -0.146 -20.228 -0.217 -20.467 -0.121 5.518 0.136 8.489 0.939 43.678 42.807
92.400 -13.014 -0.218 -13.525 -0.187 -14.959 -0.177 -17.390 -0.182 -18.879 -0.141 -19.222 -0.148 -20.212 -0.222 -20.460 -0.124 5.507 0.137 8.474 0.954 43.673 42.810
92.800 -12.987 -0.220 -13.498 -0.189 -14.932 -0.177 -17.363 -0.183 -18.856 -0.143 -19.200 -0.151 -20.196 -0.227 -20.452 -0.126 5.496 0.139 8.458 0.970 43.668 42.814
93.200 -12.959 -0.222 -13.471 -0.190 -14.904 -0.178 -17.336 -0.184 -18.832 -0.145 -19.177 -0.154 -20.179 -0.232 -20.444 -0.130 5.485 0.140 8.440 0.986 43.662 42.818
93.600 -12.932 -0.224 -13.443 -0.193 -14.877 -0.180 -17.309 -0.186 -18.808 -0.148 -19.155 -0.157 -20.163 -0.237 -20.436 -0.134 5.475 0.142 8.420 1.004 43.657 42.822
