"Time (MJD)" g-4671.78 g-4671.78_err i-7457.89 i-7457.89_err r-6141.12 r-6141.12_err z-8922.78 z-8922.78_err "Temp./1e3 (K)" "Temp. Err." "Radius/1e15 (cm)" "Radius Err." "Log10(Bol. Lum)" "Log10(Bol. Err)"
-19.000 -18.564 -0.221 -18.866 -0.138 -18.867 -0.140 -18.680 -0.209 15.463 2.105 0.763 0.185 43.375 42.409
-18.600 -18.649 -0.206 -18.965 -0.127 -18.971 -0.128 -18.781 -0.196 18.439 1.086 0.593 0.056 43.461 42.242
-18.200 -18.734 -0.192 -19.063 -0.118 -19.075 -0.117 -18.883 -0.185 18.242 1.106 0.631 0.061 43.497 42.282
-17.800 -18.819 -0.178 -19.161 -0.111 -19.180 -0.108 -18.986 -0.176 18.034 1.108 0.673 0.067 43.533 42.314
-17.400 -18.904 -0.166 -19.258 -0.105 -19.283 -0.101 -19.089 -0.168 17.820 1.093 0.718 0.072 43.568 42.339
-17.000 -18.988 -0.153 -19.354 -0.100 -19.384 -0.096 -19.192 -0.163 17.605 1.064 0.765 0.077 43.603 42.355
-16.600 -19.070 -0.142 -19.447 -0.096 -19.484 -0.094 -19.295 -0.158 17.393 1.021 0.816 0.081 43.637 42.363
-16.200 -19.151 -0.130 -19.539 -0.092 -19.580 -0.094 -19.396 -0.155 17.187 0.970 0.868 0.085 43.671 42.363
-15.800 -19.230 -0.118 -19.628 -0.087 -19.674 -0.096 -19.495 -0.153 16.984 0.913 0.923 0.088 43.704 42.357
-15.400 -19.306 -0.107 -19.714 -0.082 -19.764 -0.099 -19.592 -0.152 16.778 0.856 0.981 0.091 43.736 42.347
-15.000 -19.379 -0.096 -19.797 -0.076 -19.850 -0.102 -19.687 -0.153 16.568 0.799 1.043 0.094 43.767 42.335
-14.600 -19.448 -0.085 -19.876 -0.070 -19.934 -0.106 -19.777 -0.154 16.350 0.746 1.109 0.098 43.797 42.324
-14.200 -19.513 -0.074 -19.951 -0.064 -20.013 -0.110 -19.864 -0.156 16.125 0.695 1.179 0.101 43.826 42.319
-13.800 -19.574 -0.066 -20.022 -0.059 -20.089 -0.114 -19.947 -0.159 15.900 0.649 1.252 0.105 43.854 42.322
-13.400 -19.630 -0.059 -20.089 -0.056 -20.161 -0.119 -20.025 -0.162 15.691 0.609 1.325 0.108 43.880 42.336
-13.000 -19.680 -0.058 -20.151 -0.057 -20.229 -0.124 -20.099 -0.166 15.516 0.583 1.393 0.112 43.904 42.363
-12.600 -19.724 -0.061 -20.209 -0.061 -20.294 -0.128 -20.169 -0.171 15.379 0.574 1.454 0.118 43.926 42.397
-12.200 -19.763 -0.069 -20.262 -0.069 -20.354 -0.133 -20.234 -0.175 15.260 0.575 1.511 0.123 43.946 42.432
-11.800 -19.797 -0.078 -20.310 -0.077 -20.410 -0.137 -20.296 -0.179 15.140 0.578 1.568 0.129 43.964 42.465
-11.400 -19.826 -0.089 -20.355 -0.086 -20.463 -0.141 -20.354 -0.183 15.011 0.580 1.625 0.135 43.980 42.494
-11.000 -19.849 -0.100 -20.395 -0.095 -20.512 -0.144 -20.408 -0.186 14.870 0.579 1.685 0.141 43.995 42.521
-10.600 -19.868 -0.110 -20.430 -0.103 -20.557 -0.147 -20.459 -0.189 14.720 0.576 1.748 0.147 44.009 42.545
-10.200 -19.883 -0.119 -20.462 -0.110 -20.599 -0.148 -20.507 -0.190 14.562 0.571 1.812 0.153 44.022 42.565
-9.800 -19.893 -0.128 -20.490 -0.116 -20.637 -0.149 -20.551 -0.191 14.398 0.565 1.878 0.158 44.034 42.584
-9.400 -19.900 -0.135 -20.515 -0.121 -20.671 -0.149 -20.592 -0.191 14.230 0.558 1.946 0.164 44.044 42.601
-9.000 -19.903 -0.141 -20.537 -0.125 -20.703 -0.147 -20.631 -0.190 14.060 0.550 2.016 0.170 44.054 42.616
-8.600 -19.903 -0.146 -20.555 -0.128 -20.731 -0.145 -20.667 -0.188 13.890 0.542 2.087 0.177 44.062 42.629
-8.200 -19.900 -0.150 -20.571 -0.129 -20.757 -0.142 -20.700 -0.185 13.719 0.533 2.158 0.183 44.070 42.641
-7.800 -19.894 -0.153 -20.584 -0.130 -20.781 -0.137 -20.731 -0.181 13.550 0.525 2.231 0.189 44.078 42.652
-7.400 -19.886 -0.154 -20.595 -0.129 -20.801 -0.132 -20.760 -0.177 13.383 0.516 2.305 0.196 44.084 42.662
-7.000 -19.875 -0.154 -20.605 -0.126 -20.820 -0.126 -20.787 -0.171 13.218 0.507 2.380 0.202 44.091 42.671
-6.600 -19.863 -0.153 -20.612 -0.123 -20.837 -0.119 -20.812 -0.165 13.057 0.499 2.456 0.209 44.096 42.680
-6.200 -19.849 -0.150 -20.618 -0.119 -20.852 -0.112 -20.836 -0.158 12.899 0.492 2.532 0.216 44.102 42.689
-5.800 -19.834 -0.147 -20.623 -0.115 -20.866 -0.104 -20.858 -0.151 12.746 0.485 2.609 0.223 44.107 42.697
-5.400 -19.818 -0.143 -20.627 -0.110 -20.879 -0.096 -20.879 -0.144 12.597 0.479 2.686 0.231 44.112 42.705
-5.000 -19.801 -0.138 -20.631 -0.105 -20.890 -0.089 -20.898 -0.136 12.453 0.473 2.764 0.238 44.117 42.713
-4.600 -19.784 -0.133 -20.633 -0.100 -20.901 -0.082 -20.917 -0.129 12.315 0.468 2.841 0.246 44.122 42.723
-4.200 -19.766 -0.128 -20.636 -0.095 -20.911 -0.077 -20.934 -0.122 12.183 0.463 2.918 0.255 44.126 42.735
-3.800 -19.749 -0.123 -20.638 -0.092 -20.921 -0.074 -20.951 -0.115 12.059 0.458 2.992 0.264 44.130 42.751
-3.400 -19.732 -0.118 -20.640 -0.089 -20.931 -0.073 -20.967 -0.110 11.942 0.453 3.064 0.272 44.134 42.770
-3.000 -19.715 -0.115 -20.642 -0.087 -20.940 -0.073 -20.983 -0.105 11.835 0.450 3.132 0.282 44.137 42.790
-2.600 -19.700 -0.113 -20.644 -0.086 -20.950 -0.074 -20.998 -0.101 11.740 0.448 3.196 0.291 44.141 42.808
-2.200 -19.686 -0.112 -20.646 -0.085 -20.959 -0.075 -21.012 -0.096 11.659 0.449 3.252 0.301 44.144 42.824
-1.800 -19.673 -0.114 -20.648 -0.084 -20.968 -0.076 -21.025 -0.093 11.590 0.453 3.302 0.310 44.147 42.836
-1.400 -19.660 -0.116 -20.650 -0.083 -20.977 -0.078 -21.037 -0.089 11.532 0.458 3.346 0.319 44.149 42.846
-1.000 -19.649 -0.119 -20.652 -0.084 -20.985 -0.080 -21.049 -0.086 11.480 0.463 3.385 0.327 44.152 42.854
-0.600 -19.638 -0.122 -20.653 -0.085 -20.994 -0.082 -21.059 -0.083 11.432 0.467 3.422 0.334 44.154 42.860
-0.200 -19.627 -0.126 -20.654 -0.088 -21.003 -0.084 -21.068 -0.081 11.383 0.470 3.459 0.340 44.156 42.867
0.200 -19.617 -0.128 -20.654 -0.091 -21.012 -0.086 -21.076 -0.079 11.331 0.473 3.497 0.348 44.157 42.876
0.600 -19.606 -0.130 -20.654 -0.095 -21.020 -0.088 -21.082 -0.079 11.277 0.478 3.538 0.357 44.159 42.888
1.000 -19.596 -0.131 -20.654 -0.098 -21.028 -0.089 -21.088 -0.080 11.223 0.484 3.580 0.369 44.161 42.903
1.400 -19.585 -0.132 -20.654 -0.101 -21.036 -0.089 -21.091 -0.080 11.170 0.493 3.620 0.384 44.163 42.920
1.800 -19.574 -0.131 -20.653 -0.103 -21.043 -0.088 -21.094 -0.080 11.119 0.505 3.660 0.400 44.164 42.939
2.200 -19.563 -0.129 -20.652 -0.105 -21.050 -0.086 -21.095 -0.079 11.072 0.520 3.696 0.419 44.165 42.959
2.600 -19.550 -0.127 -20.651 -0.106 -21.056 -0.083 -21.095 -0.077 11.027 0.540 3.730 0.441 44.166 42.981
3.000 -19.538 -0.123 -20.649 -0.105 -21.062 -0.078 -21.094 -0.075 10.985 0.563 3.762 0.467 44.167 43.003
3.400 -19.524 -0.119 -20.647 -0.104 -21.067 -0.073 -21.091 -0.072 10.945 0.592 3.793 0.497 44.168 43.026
3.800 -19.509 -0.115 -20.645 -0.103 -21.072 -0.066 -21.087 -0.069 10.905 0.628 3.825 0.533 44.169 43.051
4.200 -19.493 -0.110 -20.642 -0.100 -21.076 -0.060 -21.082 -0.066 10.863 0.670 3.861 0.576 44.170 43.079
4.600 -19.477 -0.106 -20.638 -0.097 -21.080 -0.053 -21.076 -0.064 10.815 0.718 3.905 0.627 44.172 43.110
5.000 -19.458 -0.102 -20.634 -0.094 -21.083 -0.048 -21.068 -0.063 10.762 0.766 3.956 0.683 44.175 43.141
5.400 -19.439 -0.100 -20.629 -0.090 -21.087 -0.045 -21.058 -0.062 10.713 0.808 3.999 0.735 44.176 43.171
5.800 -19.418 -0.099 -20.622 -0.087 -21.090 -0.045 -21.048 -0.062 10.679 0.842 4.018 0.777 44.175 43.197
6.200 -19.396 -0.100 -20.616 -0.084 -21.092 -0.047 -21.037 -0.062 10.661 0.874 4.014 0.810 44.171 43.218
6.600 -19.372 -0.102 -20.608 -0.080 -21.094 -0.049 -21.025 -0.061 10.656 0.907 3.994 0.839 44.166 43.234
7.000 -19.348 -0.104 -20.599 -0.076 -21.095 -0.051 -21.013 -0.061 10.657 0.943 3.970 0.867 44.161 43.248
7.400 -19.322 -0.107 -20.589 -0.072 -21.095 -0.053 -21.000 -0.061 10.658 0.978 3.946 0.896 44.156 43.260
7.800 -19.296 -0.111 -20.579 -0.069 -21.094 -0.054 -20.987 -0.062 10.653 1.009 3.931 0.924 44.152 43.272
8.200 -19.269 -0.114 -20.567 -0.065 -21.091 -0.057 -20.973 -0.063 10.642 1.031 3.920 0.948 44.148 43.284
8.600 -19.241 -0.118 -20.554 -0.063 -21.087 -0.061 -20.960 -0.065 10.631 1.042 3.905 0.963 44.142 43.291
9.000 -19.212 -0.123 -20.541 -0.061 -21.081 -0.067 -20.946 -0.068 10.622 1.043 3.882 0.966 44.136 43.295
9.400 -19.183 -0.127 -20.526 -0.061 -21.073 -0.074 -20.932 -0.070 10.613 1.040 3.857 0.964 44.129 43.295
9.800 -19.154 -0.132 -20.510 -0.061 -21.065 -0.082 -20.918 -0.072 10.597 1.034 3.837 0.961 44.122 43.294
10.200 -19.124 -0.136 -20.494 -0.062 -21.055 -0.091 -20.904 -0.075 10.570 1.026 3.826 0.960 44.115 43.293
10.600 -19.094 -0.140 -20.476 -0.065 -21.044 -0.099 -20.890 -0.078 10.524 1.015 3.830 0.961 44.108 43.293
11.000 -19.063 -0.144 -20.457 -0.069 -21.032 -0.107 -20.876 -0.082 10.459 0.999 3.850 0.965 44.102 43.295
11.400 -19.033 -0.148 -20.437 -0.076 -21.020 -0.115 -20.863 -0.088 10.380 0.979 3.883 0.971 44.096 43.299
11.800 -19.003 -0.152 -20.416 -0.083 -21.007 -0.122 -20.849 -0.094 10.294 0.957 3.923 0.978 44.090 43.302
12.200 -18.972 -0.155 -20.394 -0.091 -20.994 -0.128 -20.836 -0.100 10.208 0.934 3.967 0.984 44.086 43.306
12.600 -18.942 -0.158 -20.372 -0.099 -20.980 -0.134 -20.823 -0.105 10.125 0.912 4.011 0.989 44.081 43.308
13.000 -18.912 -0.161 -20.349 -0.107 -20.967 -0.139 -20.811 -0.111 10.046 0.890 4.054 0.994 44.077 43.310
13.400 -18.881 -0.163 -20.326 -0.114 -20.954 -0.142 -20.799 -0.115 9.972 0.869 4.095 0.998 44.072 43.311
13.800 -18.851 -0.164 -20.302 -0.120 -20.941 -0.145 -20.788 -0.119 9.900 0.849 4.136 1.001 44.069 43.312
14.200 -18.821 -0.164 -20.279 -0.126 -20.928 -0.147 -20.778 -0.121 9.832 0.829 4.177 1.004 44.065 43.312
14.600 -18.791 -0.163 -20.256 -0.130 -20.916 -0.148 -20.770 -0.123 9.765 0.811 4.219 1.006 44.062 43.311
15.000 -18.762 -0.161 -20.232 -0.133 -20.904 -0.147 -20.762 -0.123 9.700 0.792 4.263 1.008 44.059 43.311
15.400 -18.732 -0.158 -20.209 -0.134 -20.893 -0.146 -20.755 -0.123 9.634 0.774 4.310 1.011 44.057 43.310
15.800 -18.703 -0.154 -20.186 -0.135 -20.882 -0.143 -20.750 -0.121 9.568 0.755 4.363 1.014 44.056 43.310
16.200 -18.675 -0.150 -20.164 -0.134 -20.872 -0.139 -20.747 -0.119 9.500 0.737 4.423 1.018 44.055 43.310
16.600 -18.646 -0.144 -20.141 -0.132 -20.862 -0.134 -20.746 -0.116 9.429 0.718 4.492 1.024 44.056 43.311
17.000 -18.619 -0.138 -20.120 -0.128 -20.853 -0.128 -20.746 -0.113 9.354 0.699 4.575 1.033 44.058 43.314
17.400 -18.592 -0.132 -20.098 -0.124 -20.844 -0.120 -20.749 -0.110 9.272 0.680 4.676 1.046 44.061 43.319
17.800 -18.565 -0.125 -20.077 -0.119 -20.835 -0.112 -20.754 -0.107 9.183 0.660 4.801 1.066 44.067 43.328
18.200 -18.540 -0.119 -20.057 -0.114 -20.826 -0.103 -20.762 -0.105 9.086 0.641 4.954 1.094 44.076 43.340
18.600 -18.515 -0.113 -20.037 -0.109 -20.817 -0.093 -20.772 -0.104 8.981 0.623 5.138 1.131 44.088 43.355
19.000 -18.492 -0.108 -20.017 -0.104 -20.808 -0.083 -20.782 -0.105 8.870 0.607 5.356 1.175 44.102 43.372
19.400 -18.470 -0.105 -19.999 -0.100 -20.798 -0.073 -20.794 -0.107 8.754 0.592 5.608 1.224 44.119 43.388
19.800 -18.449 -0.104 -19.980 -0.098 -20.788 -0.064 -20.805 -0.110 8.639 0.575 5.880 1.267 44.138 43.399
20.200 -18.429 -0.107 -19.961 -0.099 -20.777 -0.057 -20.816 -0.116 8.539 0.556 6.131 1.290 44.153 43.400
20.600 -18.411 -0.113 -19.943 -0.102 -20.765 -0.057 -20.826 -0.124 8.470 0.531 6.290 1.275 44.162 43.390
21.000 -18.395 -0.123 -19.924 -0.109 -20.753 -0.063 -20.835 -0.135 8.440 0.502 6.327 1.223 44.161 43.372
21.400 -18.380 -0.136 -19.905 -0.119 -20.740 -0.075 -20.842 -0.149 8.429 0.470 6.298 1.153 44.154 43.349
21.800 -18.366 -0.152 -19.885 -0.132 -20.726 -0.092 -20.847 -0.164 8.427 0.438 6.246 1.077 44.147 43.321
