# Wavelength Flux
# STATUS = PUBLIC
# OBJECT = 2019obk
# TELESCOPE = Keck1
# INSTRUMENT =
# DATE-OBS = 2019.0924
# MJD =
# EXPTIME =
# SLIT =
# DISPERSER =
# SOURCE = 2023ApJ...943...41C
# FILTER =
# FLUX_STANDARD =
# EXTINCTION_CORRECTED = False
# PHOTOMETRY_CALIBRATED =
# FLUX_UNITS = erg/s/cm^2/Angstroms
# QUALITY =
# MIN_WAVE =
# MAX_WAVE =
# COMMENT =
3052.1433 1.95068e-17
3054.0813 7.2969e-17
3056.02 -2.33474e-17
3057.9592 -4.38099e-17
3059.8992 1.32491e-16
3061.8396 2.65164e-17
3063.781 1.05551e-16
3065.7227 -3.98429e-17
3067.6653 -3.57197e-18
3069.6084 2.8042e-17
3071.552 -4.10375e-17
3073.4963 5.66677e-17
3075.4412 1.13902e-16
3077.3867 4.79849e-17
3079.333 2.10561e-17
3081.2798 2.19515e-17
3083.2273 -1.62127e-17
3085.1753 4.84176e-18
3087.124 8.73973e-18
3089.0732 -8.65755e-18
3091.0232 -1.17873e-17
3092.9736 5.62068e-17
3094.9248 -2.58141e-17
3096.8767 -4.67845e-17
3098.8291 1.67389e-17
3100.782 -2.6862e-18
3102.7356 -7.2367e-18
3104.6897 9.59252e-18
3106.6445 2.58192e-17
3108.6001 -4.4578e-18
3110.5559 -7.07131e-18
3112.5127 -1.91788e-17
3114.47 1.77533e-17
3116.4277 -1.1e-19
3118.3862 -2.92905e-18
3120.3452 2.67498e-17
3122.3049 1.88185e-18
3124.2651 2.22224e-17
3126.2261 3.77737e-17
3128.1875 1.86197e-17
3130.1494 2.13939e-17
3132.1123 4.06879e-17
3134.0754 6.83271e-18
3136.0393 2.7047e-17
3138.0037 1.75053e-17
3139.9688 3.28612e-17
3141.9343 1.99693e-17
3143.9006 3.55119e-17
3145.8674 2.3371e-17
3147.8347 3.20943e-17
3149.8027 2.82301e-18
3151.7715 9.44908e-18
3153.7405 5.40824e-18
3155.7102 2.67766e-17
3157.6807 2.08349e-17
3159.6516 2.46146e-17
3161.623 4.12238e-17
3163.5952 7.01835e-18
3165.5679 1.79925e-17
3167.541 1.65051e-17
3169.5149 2.65551e-17
3171.4895 3.27018e-17
3173.4644 3.13023e-17
3175.4399 2.56538e-17
3177.4163 4.11345e-17
3179.3928 5.68446e-17
3181.3701 4.17953e-17
3183.3481 3.56083e-17
3185.3267 4.44007e-17
3187.3057 4.24983e-17
3189.2852 5.50196e-17
3191.2654 4.73056e-17
3193.2461 5.78106e-17
3195.2275 4.05037e-17
3197.2095 3.06526e-17
3199.1919 3.09422e-17
3201.1748 2.34566e-17
3203.1584 4.26044e-17
3205.1426 4.23322e-17
3207.1274 4.46372e-17
3209.1128 3.9251e-17
3211.0984 4.64887e-17
3213.085 4.7953e-17
3215.072 3.05705e-17
3217.0593 6.66943e-17
3219.0476 5.61617e-17
3221.0361 4.56417e-17
3223.0254 4.16471e-17
3225.0151 3.81795e-17
3227.0056 5.63891e-17
3228.9963 6.07099e-17
3230.9878 4.30316e-17
3232.9797 4.99019e-17
3234.9724 5.10321e-17
3236.9653 6.39989e-17
3238.959 5.91222e-17
3240.9534 6.78612e-17
3242.948 5.65524e-17
3244.9434 4.45523e-17
3246.9392 4.16281e-17
3248.9355 5.95622e-17
3250.9326 5.36313e-17
3252.9299 6.3928e-17
3254.928 5.63487e-17
3256.9265 4.79462e-17
3258.9258 4.32103e-17
3260.9253 5.45801e-17
3262.9255 5.28608e-17
3264.9263 6.24529e-17
3266.9275 5.52656e-17
3268.9292 6.36558e-17
3270.9316 4.1342e-17
3272.9346 5.0885e-17
3274.938 5.39304e-17
3276.9419 5.82482e-17
3278.9463 6.98485e-17
3280.9514 6.04649e-17
3282.957 5.43285e-17
3284.9631 4.9265e-17
3286.9697 5.03117e-17
3288.9768 5.34563e-17
3290.9846 5.90916e-17
3292.9927 5.57465e-17
3295.0015 4.96437e-17
3297.0107 5.70565e-17
3299.0205 6.14869e-17
3301.0308 5.66139e-17
3303.0415 4.60183e-17
3305.053 4.44082e-17
3307.0647 4.26456e-17
3309.0771 4.90257e-17
3311.0901 5.22336e-17
3313.1035 4.79253e-17
3315.1174 5.31782e-17
3317.1321 3.88051e-17
3319.147 4.35352e-17
3321.1626 4.25651e-17
3323.1785 5.01788e-17
3325.1951 4.38051e-17
3327.2122 4.01952e-17
3329.2297 4.97428e-17
3331.2478 4.74988e-17
3333.2664 5.19064e-17
3335.2854 4.31938e-17
3337.3049 3.52767e-17
3339.3252 4.6701e-17
3341.3457 4.48344e-17
3343.3669 3.61259e-17
3345.3884 3.99455e-17
3347.4106 4.49413e-17
3349.4333 5.14546e-17
3351.4565 4.26365e-17
3353.48 5.39892e-17
3355.5044 4.48811e-17
3357.5288 4.43466e-17
3359.5542 5.38955e-17
3361.5796 5.02759e-17
3363.606 5.04681e-17
3365.6326 5.28862e-17
3367.6597 5.15053e-17
3369.6873 4.8084e-17
3371.7153 5.06746e-17
3373.7441 5.13389e-17
3375.7732 3.89495e-17
3377.8027 4.58028e-17
3379.833 5.51455e-17
3381.8635 4.66545e-17
3383.8945 4.73241e-17
3385.9263 4.6903e-17
3387.9583 4.29861e-17
3389.9907 5.54032e-17
3392.0239 4.37105e-17
3394.0574 4.54577e-17
3396.0913 5.78371e-17
3398.126 6.08055e-17
3400.1609 5.67201e-17
3402.1963 5.977e-17
3404.2324 6.25732e-17
3406.2688 5.96237e-17
3408.3057 5.77778e-17
3410.343 5.67458e-17
3412.3811 5.26473e-17
3414.4192 6.32074e-17
3416.458 5.88148e-17
3418.4973 5.40367e-17
3420.5371 6.67031e-17
3422.5774 5.93676e-17
3424.6182 7.01366e-17
3426.6594 6.47811e-17
3428.7009 6.71193e-17
3430.7432 5.69983e-17
3432.7859 6.77247e-17
3434.8289 6.38085e-17
3436.8723 6.47651e-17
3438.9165 6.59612e-17
3440.9609 6.71426e-17
3443.0059 5.775e-17
3445.0513 6.37749e-17
3447.0972 6.41173e-17
3449.1436 6.00675e-17
3451.1904 5.95683e-17
3453.2375 6.00343e-17
3455.2854 6.55168e-17
3457.3335 5.4769e-17
3459.3821 5.89066e-17
3461.4314 5.88099e-17
3463.481 6.58362e-17
3465.531 6.03461e-17
3467.5813 6.61302e-17
3469.6323 5.06763e-17
3471.6838 6.70277e-17
3473.7356 5.32694e-17
3475.7878 6.27224e-17
3477.8408 5.38254e-17
3479.8938 5.52748e-17
3481.9475 5.24468e-17
3484.0017 6.07433e-17
3486.0562 5.62726e-17
3488.1111 5.36702e-17
3490.1667 4.59627e-17
3492.2227 4.98996e-17
3494.2791 6.07327e-17
3496.3357 4.5786e-17
3498.3931 5.33623e-17
3500.4507 4.98067e-17
3502.5088 4.42427e-17
3504.5674 4.47126e-17
3506.6265 4.18742e-17
3508.6858 4.1408e-17
3510.7456 4.54363e-17
3512.8062 4.13345e-17
3514.8667 4.28967e-17
3516.928 4.18883e-17
3518.9897 4.62199e-17
3521.0518 3.99312e-17
3523.1143 3.93198e-17
3525.1772 4.82884e-17
3527.2405 4.49387e-17
3529.3044 5.28067e-17
3531.3687 4.12479e-17
3533.4333 4.78416e-17
3535.4985 4.06227e-17
3537.564 4.75035e-17
3539.6299 3.90816e-17
3541.6963 3.5866e-17
3543.7632 4.09589e-17
3545.8303 4.1324e-17
3547.8982 4.62829e-17
3549.9663 4.60054e-17
3552.0347 4.15764e-17
3554.1038 4.83395e-17
3556.1731 4.0045e-17
3558.2429 4.97118e-17
3560.313 4.38354e-17
3562.3835 5.35441e-17
3564.4546 4.18086e-17
3566.5261 4.70654e-17
3568.5979 4.22542e-17
3570.6704 4.45378e-17
3572.7432 5.075e-17
3574.8162 5.37743e-17
3576.8896 4.60851e-17
3578.9636 4.93328e-17
3581.0381 4.09864e-17
3583.1128 5.10778e-17
3585.188 5.30077e-17
3587.2637 5.2258e-17
3589.3396 5.33268e-17
3591.416 5.41261e-17
3593.4929 5.63755e-17
3595.5703 5.3006e-17
3597.6477 5.97134e-17
3599.7258 5.8341e-17
3601.8042 4.62856e-17
3603.8833 5.29858e-17
3605.9624 4.98836e-17
3608.042 4.84435e-17
3610.1223 5.17236e-17
3612.2026 4.56228e-17
3614.2834 5.15707e-17
3616.3647 5.32666e-17
3618.4465 5.13546e-17
3620.5286 5.25002e-17
3622.6111 5.24419e-17
3624.6938 5.41939e-17
3626.7771 5.04207e-17
3628.8608 5.10472e-17
3630.9448 5.02463e-17
3633.0293 5.42019e-17
3635.114 5.74935e-17
3637.1992 5.12714e-17
3639.2849 5.53636e-17
3641.3708 4.55171e-17
3643.4573 5.29731e-17
3645.5442 5.00758e-17
3647.6313 5.28926e-17
3649.7188 5.39242e-17
3651.8069 5.63368e-17
3653.895 5.06746e-17
3655.9839 5.91606e-17
3658.073 4.98952e-17
3660.1624 5.93915e-17
3662.2522 5.1743e-17
3664.3425 5.28207e-17
3666.4331 5.8502e-17
3668.5242 6.17502e-17
3670.6155 5.38121e-17
3672.7073 5.36572e-17
3674.7996 5.426e-17
3676.8921 5.74759e-17
3678.9849 5.02742e-17
3681.0781 5.53871e-17
3683.1719 6.33979e-17
3685.2659 5.39655e-17
3687.3601 6.03202e-17
3689.4551 5.5978e-17
3691.55 5.5269e-17
3693.6455 5.80939e-17
3695.7415 6.00987e-17
3697.8379 5.21979e-17
3699.9343 5.98699e-17
3702.0315 5.67837e-17
3704.1287 5.46127e-17
3706.2266 5.74352e-17
3708.3245 6.12704e-17
3710.4231 5.79513e-17
3712.5217 5.7516e-17
3714.6211 5.91448e-17
3716.7205 6.2038e-17
3718.8206 6.27467e-17
3720.9207 5.66704e-17
3723.0215 5.6906e-17
3725.1223 5.6531e-17
3727.2236 5.44312e-17
3729.3254 5.60596e-17
3731.4275 6.41651e-17
3733.5298 5.85317e-17
3735.6328 5.77565e-17
3737.7358 6.11558e-17
3739.8394 6.08417e-17
3741.9431 5.63522e-17
3744.0474 6.28772e-17
3746.1519 5.69888e-17
3748.2566 5.9308e-17
3750.3621 5.9083e-17
3752.4675 5.58204e-17
3754.5735 6.14892e-17
3756.6797 5.42145e-17
3758.7866 5.6851e-17
3760.8936 5.90293e-17
3763.0007 5.82847e-17
3765.1084 5.59067e-17
3767.2166 5.91233e-17
3769.325 6.68233e-17
3771.4336 6.14541e-17
3773.5427 6.03925e-17
3775.6521 5.99498e-17
3777.7617 6.14324e-17
3779.8718 5.57709e-17
3781.9824 5.78668e-17
3784.093 6.11561e-17
3786.2041 5.78277e-17
3788.3157 5.55944e-17
3790.4275 5.30315e-17
3792.5396 5.49901e-17
3794.6519 5.7654e-17
3796.7646 5.65193e-17
3798.8777 5.64263e-17
3800.9912 5.52033e-17
3803.105 5.89283e-17
3805.2192 5.80924e-17
3807.3335 5.84301e-17
3809.4485 5.88845e-17
3811.5635 5.94338e-17
3813.679 5.89837e-17
3815.7947 5.65035e-17
3817.9106 6.22299e-17
3820.0271 5.65351e-17
3822.1438 5.4907e-17
3824.261 5.4063e-17
3826.3784 5.86551e-17
3828.4961 5.4798e-17
3830.614 5.9868e-17
3832.7324 6.17257e-17
3834.8511 6.46418e-17
3836.9702 5.19054e-17
3839.0894 6.01253e-17
3841.209 5.86639e-17
3843.3291 6.16556e-17
3845.4492 5.9002e-17
3847.5698 6.19953e-17
3849.6909 5.99111e-17
3851.812 6.10343e-17
3853.9336 5.8826e-17
3856.0554 5.93702e-17
3858.1775 5.94606e-17
3860.3 6.66603e-17
3862.4229 6.55963e-17
3864.5459 5.90611e-17
3866.6694 6.37698e-17
3868.7932 5.9333e-17
3870.917 6.21721e-17
3873.0415 6.06615e-17
3875.166 5.85919e-17
3877.291 5.89294e-17
3879.4163 5.91928e-17
3881.542 6.33437e-17
3883.6677 6.57094e-17
3885.7939 6.22543e-17
3887.9204 6.23116e-17
3890.0471 5.85386e-17
3892.1743 5.94363e-17
3894.3018 5.73941e-17
3896.4294 6.36222e-17
3898.5574 5.87852e-17
3900.6855 6.45533e-17
3902.8142 5.93155e-17
3904.9431 6.34757e-17
3907.0723 6.46226e-17
3909.2017 6.21326e-17
3911.3315 6.02735e-17
3913.4617 5.98866e-17
3915.5918 5.93289e-17
3917.7227 6.19536e-17
3919.8535 6.23759e-17
3921.9849 5.92011e-17
3924.1162 6.10874e-17
3926.248 6.11377e-17
3928.3804 5.66962e-17
3930.5127 5.97564e-17
3932.6455 5.80373e-17
3934.7783 6.05345e-17
3936.9116 5.57678e-17
3939.0452 6.30766e-17
3941.179 6.16021e-17
3943.313 5.77545e-17
3945.4475 6.9875e-17
3947.5823 5.98173e-17
3949.7173 6.63648e-17
3951.8525 5.53057e-17
3953.988 6.67803e-17
3956.1238 6.581e-17
3958.26 5.71063e-17
3960.3962 6.8949e-17
3962.533 6.0311e-17
3964.6699 6.07318e-17
3966.8071 6.18555e-17
3968.9446 6.516e-17
3971.0825 6.47216e-17
3973.2205 6.6011e-17
3975.3586 6.65733e-17
3977.4973 6.41549e-17
3979.6362 6.72444e-17
3981.7754 6.40909e-17
3983.9148 6.43036e-17
3986.0544 5.61966e-17
3988.1943 6.56722e-17
3990.3347 6.12236e-17
3992.4751 6.26082e-17
3994.616 6.37261e-17
3996.7568 5.94451e-17
3998.8982 6.31879e-17
4001.0398 6.1791e-17
4003.1816 5.78089e-17
4005.3237 5.99023e-17
4007.4661 5.73047e-17
4009.6086 5.74831e-17
4011.7517 6.02945e-17
4013.8948 5.89121e-17
4016.0381 6.29869e-17
4018.1819 6.18307e-17
4020.3257 6.07143e-17
4022.47 6.30646e-17
4024.6145 5.83737e-17
4026.759 6.96257e-17
4028.9041 6.88456e-17
4031.0493 6.96289e-17
4033.1948 6.58835e-17
4035.3406 6.22431e-17
4037.4866 6.74955e-17
4039.6328 6.24941e-17
4041.7793 6.27697e-17
4043.926 6.29083e-17
4046.073 6.57031e-17
4048.2202 6.13759e-17
4050.3679 5.67156e-17
4052.5156 6.26019e-17
4054.6636 5.68332e-17
4056.812 6.63595e-17
4058.9604 6.33523e-17
4061.1091 6.84105e-17
4063.2583 6.54328e-17
4065.4075 6.99746e-17
4067.5569 5.99634e-17
4069.7068 6.70754e-17
4071.8567 6.3153e-17
4074.0068 6.72773e-17
4076.1575 6.10826e-17
4078.3081 6.10569e-17
4080.459 6.84492e-17
4082.6101 7.15294e-17
4084.7617 6.56881e-17
4086.9133 6.7251e-17
4089.0652 6.89276e-17
4091.2173 5.89575e-17
4093.3699 6.58973e-17
4095.5225 6.7676e-17
4097.6753 6.93959e-17
4099.8286 5.89557e-17
4101.9819 6.58697e-17
4104.1353 6.37168e-17
4106.2891 6.24464e-17
4108.4434 6.69505e-17
4110.5977 6.77751e-17
4112.752 6.63552e-17
4114.9067 6.6206e-17
4117.0615 6.45465e-17
4119.2168 6.53425e-17
4121.3726 6.63728e-17
4123.5278 6.4181e-17
4125.6841 6.13732e-17
4127.8398 6.11931e-17
4129.9966 6.45634e-17
4132.1528 6.08974e-17
4134.3096 6.43518e-17
4136.4668 6.12792e-17
4138.624 6.68746e-17
4140.7817 5.94142e-17
4142.939 6.55645e-17
4145.0972 6.92217e-17
4147.2554 6.56288e-17
4149.4136 6.49344e-17
4151.5723 6.16789e-17
4153.731 6.62308e-17
4155.8901 6.669e-17
4158.0493 6.65344e-17
4160.2085 6.1721e-17
4162.3682 6.46233e-17
4164.5283 6.62736e-17
4166.6885 6.85177e-17
4168.8486 6.93759e-17
4171.0093 6.11983e-17
4173.1699 6.80165e-17
4175.3311 6.6581e-17
4177.4922 6.79988e-17
4179.6533 6.8125e-17
4181.8149 6.46657e-17
4183.9771 6.86621e-17
4186.1387 6.38392e-17
4188.3013 6.95559e-17
4190.4634 6.31393e-17
4192.626 6.27138e-17
4194.7891 6.79287e-17
4196.9521 6.59689e-17
4199.1152 6.56469e-17
4201.2788 7.17537e-17
4203.4424 6.7363e-17
4205.6064 6.53216e-17
4207.7705 6.53597e-17
4209.9346 6.81046e-17
4212.0991 7.03324e-17
4214.2642 6.17562e-17
4216.4287 6.75907e-17
4218.5942 6.11814e-17
4220.7593 6.35189e-17
4222.9248 6.94808e-17
4225.0903 6.64162e-17
4227.2563 7.42122e-17
4229.4224 6.9435e-17
4231.5889 6.87171e-17
4233.7554 7.21295e-17
4235.9219 6.30963e-17
4238.0889 7.23729e-17
4240.2559 6.44779e-17
4242.4233 6.53638e-17
4244.5908 7.2965e-17
4246.7583 6.90177e-17
4248.9263 6.51795e-17
4251.0942 6.75479e-17
4253.2627 6.88683e-17
4255.4307 7.05969e-17
4257.5996 6.96047e-17
4259.7681 6.67549e-17
4261.9375 7.05238e-17
4264.1064 6.92441e-17
4266.2759 7.05273e-17
4268.4453 7.14391e-17
4270.6152 6.63776e-17
4272.7852 6.86224e-17
4274.9551 6.7869e-17
4277.1255 6.95044e-17
4279.2959 7.06886e-17
4281.4668 7.04008e-17
4283.6377 6.85068e-17
4285.8086 6.6364e-17
4287.9795 6.80155e-17
4290.1509 6.87551e-17
4292.3228 6.97985e-17
4294.4946 6.70252e-17
4296.6665 6.85351e-17
4298.8384 6.4395e-17
4301.0107 6.89505e-17
4303.1831 6.60355e-17
4305.356 6.38929e-17
4307.5288 7.02734e-17
4309.7017 6.7097e-17
4311.875 6.3888e-17
4314.0483 7.09965e-17
4316.2217 6.60792e-17
4318.3955 6.8626e-17
4320.5693 6.28692e-17
4322.7432 6.56972e-17
4324.9175 6.47743e-17
4327.0918 6.39661e-17
4329.2666 6.34396e-17
4331.4414 6.64279e-17
4333.6162 6.55681e-17
4335.791 6.55266e-17
4337.9663 6.44709e-17
4340.1416 6.67536e-17
4342.3174 6.51817e-17
4344.4932 6.86028e-17
4346.6689 6.6505e-17
4348.8447 6.32495e-17
4351.021 5.79726e-17
4353.1973 6.59096e-17
4355.374 6.50059e-17
4357.5508 6.23169e-17
4359.7275 6.54006e-17
4361.9048 6.21828e-17
4364.082 5.91579e-17
4366.2593 6.02151e-17
4368.4365 6.17258e-17
4370.6143 5.62488e-17
4372.792 5.78934e-17
4374.9702 6.17e-17
4377.1484 5.96774e-17
4379.3267 6.08556e-17
4381.5049 5.49364e-17
4383.6836 5.66428e-17
4385.8623 6.09863e-17
4388.0415 5.54202e-17
4390.2207 6.12024e-17
4392.3999 5.36742e-17
4394.5791 5.35241e-17
4396.7588 5.39992e-17
4398.9385 5.50866e-17
4401.1182 5.44383e-17
4403.2983 5.69505e-17
4405.4785 5.61704e-17
4407.6587 5.56967e-17
4409.8389 4.88893e-17
4412.0195 5.3574e-17
4414.2002 5.48593e-17
4416.3813 5.5574e-17
4418.5625 5.61086e-17
4420.7437 5.09091e-17
4422.9248 5.14813e-17
4425.1064 5.34822e-17
4427.2881 5.98901e-17
4429.4697 5.24494e-17
4431.6514 5.62145e-17
4433.8335 5.26082e-17
4436.0156 5.52054e-17
4438.1982 5.98153e-17
4440.3804 5.83197e-17
4442.563 5.65917e-17
4444.7461 5.65671e-17
4446.9287 5.56105e-17
4449.1118 6.01065e-17
4451.2949 5.80072e-17
4453.4785 5.89385e-17
4455.6616 5.91926e-17
4457.8452 5.57729e-17
4460.0293 5.82533e-17
4462.2129 5.9076e-17
4464.397 5.65684e-17
4466.5811 6.06681e-17
4468.7651 5.72691e-17
4470.9497 5.76708e-17
4473.1343 5.60257e-17
4475.3188 6.49004e-17
4477.5034 6.0955e-17
4479.6885 6.1801e-17
4481.8735 6.27269e-17
4484.0586 5.94585e-17
4486.2441 6.01923e-17
4488.4297 6.72162e-17
4490.6152 6.15532e-17
4492.8008 6.22664e-17
4494.9868 6.16399e-17
4497.1724 5.96425e-17
4499.3584 6.67026e-17
4501.5449 6.36885e-17
4503.731 6.37316e-17
4505.9175 5.60745e-17
4508.104 6.11938e-17
4510.291 5.90629e-17
4512.4775 5.71914e-17
4514.6646 5.88927e-17
4516.8516 6.5046e-17
4519.0391 6.1051e-17
4521.2261 6.16219e-17
4523.4136 6.1775e-17
4525.6011 7.13856e-17
4527.7891 6.40616e-17
4529.9766 6.64486e-17
4532.1646 6.9644e-17
4534.3525 5.92012e-17
4536.5405 6.66874e-17
4538.729 6.72278e-17
4540.9175 6.22376e-17
4543.106 6.95729e-17
4545.2944 6.76419e-17
4547.4834 6.27451e-17
4549.6719 6.53521e-17
4551.8608 6.31415e-17
4554.0503 6.69563e-17
4556.2393 6.68076e-17
4558.4287 6.82261e-17
4560.6177 6.66926e-17
4562.8076 6.69028e-17
4564.9971 6.767e-17
4567.187 6.83241e-17
4569.3765 6.58064e-17
4571.5664 7.25362e-17
4573.7568 6.66357e-17
4575.9468 7.09907e-17
4578.1372 6.86532e-17
4580.3276 7.10844e-17
4582.5181 6.84434e-17
4584.7085 6.63798e-17
4586.8994 6.89288e-17
4589.0903 6.77912e-17
4591.2812 6.78773e-17
4593.4722 6.89121e-17
4595.6631 6.79011e-17
4597.8545 7.21876e-17
4600.0459 7.06049e-17
4602.2373 6.65239e-17
4604.4287 6.82118e-17
4606.6206 7.47158e-17
4608.812 6.4902e-17
4611.0039 7.47902e-17
4613.1958 7.08939e-17
4615.3877 6.67064e-17
4617.5801 7.27629e-17
4619.7725 7.39443e-17
4621.9648 6.64631e-17
4624.1572 6.51526e-17
4626.3496 6.63654e-17
4628.542 6.76455e-17
4630.7349 7.17827e-17
4632.9277 6.92104e-17
4635.1206 7.4415e-17
4637.3135 7.0359e-17
4639.5068 7.00937e-17
4641.6997 7.12082e-17
4643.8931 6.9604e-17
4646.0864 7.14553e-17
4648.2803 7.13831e-17
4650.4736 6.78324e-17
4652.6675 6.92504e-17
4654.8608 6.66068e-17
4657.0547 7.14056e-17
4659.249 7.44548e-17
4661.4429 6.99597e-17
4663.6367 7.06704e-17
4665.8311 7.37598e-17
4668.0254 6.9803e-17
4670.2197 7.04223e-17
4672.4141 6.63028e-17
4674.6084 6.82995e-17
4676.8032 7.04062e-17
4678.998 6.81506e-17
4681.1929 6.90006e-17
4683.3877 6.55354e-17
4685.5825 6.45394e-17
4687.7778 7.02896e-17
4689.9727 6.95447e-17
4692.168 7.04225e-17
4694.3633 7.53733e-17
4696.5586 6.94348e-17
4698.7539 6.86357e-17
4700.9497 6.66646e-17
4703.145 6.42411e-17
4705.3408 6.4668e-17
4707.5366 7.37447e-17
4709.7324 6.90887e-17
4711.9282 6.9047e-17
4714.1245 7.10957e-17
4716.3203 7.03278e-17
4718.5166 7.12007e-17
4720.7129 6.99007e-17
4722.9092 7.45167e-17
4725.1055 6.82868e-17
4727.3018 7.14913e-17
4729.4985 7.39701e-17
4731.6953 7.22445e-17
4733.8916 7.00902e-17
4736.0884 6.70947e-17
4738.2852 6.87478e-17
4740.4824 6.93019e-17
4742.6792 6.76241e-17
4744.8765 6.60441e-17
4747.0732 6.84222e-17
4749.2705 6.61265e-17
4751.4678 6.72851e-17
4753.665 6.15645e-17
4755.8628 7.03893e-17
4758.0601 6.16251e-17
4760.2578 6.92631e-17
4762.4551 6.72977e-17
4764.6528 6.59923e-17
4766.8506 6.54899e-17
4769.0483 7.24047e-17
4771.2461 7.05721e-17
4773.4443 6.44908e-17
4775.6421 6.83062e-17
4777.8403 7.02148e-17
4780.0381 7.02337e-17
4782.2363 6.52099e-17
4784.4346 6.45214e-17
4786.6328 6.88506e-17
4788.8315 6.78603e-17
4791.0298 6.67392e-17
4793.2285 6.50633e-17
4795.4268 6.53974e-17
4797.6255 6.84636e-17
4799.8242 6.1897e-17
4802.0229 6.41212e-17
4804.2217 6.63298e-17
4806.4204 6.39139e-17
4808.6196 6.44129e-17
4810.8184 6.60028e-17
4813.0176 6.31757e-17
4815.2168 6.60868e-17
4817.4155 6.29355e-17
4819.6147 6.38363e-17
4821.814 6.33357e-17
4824.0137 6.68654e-17
4826.2129 5.94072e-17
4828.4121 6.82169e-17
4830.6118 6.48774e-17
4832.8115 6.38638e-17
4835.0107 6.45895e-17
4837.2104 6.52174e-17
4839.4102 6.48026e-17
4841.6099 6.54573e-17
4843.8096 6.85688e-17
4846.0093 6.50489e-17
4848.2095 6.86423e-17
4850.4092 5.98797e-17
4852.6094 6.53731e-17
4854.8096 7.03625e-17
4857.0093 6.15603e-17
4859.2095 6.77793e-17
4861.4097 6.40942e-17
4863.6099 5.93886e-17
4865.8101 6.3932e-17
4868.0107 5.98268e-17
4870.2109 6.66028e-17
4872.4116 6.58295e-17
4874.6118 6.88302e-17
4876.8125 6.05969e-17
4879.0132 5.96226e-17
4881.2134 6.49711e-17
4883.4141 6.82412e-17
4885.6152 6.34267e-17
4887.8159 6.04243e-17
4890.0166 6.44283e-17
4892.2173 6.05594e-17
4894.418 6.46783e-17
4896.6191 6.72402e-17
4898.8198 6.24087e-17
4901.021 6.16106e-17
4903.2222 6.17937e-17
4905.4233 6.67784e-17
4907.624 6.30236e-17
4909.8252 6.43749e-17
4912.0264 6.13432e-17
4914.228 6.09345e-17
4916.4292 6.08815e-17
4918.6304 6.48991e-17
4920.8315 6.41014e-17
4923.0332 6.57881e-17
4925.2344 6.21105e-17
4927.436 6.58268e-17
4929.6372 6.05102e-17
4931.8389 6.21245e-17
4934.0405 6.22888e-17
4936.2422 6.16805e-17
4938.4438 6.33418e-17
4940.6455 5.79312e-17
4942.8472 6.11486e-17
4945.0488 6.48813e-17
4947.2505 6.33942e-17
4949.4521 6.26542e-17
4951.6543 6.35115e-17
4953.856 6.25821e-17
4956.0581 6.29237e-17
4958.2598 6.17377e-17
4960.4619 6.37074e-17
4962.6636 6.39959e-17
4964.8657 6.11317e-17
4967.0679 6.6584e-17
4969.27 6.45236e-17
4971.4722 5.36519e-17
4973.6743 6.44896e-17
4975.876 6.59054e-17
4978.0786 6.69593e-17
4980.2808 6.11607e-17
4982.4829 6.11636e-17
4984.6851 5.94193e-17
4986.8872 6.22822e-17
4989.0898 6.32592e-17
4991.292 6.08173e-17
4993.4946 6.20638e-17
4995.6968 6.26841e-17
4997.8994 5.61811e-17
5000.1016 5.65359e-17
5002.3042 6.35809e-17
5004.5068 5.90522e-17
5006.709 6.20706e-17
5008.9116 5.87497e-17
5011.1143 5.57105e-17
5013.3169 6.13471e-17
5015.5195 5.83047e-17
5017.7222 5.99481e-17
5019.9248 6.31471e-17
5022.1274 5.74354e-17
5024.3301 5.72235e-17
5026.5327 5.83408e-17
5028.7354 5.78374e-17
5030.938 6.06843e-17
5033.1406 5.54998e-17
5035.3438 5.68933e-17
5037.5464 5.6723e-17
5039.749 5.52903e-17
5041.9521 5.56479e-17
5044.1548 5.27024e-17
5046.3579 5.53234e-17
5048.5605 5.3013e-17
5050.7637 5.90989e-17
5052.9663 5.21415e-17
5055.1694 5.57234e-17
5057.3721 5.85545e-17
5059.5752 5.19817e-17
5061.7783 5.82278e-17
5063.981 5.91604e-17
5066.1841 5.51067e-17
5068.3872 5.45283e-17
5070.5903 5.33679e-17
5072.793 5.33816e-17
5074.9961 5.49547e-17
5077.1992 5.75212e-17
5079.4023 5.54282e-17
5081.6055 5.40502e-17
5083.8086 5.56197e-17
5086.0117 5.53084e-17
5088.2148 5.43037e-17
5090.418 5.85067e-17
5092.6211 5.23835e-17
5094.8242 5.41938e-17
5097.0273 5.66289e-17
5099.2305 5.41631e-17
5101.4336 5.50103e-17
5103.6367 5.65272e-17
5105.8398 5.7522e-17
5108.043 5.40592e-17
5110.2461 5.87244e-17
5112.4492 5.61055e-17
5114.6528 5.38261e-17
5116.856 5.80479e-17
5119.0591 5.68776e-17
5121.2622 5.27267e-17
5123.4653 5.5531e-17
5125.6685 6.0123e-17
5127.8721 5.38862e-17
5130.0752 5.48369e-17
5132.2783 5.48416e-17
5134.4814 5.52645e-17
5136.6851 6.22296e-17
5138.8882 5.96666e-17
5141.0913 5.71859e-17
5143.2944 5.86852e-17
5145.498 5.66259e-17
5147.7012 5.72836e-17
5149.9043 5.95912e-17
5152.1074 5.84569e-17
5154.311 6.09608e-17
5156.5142 5.96585e-17
5158.7173 5.93635e-17
5160.9209 5.87711e-17
5163.124 6.03286e-17
5165.3271 5.85789e-17
5167.5303 6.32936e-17
5169.7339 5.83423e-17
5171.937 6.63503e-17
5174.1401 5.707e-17
5176.3433 5.91967e-17
5178.5469 5.95412e-17
5180.75 6.29618e-17
5182.9531 6.27114e-17
5185.1562 5.59517e-17
5187.3599 5.77765e-17
5189.563 5.9011e-17
5191.7661 5.75548e-17
5193.9692 6.20252e-17
5196.1724 6.12703e-17
5198.3755 6.182e-17
5200.5791 6.11857e-17
5202.7822 5.69171e-17
5204.9854 6.19585e-17
5207.1885 6.38575e-17
5209.3916 6.41394e-17
5211.5947 6.26884e-17
5213.7979 5.6953e-17
5216.001 5.82577e-17
5218.2041 5.56012e-17
5220.4077 6.19069e-17
5222.6108 5.95823e-17
5224.8135 6.36067e-17
5227.0166 6.01198e-17
5229.2197 6.1354e-17
5231.4229 6.04933e-17
5233.626 6.04355e-17
5235.8291 5.84166e-17
5238.0322 6.17144e-17
5240.2354 6.49729e-17
5242.4385 6.36427e-17
5244.6416 6.6406e-17
5246.8442 6.1278e-17
5249.0474 6.29639e-17
5251.2505 6.14348e-17
5253.4536 6.27312e-17
5255.6562 6.05825e-17
5257.8594 6.36841e-17
5260.0625 6.3597e-17
5262.2651 6.6082e-17
5264.4683 6.72332e-17
5266.6709 6.802e-17
5268.874 6.2343e-17
5271.0767 6.91769e-17
5273.2798 6.55272e-17
5275.4824 6.83889e-17
5277.6855 6.65747e-17
5279.8882 6.90474e-17
5282.0908 6.57367e-17
5284.2939 7.20852e-17
5286.4966 7.02361e-17
5288.6992 6.40971e-17
5290.9019 6.65923e-17
5293.105 6.53205e-17
5295.3076 6.68073e-17
5297.5103 6.67939e-17
5299.7129 6.69036e-17
5301.9155 6.40113e-17
5304.1182 6.88504e-17
5306.3208 6.86176e-17
5308.5234 6.53393e-17
5310.7261 6.7877e-17
5312.9282 6.77892e-17
5315.1309 6.15306e-17
5317.3335 6.1215e-17
5319.5361 7.10879e-17
5321.7383 6.63753e-17
5323.9409 6.20403e-17
5326.1436 6.47359e-17
5328.3457 7.04295e-17
5330.5483 6.39427e-17
5332.7505 6.70282e-17
5334.9531 6.66001e-17
5337.1553 6.40512e-17
5339.3574 7.0001e-17
5341.5601 6.256e-17
5343.7622 6.72605e-17
5345.9644 6.54106e-17
5348.1665 6.41377e-17
5350.3687 6.19829e-17
5352.5708 6.29469e-17
5354.7729 6.48968e-17
5356.9751 6.97229e-17
5359.1772 6.62756e-17
5361.3794 6.59529e-17
5363.5815 6.99775e-17
5365.7837 6.47974e-17
5367.9854 6.81169e-17
5370.1875 7.06913e-17
5372.3892 7.07338e-17
5374.5913 7.00764e-17
5376.7935 7.1531e-17
5378.9951 6.45227e-17
5381.1968 6.23211e-17
5383.3989 6.96822e-17
5385.6006 6.45576e-17
5387.8022 6.7942e-17
5390.0044 6.24028e-17
5392.2061 6.75441e-17
5394.4077 6.68158e-17
5396.6094 6.7914e-17
5398.811 6.89039e-17
5401.0127 6.05221e-17
5403.2139 6.62007e-17
5405.4155 6.47206e-17
5407.6172 6.34209e-17
5409.8184 6.34806e-17
5412.02 6.69737e-17
5414.2217 6.67786e-17
5416.4229 6.37462e-17
5418.6245 5.37667e-17
5420.8257 6.48558e-17
5423.0269 6.2831e-17
5425.228 5.57027e-17
5427.4297 6.5246e-17
5429.6309 6.21703e-17
5431.832 6.63619e-17
5434.0332 6.11295e-17
5436.2344 6.52056e-17
5438.4351 6.33048e-17
5440.6362 6.69357e-17
5442.8374 6.658e-17
5445.0386 6.71157e-17
5447.2393 5.91623e-17
5449.4404 5.7369e-17
5451.6411 5.84151e-17
5453.8423 6.16519e-17
5456.043 6.53912e-17
5458.2437 5.95145e-17
5460.4448 6.49176e-17
5462.6455 6.39914e-17
5464.8462 6.8073e-17
5467.0469 5.88454e-17
5469.2471 5.92316e-17
5471.4478 6.0147e-17
5473.6484 6.25257e-17
5475.8491 6.51572e-17
5478.0493 5.8949e-17
5480.25 6.30411e-17
5482.4507 6.17818e-17
5484.6509 5.9369e-17
5486.8511 6.10226e-17
5489.0513 6.38706e-17
5491.252 6.14268e-17
5493.4521 6.06264e-17
5495.6523 5.79848e-17
5497.8525 6.19321e-17
5500.0527 5.87815e-17
5502.2529 6.04755e-17
5504.4526 5.8555e-17
5506.6528 5.69783e-17
5508.853 5.56698e-17
5511.0527 6.09134e-17
5513.2529 5.36999e-17
5515.4526 5.50079e-17
5517.6523 5.84039e-17
5519.8525 5.61286e-17
5522.0522 5.56403e-17
5524.252 5.55532e-17
5526.4517 5.78133e-17
5528.6514 5.88392e-17
5530.8506 6.21144e-17
5533.0503 5.68827e-17
5535.25 5.04394e-17
5537.4497 5.66823e-17
5539.6489 6.02139e-17
5541.8481 5.29613e-17
5544.0479 5.60483e-17
5546.2471 5.78824e-17
5548.4463 5.78417e-17
5550.6455 5.63652e-17
5552.8447 5.34942e-17
5555.0439 5.9651e-17
5557.2432 5.75861e-17
5559.4424 5.44259e-17
5561.6416 5.45715e-17
5563.8403 5.22646e-17
5566.0396 5.45716e-17
5568.2383 5.1051e-17
5570.4375 5.32849e-17
5572.6362 5.39408e-17
5574.835 6.33654e-17
5577.0337 6.32735e-17
5579.2324 5.76463e-17
5581.4312 6.30971e-17
5583.6299 5.59454e-17
5585.8286 5.69888e-17
5588.0269 5.687e-17
5590.2256 5.90229e-17
5592.4238 5.0646e-17
5594.6226 5.16852e-17
5596.8208 5.3698e-17
5599.019 4.6869e-17
5601.2173 4.91225e-17
5603.416 5.7392e-17
5605.6138 4.9866e-17
5607.812 5.38236e-17
5610.0103 5.11134e-17
5612.2085 5.09336e-17
5614.4067 5.22331e-17
5616.6045 5.29757e-17
5618.8027 5.36239e-17
5621.0005 5.19316e-17
5623.1982 5.30053e-17
5625.396 4.35681e-17
5627.5938 5.42086e-17
5629.7915 5.19479e-17
5631.9893 4.92914e-17
5634.187 4.93739e-17
5636.3848 5.00735e-17
5638.582 5.87818e-17
5640.7798 5.47413e-17
5642.9771 5.66324e-17
5645.1748 4.73448e-17
5647.3721 5.65462e-17
5649.5693 5.69425e-17
5651.7666 5.6288e-17
5653.9639 5.68784e-17
5656.1611 5.58928e-17
5658.3584 5.04594e-17
5660.5552 5.3362e-17
5662.7524 5.77754e-17
5663.75 6.26144e-17
5664.8965 5.1678e-17
5666.043 5.42052e-17
5667.1899 4.99571e-17
5668.3364 4.96748e-17
5669.4834 5.4893e-17
5670.6304 5.41144e-17
5671.7773 5.32559e-17
5672.9238 5.73729e-17
5674.0708 5.02559e-17
5675.2178 5.80267e-17
5676.3647 5.93499e-17
5677.5117 5.63903e-17
5678.6587 4.79213e-17
5679.8057 5.85808e-17
5680.9531 5.72959e-17
5682.1001 6.30748e-17
5683.2471 6.01314e-17
5684.3945 5.12886e-17
5685.5415 5.87439e-17
5686.689 6.17048e-17
5687.8364 5.76902e-17
5688.9834 5.67644e-17
5690.1309 4.93999e-17
5691.2783 5.69227e-17
5692.4258 5.48151e-17
5693.5732 5.3017e-17
5694.7207 5.53696e-17
5695.8682 4.65766e-17
5697.0156 5.61453e-17
5698.1631 5.59283e-17
5699.311 5.83672e-17
5700.4585 5.57575e-17
5701.606 5.39033e-17
5702.7539 5.24133e-17
5703.9014 5.34391e-17
5705.0493 4.99612e-17
5706.1973 5.3319e-17
5707.3447 5.37153e-17
5708.4927 5.46278e-17
5709.6406 5.65568e-17
5710.7886 5.31725e-17
5711.9365 5.39637e-17
5713.0845 4.98607e-17
5714.2324 5.62674e-17
5715.3804 5.5452e-17
5716.5288 5.12952e-17
5717.6768 5.73951e-17
5718.8247 5.73673e-17
5719.9731 5.73349e-17
5721.1211 5.69232e-17
5722.2695 5.35823e-17
5723.418 5.53205e-17
5724.5659 6.4268e-17
5725.7144 6.23302e-17
5726.8628 5.42195e-17
5728.0112 5.55084e-17
5729.1597 6.01942e-17
5730.3081 4.78345e-17
5731.4565 5.87492e-17
5732.605 5.8053e-17
5733.7539 4.93801e-17
5734.9023 6.47085e-17
5736.0508 6.00041e-17
5737.1997 5.78931e-17
5738.3481 5.70467e-17
5739.4971 5.83779e-17
5740.646 4.98887e-17
5741.7944 5.51369e-17
5742.9434 6.16714e-17
5744.0923 5.5397e-17
5745.2412 6.16269e-17
5746.3901 5.73479e-17
5747.5391 5.80978e-17
5748.688 5.52695e-17
5749.8369 5.70231e-17
5750.9863 5.6033e-17
5752.1353 5.82752e-17
5753.2842 5.00188e-17
5754.4336 5.13673e-17
5755.5825 6.29413e-17
5756.7319 5.25745e-17
5757.8809 5.57515e-17
5759.0303 5.99686e-17
5760.1797 5.38544e-17
5761.3291 5.60947e-17
5762.4785 5.45734e-17
5763.6279 5.14361e-17
5764.7773 5.58643e-17
5765.9268 5.89573e-17
5767.0762 5.7455e-17
5768.2261 6.15719e-17
5769.3755 5.64702e-17
5770.5249 5.42462e-17
5771.6748 5.30427e-17
5772.8242 5.944e-17
5773.9741 5.77763e-17
5775.124 5.56944e-17
5776.2739 5.4504e-17
5777.4233 5.76443e-17
5778.5732 5.67401e-17
5779.7231 5.44673e-17
5780.873 5.94206e-17
5782.0229 5.17392e-17
5783.1733 5.47246e-17
5784.3232 5.67542e-17
5785.4731 5.13343e-17
5786.623 4.97153e-17
5787.7734 5.16057e-17
5788.9233 5.36257e-17
5790.0737 4.76134e-17
5791.2241 5.45352e-17
5792.374 4.83857e-17
5793.5244 5.99764e-17
5794.6748 4.79655e-17
5795.8252 4.61547e-17
5796.9756 5.54198e-17
5798.126 5.39773e-17
5799.2764 5.00269e-17
5800.4268 5.70567e-17
5801.5776 5.28398e-17
5802.728 4.7827e-17
5803.8784 5.24266e-17
5805.0293 4.4447e-17
5806.1797 4.89174e-17
5807.3306 5.35457e-17
5808.4814 5.22324e-17
5809.6323 4.6436e-17
5810.7827 4.77706e-17
5811.9336 5.40163e-17
5813.0845 4.61645e-17
5814.2354 5.02952e-17
5815.3862 5.40329e-17
5816.5376 5.09386e-17
5817.6885 4.78815e-17
5818.8394 4.93715e-17
5819.9907 4.66538e-17
5821.1416 5.93881e-17
5822.2925 5.10601e-17
5823.4438 6.06992e-17
5824.5952 5.30448e-17
5825.7461 5.94681e-17
5826.8975 4.92955e-17
5828.0488 4.89182e-17
5829.2002 5.35413e-17
5830.3516 5.67892e-17
5831.5029 5.65832e-17
5832.6543 5.17637e-17
5833.8062 5.5653e-17
5834.9575 4.95205e-17
5836.1089 4.98626e-17
5837.2607 5.50806e-17
5838.4121 5.34492e-17
5839.564 5.38794e-17
5840.7158 4.94136e-17
5841.8672 5.47923e-17
5843.019 4.82465e-17
5844.1709 5.47471e-17
5845.3228 4.92224e-17
5846.4746 5.31311e-17
5847.6265 5.24492e-17
5848.7783 5.51948e-17
5849.9302 4.97218e-17
5851.0825 5.0362e-17
5852.2344 5.66567e-17
5853.3867 5.28396e-17
5854.5386 5.06317e-17
5855.6909 5.03872e-17
5856.8428 4.9622e-17
5857.9951 5.75968e-17
5859.1475 4.92402e-17
5860.2998 5.38771e-17
5861.4521 4.98406e-17
5862.6045 4.92706e-17
5863.7568 5.39549e-17
5864.9092 5.44948e-17
5866.0615 5.38687e-17
5867.2139 5.32465e-17
5868.3667 5.30194e-17
5869.519 5.4075e-17
5870.6719 4.74492e-17
5871.8242 4.84707e-17
5872.9771 4.80267e-17
5874.1299 5.80688e-17
5875.2827 5.14821e-17
5876.4351 5.03984e-17
5877.5879 4.68589e-17
5878.7407 5.32519e-17
5879.894 4.87173e-17
5881.0469 4.5725e-17
5882.1997 4.95323e-17
5883.3525 4.70679e-17
5884.5054 4.5909e-17
5885.6587 5.0637e-17
5886.812 5.48182e-17
5887.9648 6.4078e-17
5889.1182 5.18704e-17
5890.271 5.74232e-17
5891.4243 4.93938e-17
5892.5776 5.16293e-17
5893.731 3.88344e-17
5894.8843 4.45334e-17
5896.0376 4.40759e-17
5897.1909 5.17702e-17
5898.3447 4.54719e-17
5899.498 4.86237e-17
5900.6514 4.68927e-17
5901.8052 5.41738e-17
5902.9585 5.05741e-17
5904.1123 4.94444e-17
5905.2661 4.85462e-17
5906.4194 5.09491e-17
5907.5732 4.57109e-17
5908.7271 5.35837e-17
5909.8809 5.10378e-17
5911.0347 4.91282e-17
5912.1885 5.1278e-17
5913.3423 4.94316e-17
5914.4966 5.1133e-17
5915.6504 4.8139e-17
5916.8042 5.31137e-17
5917.9585 4.66778e-17
5919.1123 5.15989e-17
5920.2666 5.09901e-17
5921.4209 5.19525e-17
5922.5747 5.102e-17
5923.729 5.10873e-17
5924.8833 5.16665e-17
5926.0376 5.28016e-17
5927.1919 4.86158e-17
5928.3462 6.04064e-17
5929.501 5.40239e-17
5930.6553 4.91697e-17
5931.8096 5.34482e-17
5932.9644 5.44957e-17
5934.1187 5.10184e-17
5935.2734 4.89273e-17
5936.4277 4.99013e-17
5937.5825 5.70074e-17
5938.7373 5.49398e-17
5939.8921 4.93865e-17
5941.0469 5.6161e-17
5942.2017 5.14969e-17
5943.3564 5.36419e-17
5944.5112 5.13784e-17
5945.666 4.93938e-17
5946.8208 4.70081e-17
5947.9761 4.93451e-17
5949.1309 5.14678e-17
5950.2861 5.82099e-17
5951.4409 5.39947e-17
5952.5962 5.31369e-17
5953.7515 4.77292e-17
5954.9067 4.54119e-17
5956.0615 5.60181e-17
5957.2168 5.15504e-17
5958.3721 4.70156e-17
5959.5278 4.5189e-17
5960.6831 5.28991e-17
5961.8384 5.57613e-17
5962.9937 5.13491e-17
5964.1494 4.92883e-17
5965.3047 5.01841e-17
5966.4604 4.4411e-17
5967.6157 5.11591e-17
5968.7715 5.13906e-17
5969.9272 5.6591e-17
5971.083 4.82029e-17
5972.2383 5.24277e-17
5973.394 5.22541e-17
5974.5498 5.51526e-17
5975.7061 4.89031e-17
5976.8618 5.06308e-17
5978.0176 4.93448e-17
5979.1733 5.3052e-17
5980.3296 5.40437e-17
5981.4854 4.89881e-17
5982.6416 5.56624e-17
5983.7974 5.27154e-17
5984.9536 4.73615e-17
5986.1099 5.27496e-17
5987.2661 5.60125e-17
5988.4224 5.2576e-17
5989.5786 5.05358e-17
5990.7349 5.05242e-17
5991.8911 5.24557e-17
5993.0474 5.07775e-17
5994.2041 6.00699e-17
5995.3604 5.26174e-17
5996.5171 5.4146e-17
5997.6733 5.54741e-17
5998.8301 5.08443e-17
5999.9863 5.60452e-17
6001.1431 4.65946e-17
6002.2998 4.73392e-17
6003.4565 5.29816e-17
6004.6133 5.31345e-17
6005.77 5.3273e-17
6006.9268 6.21665e-17
6008.0835 5.27749e-17
6009.2407 5.31169e-17
6010.3975 4.99543e-17
6011.5542 5.77202e-17
6012.7114 5.73906e-17
6013.8682 5.11921e-17
6015.0254 5.81419e-17
6016.1826 5.52332e-17
6017.3398 5.79353e-17
6018.4966 4.62954e-17
6019.6538 6.4416e-17
6020.811 5.77518e-17
6021.9683 5.51592e-17
6023.1255 5.11559e-17
6024.2832 5.22208e-17
6025.4404 5.48092e-17
6026.5977 5.11802e-17
6027.7554 4.94943e-17
6028.9126 5.33824e-17
6030.0703 5.59096e-17
6031.228 4.72238e-17
6032.3857 5.6263e-17
6033.543 5.15782e-17
6034.7007 5.13346e-17
6035.8584 5.70799e-17
6037.0161 5.43515e-17
6038.1738 5.11845e-17
6039.332 5.76076e-17
6040.4897 5.98559e-17
6041.6475 4.99369e-17
6042.8052 5.29557e-17
6043.9634 5.51944e-17
6045.1216 5.07764e-17
6046.2793 5.56509e-17
6047.4375 5.53543e-17
6048.5957 5.50119e-17
6049.7539 5.24307e-17
6050.9121 5.82632e-17
6052.0703 5.17217e-17
6053.2285 5.19559e-17
6054.3867 5.82768e-17
6055.5449 5.41955e-17
6056.7031 5.34286e-17
6057.8618 5.2925e-17
6059.02 5.07488e-17
6060.1787 5.81267e-17
6061.3369 5.37654e-17
6062.4956 5.55393e-17
6063.6543 5.66608e-17
6064.813 5.21416e-17
6065.9712 5.7034e-17
6067.1299 5.06847e-17
6068.2886 5.24774e-17
6069.4478 5.65905e-17
6070.6064 5.39075e-17
6071.7651 5.05078e-17
6072.9238 5.872e-17
6074.083 5.06344e-17
6075.2417 5.10182e-17
6076.4009 5.04472e-17
6077.5601 5.58672e-17
6078.7188 5.14741e-17
6079.8779 5.95121e-17
6081.0371 5.77226e-17
6082.1963 5.83982e-17
6083.3555 5.4791e-17
6084.5146 5.21843e-17
6085.6738 5.50613e-17
6086.833 5.86615e-17
6087.9927 5.7103e-17
6089.1519 5.18066e-17
6090.3115 5.18189e-17
6091.4707 5.46189e-17
6092.6304 5.1324e-17
6093.7896 6.36675e-17
6094.9492 5.80664e-17
6096.1089 5.45967e-17
6097.2686 4.99933e-17
6098.4282 6.01833e-17
6099.5879 5.18573e-17
6100.7476 5.43023e-17
6101.9072 5.68814e-17
6103.0674 5.3204e-17
6104.2271 5.62106e-17
6105.3867 5.12227e-17
6106.5469 5.58081e-17
6107.7065 5.68887e-17
6108.8667 5.10293e-17
6110.0269 5.63896e-17
6111.187 6.0275e-17
6112.3467 5.40462e-17
6113.5068 5.6546e-17
6114.667 5.57615e-17
6115.8276 5.76536e-17
6116.9878 5.50884e-17
6118.1479 5.47213e-17
6119.3081 5.37033e-17
6120.4688 5.47309e-17
6121.6289 5.82935e-17
6122.7896 5.68321e-17
6123.9497 6.08042e-17
6125.1104 5.75785e-17
6126.271 5.81794e-17
6127.4316 5.08078e-17
6128.5918 5.98911e-17
6129.7529 5.77261e-17
6130.9131 5.07256e-17
6132.0742 5.46321e-17
6133.2349 5.28465e-17
6134.3955 5.70807e-17
6135.5566 5.93456e-17
6136.7173 5.28042e-17
6137.8779 6.35095e-17
6139.0391 5.37251e-17
6140.2002 6.21993e-17
6141.3608 6.34041e-17
6142.522 5.92278e-17
6143.6831 5.14427e-17
6144.8442 5.22417e-17
6146.0054 5.81317e-17
6147.1665 5.28392e-17
6148.3276 5.97114e-17
6149.4888 5.92036e-17
6150.6504 6.01916e-17
6151.8115 5.84753e-17
6152.9731 5.72604e-17
6154.1343 5.94503e-17
6155.2959 5.97941e-17
6156.4575 5.93117e-17
6157.6187 5.23652e-17
6158.7803 5.69877e-17
6159.9419 5.50213e-17
6161.1035 5.31782e-17
6162.2651 5.61811e-17
6163.4268 5.34906e-17
6164.5884 6.22534e-17
6165.7505 5.84645e-17
6166.9121 5.83623e-17
6168.0742 5.78097e-17
6169.2358 6.12994e-17
6170.3979 5.22446e-17
6171.5596 5.24785e-17
6172.7217 5.09001e-17
6173.8838 5.78204e-17
6175.0459 6.0896e-17
6176.208 5.3051e-17
6177.3701 5.30012e-17
6178.5322 5.35648e-17
6179.6943 5.72476e-17
6180.8564 5.69371e-17
6182.019 5.56726e-17
6183.1812 5.16005e-17
6184.3433 5.95072e-17
6185.5059 6.04755e-17
6186.6685 5.92221e-17
6187.8306 5.62058e-17
6188.9932 5.63013e-17
6190.1558 5.23439e-17
6191.3184 6.38899e-17
6192.481 5.57508e-17
6193.6436 5.7429e-17
6194.8062 5.7705e-17
6195.9688 5.94039e-17
6197.1318 5.56676e-17
6198.2944 6.10208e-17
6199.457 4.9455e-17
6200.6201 5.48477e-17
6201.7827 5.46285e-17
6202.9458 5.33582e-17
6204.1089 5.39198e-17
6205.2715 4.92271e-17
6206.4346 5.053e-17
6207.5977 5.46055e-17
6208.7607 5.46437e-17
6209.9238 5.12443e-17
6211.0874 5.97977e-17
6212.2505 5.16735e-17
6213.4136 5.75751e-17
6214.5767 5.75546e-17
6215.7402 5.21211e-17
6216.9038 5.05703e-17
6218.0669 5.86487e-17
6219.2305 5.48086e-17
6220.394 5.82031e-17
6221.5571 5.61793e-17
6222.7207 5.75266e-17
6223.8843 5.98875e-17
6225.0479 5.30774e-17
6226.2114 5.96493e-17
6227.3755 5.8341e-17
6228.5391 5.39754e-17
6229.7026 5.3401e-17
6230.8667 5.4981e-17
6232.0303 5.48845e-17
6233.1943 5.25988e-17
6234.3579 5.2106e-17
6235.522 5.43693e-17
6236.686 5.65451e-17
6237.8501 5.98883e-17
6239.0142 5.77816e-17
6240.1782 5.18482e-17
6241.3423 5.35878e-17
6242.5063 5.29172e-17
6243.6704 5.5101e-17
6244.8345 5.20389e-17
6245.999 5.97185e-17
6247.1631 4.93981e-17
6248.3276 5.04073e-17
6249.4917 5.56903e-17
6250.6562 5.04888e-17
6251.8208 5.35163e-17
6252.9849 5.49093e-17
6254.1494 5.37161e-17
6255.314 5.26144e-17
6256.4785 5.64318e-17
6257.6431 5.30948e-17
6258.8081 5.6001e-17
6259.9727 5.32456e-17
6261.1372 5.78455e-17
6262.3022 5.60424e-17
6263.4668 5.51056e-17
6264.6318 5.86439e-17
6265.7964 5.82756e-17
6266.9614 6.09172e-17
6268.1265 5.21143e-17
6269.2915 5.50421e-17
6270.4565 5.73006e-17
6271.6211 5.695e-17
6272.7866 5.4235e-17
6273.9517 5.6109e-17
6275.1167 4.96594e-17
6276.2817 5.61662e-17
6277.4468 5.13979e-17
6278.6123 5.24986e-17
6279.7773 5.25244e-17
6280.9429 5.28778e-17
6282.1084 5.75745e-17
6283.2734 5.48641e-17
6284.439 5.07609e-17
6285.6045 5.35174e-17
6286.77 5.56387e-17
6287.9355 5.60993e-17
6289.1011 5.72708e-17
6290.2666 5.7769e-17
6291.4321 5.71629e-17
6292.5977 5.72661e-17
6293.7637 5.32235e-17
6294.9292 4.89775e-17
6296.0952 5.43826e-17
6297.2612 5.03986e-17
6298.4268 5.10603e-17
6299.5928 5.88903e-17
6300.7588 6.21765e-17
6301.9248 4.69468e-17
6303.0908 5.76517e-17
6304.2568 5.56564e-17
6305.4229 5.23247e-17
6306.5889 5.91282e-17
6307.7549 5.24181e-17
6308.9209 5.34944e-17
6310.0874 5.63997e-17
6311.2534 5.32646e-17
6312.4199 5.57829e-17
6313.5859 5.44872e-17
6314.7524 4.95564e-17
6315.9189 5.44201e-17
6317.085 5.39616e-17
6318.2515 5.68e-17
6319.418 5.5899e-17
6320.5845 5.49923e-17
6321.751 5.55594e-17
6322.918 5.46545e-17
6324.0845 5.37523e-17
6325.251 5.49326e-17
6326.418 5.55866e-17
6327.5845 5.65188e-17
6328.7515 5.59286e-17
6329.918 5.44847e-17
6331.085 5.67358e-17
6332.252 5.52614e-17
6333.4185 5.68984e-17
6334.5854 6.48411e-17
6335.7524 4.90437e-17
6336.9194 5.36201e-17
6338.0869 5.7135e-17
6339.2539 5.91896e-17
6340.4209 5.40212e-17
6341.5879 5.65147e-17
6342.7554 6.18024e-17
6343.9224 5.24764e-17
6345.0898 5.93919e-17
6346.2568 5.67916e-17
6347.4243 5.16002e-17
6348.5918 6.11527e-17
6349.7593 5.81294e-17
6350.9263 5.63751e-17
6352.0942 5.4137e-17
6353.2617 5.68245e-17
6354.4292 5.91739e-17
6355.5967 5.40252e-17
6356.7642 6.06823e-17
6357.9321 5.21516e-17
6359.0996 5.39778e-17
6360.2671 6.06433e-17
6361.4351 4.78297e-17
6362.603 5.57424e-17
6363.7705 5.22692e-17
6364.9385 4.8627e-17
6366.1064 5.52615e-17
6367.2744 5.23183e-17
6368.4424 5.4845e-17
6369.6104 5.3645e-17
6370.7783 5.41966e-17
6371.9463 5.57825e-17
6373.1143 5.38435e-17
6374.2827 5.58274e-17
6375.4507 5.99259e-17
6376.6191 5.10058e-17
6377.7871 5.56637e-17
6378.9556 5.44438e-17
6380.1235 5.36349e-17
6381.292 5.1615e-17
6382.4604 5.32713e-17
6383.6289 5.71933e-17
6384.7974 5.10543e-17
6385.9658 5.30974e-17
6387.1343 5.47e-17
6388.3027 5.28089e-17
6389.4717 5.07788e-17
6390.6401 5.43846e-17
6391.8086 4.92306e-17
6392.9775 5.60298e-17
6394.146 5.25036e-17
6395.3149 5.42444e-17
6396.4839 5.19724e-17
6397.6523 5.49091e-17
6398.8213 5.51653e-17
6399.9902 5.22432e-17
6401.1592 4.70674e-17
6402.3281 5.75868e-17
6403.4971 5.19071e-17
6404.666 5.35859e-17
6405.8354 5.1924e-17
6407.0044 5.47088e-17
6408.1733 5.5547e-17
6409.3428 4.81097e-17
6410.5117 5.31888e-17
6411.6812 4.93718e-17
6412.8506 5.22227e-17
6414.0195 4.91944e-17
6415.189 5.00569e-17
6416.3584 5.55603e-17
6417.5278 5.02684e-17
6418.6973 5.08301e-17
6419.8667 5.48186e-17
6421.0361 5.07099e-17
6422.2061 5.41989e-17
6423.3755 5.65241e-17
6424.5449 5.48417e-17
6425.7148 5.43111e-17
6426.8843 5.08676e-17
6428.0542 5.45285e-17
6429.2241 5.0805e-17
6430.3936 4.95016e-17
6431.5635 5.21645e-17
6432.7334 4.97841e-17
6433.9033 5.24134e-17
6435.0732 5.01731e-17
6436.2432 5.48819e-17
6437.4131 5.28063e-17
6438.583 5.53375e-17
6439.7534 5.555e-17
6440.9233 5.4017e-17
6442.0933 5.36115e-17
6443.2637 5.02182e-17
6444.4341 5.43834e-17
6445.604 5.20609e-17
6446.7744 4.88795e-17
6447.9448 5.25771e-17
6449.1152 4.86094e-17
6450.2852 5.42243e-17
6451.4556 5.27454e-17
6452.6265 5.14619e-17
6453.7969 5.01973e-17
6454.9673 5.04305e-17
6456.1377 5.28041e-17
6457.3086 5.53049e-17
6458.479 5.2946e-17
6459.6494 5.18393e-17
6460.8203 5.44769e-17
6461.9912 5.55476e-17
6463.1616 5.20909e-17
6464.3325 5.80774e-17
6465.5034 5.36157e-17
6466.6743 5.04455e-17
6467.8452 5.55707e-17
6469.0161 5.19692e-17
6470.187 5.62433e-17
6471.3579 5.39353e-17
6472.5288 5.38531e-17
6473.7002 4.73529e-17
6474.8711 5.22517e-17
6476.042 5.61236e-17
6477.2134 5.38512e-17
6478.3848 5.65443e-17
6479.5557 4.57013e-17
6480.7271 5.50778e-17
6481.8984 5.11922e-17
6483.0698 4.78721e-17
6484.2412 4.90195e-17
6485.4126 4.78452e-17
6486.584 5.02454e-17
6487.7554 5.61792e-17
6488.9268 4.91267e-17
6490.0981 5.19117e-17
6491.27 4.97199e-17
6492.4414 5.02059e-17
6493.6133 4.54615e-17
6494.7847 4.82697e-17
6495.9565 5.01945e-17
6497.1284 5.13935e-17
6498.2998 5.14747e-17
6499.4717 4.74045e-17
6500.6436 4.8613e-17
6501.8154 4.94018e-17
6502.9873 4.8591e-17
6504.1592 5.48441e-17
6505.3311 4.455e-17
6506.5034 4.4944e-17
6507.6753 5.05037e-17
6508.8472 5.20835e-17
6510.0195 4.79624e-17
6511.1914 4.67799e-17
6512.3638 5.3771e-17
6513.5361 4.83608e-17
6514.708 4.87332e-17
6515.8804 4.99131e-17
6517.0527 4.75396e-17
6518.2251 4.74142e-17
6519.3975 4.47466e-17
6520.5698 4.4872e-17
6521.7422 4.52148e-17
6522.9146 5.16683e-17
6524.0869 4.12185e-17
6525.2598 5.01753e-17
6526.4321 4.76147e-17
6527.605 4.99497e-17
6528.7773 4.72635e-17
6529.9502 4.1106e-17
6531.1226 4.7322e-17
6532.2954 4.25348e-17
6533.4683 4.32792e-17
6534.6411 4.4063e-17
6535.814 4.459e-17
6536.9868 4.1988e-17
6538.1597 4.62409e-17
6539.3325 4.38917e-17
6540.5054 4.26172e-17
6541.6787 4.37856e-17
6542.8516 3.95743e-17
6544.0244 4.11473e-17
6545.1978 4.49116e-17
6546.3711 4.2942e-17
6547.5439 4.10612e-17
6548.7173 4.44246e-17
6549.8906 4.29813e-17
6551.0635 4.10701e-17
6552.2368 3.90592e-17
6553.4102 4.27399e-17
6554.5835 4.11147e-17
6555.7568 4.4458e-17
6556.9307 4.59285e-17
6558.104 4.25603e-17
6559.2773 4.12163e-17
6560.4507 3.87862e-17
6561.6245 3.97048e-17
6562.7983 4.15814e-17
6563.9717 4.21381e-17
6565.1455 3.64992e-17
6566.3188 3.95665e-17
6567.4927 4.3951e-17
6568.6665 3.41659e-17
6569.8403 4.26544e-17
6571.0142 4.2424e-17
6572.188 4.00979e-17
6573.3618 3.9797e-17
6574.5356 3.80942e-17
6575.7095 4.22895e-17
6576.8838 4.26015e-17
6578.0576 3.96291e-17
6579.2319 4.21493e-17
6580.4058 4.22919e-17
6581.5801 3.96154e-17
6582.7539 3.74972e-17
6583.9282 3.66203e-17
6585.1025 3.61607e-17
6586.2764 4.1899e-17
6587.4507 3.88296e-17
6588.625 3.91568e-17
6589.7993 4.16768e-17
6590.9741 4.0062e-17
6592.1484 4.09026e-17
6593.3228 3.83982e-17
6594.4971 4.2099e-17
6595.6719 3.79015e-17
6596.8462 3.99929e-17
6598.021 3.69983e-17
6599.1953 3.92424e-17
6600.3701 3.7432e-17
6601.5449 4.33611e-17
6602.7192 3.87165e-17
6603.894 4.39763e-17
6605.0688 4.04058e-17
6606.2437 3.84213e-17
6607.4185 3.77575e-17
6608.5933 3.74551e-17
6609.7681 3.71993e-17
6610.9429 4.41364e-17
6612.1182 3.90789e-17
6613.293 3.89501e-17
6614.4683 3.81137e-17
6615.6431 3.92876e-17
6616.8184 3.88914e-17
6617.9932 4.04233e-17
6619.1685 3.79078e-17
6620.3438 3.78408e-17
6621.519 4.44079e-17
6622.6943 4.18024e-17
6623.8691 3.99457e-17
6625.0449 3.46668e-17
6626.2202 4.42413e-17
6627.3955 3.64986e-17
6628.5708 3.76765e-17
6629.7461 3.88206e-17
6630.9214 3.7809e-17
6632.0972 4.44472e-17
6633.2725 3.78111e-17
6634.4482 4.2563e-17
6635.624 3.60619e-17
6636.7993 3.66289e-17
6637.9751 4.11794e-17
6639.1509 3.71153e-17
6640.3267 3.73474e-17
6641.5024 3.56547e-17
6642.6782 3.96607e-17
6643.854 3.66686e-17
6645.0298 3.62173e-17
6646.2056 3.53329e-17
6647.3813 3.87188e-17
6648.5576 3.39691e-17
6649.7334 3.62827e-17
6650.9092 3.927e-17
6652.0854 3.71195e-17
6653.2617 3.43337e-17
6654.4375 3.40585e-17
6655.6138 3.78749e-17
6656.79 3.81512e-17
6657.9663 3.69047e-17
6659.1421 4.22297e-17
6660.3184 4.076e-17
6661.4946 3.89366e-17
6662.6714 3.87619e-17
6663.8477 4.05115e-17
6665.0239 3.96225e-17
6666.2002 3.47918e-17
6667.3765 3.65517e-17
6668.5532 4.26545e-17
6669.7295 4.1243e-17
6670.9062 4.01818e-17
6672.083 4.22656e-17
6673.2593 4.09627e-17
6674.436 4.11239e-17
6675.6128 3.39521e-17
6676.7896 3.69678e-17
6677.9663 4.10146e-17
6679.1431 4.07443e-17
6680.3198 4.27268e-17
6681.4966 4.30376e-17
6682.6733 4.17854e-17
6683.8501 4.15753e-17
6685.0273 4.07731e-17
6686.2041 4.12114e-17
6687.3809 4.26801e-17
6688.5581 4.03393e-17
6689.7354 3.97447e-17
6690.9121 4.22004e-17
6692.0894 4.09735e-17
6693.2666 3.7954e-17
6694.4434 4.29825e-17
6695.6206 4.4569e-17
6696.7983 3.62019e-17
6697.9751 4.33481e-17
6699.1528 4.09713e-17
6700.3301 3.903e-17
6701.5073 4.07795e-17
6702.6846 4.33864e-17
6703.8623 5.00338e-17
6705.0396 3.991e-17
6706.2168 4.18108e-17
6707.3945 4.1229e-17
6708.5718 4.23815e-17
6709.7495 4.46274e-17
6710.9272 4.66582e-17
6712.105 4.12883e-17
6713.2827 4.14425e-17
6714.46 3.95818e-17
6715.6377 4.3496e-17
6716.8154 4.54386e-17
6717.9932 4.78689e-17
6719.1714 4.58947e-17
6720.3491 4.79421e-17
6721.5269 4.53942e-17
6722.7051 4.9042e-17
6723.8828 4.21854e-17
6725.061 4.50931e-17
6726.2388 4.53363e-17
6727.417 4.55574e-17
6728.5947 4.08722e-17
6729.7729 4.75955e-17
6730.9512 4.84999e-17
6732.1294 4.20433e-17
6733.3076 4.80931e-17
6734.4858 4.88851e-17
6735.6636 4.76263e-17
6736.8423 4.65451e-17
6738.0205 4.01769e-17
6739.1987 4.40211e-17
6740.377 4.31083e-17
6741.5557 3.91574e-17
6742.7339 4.51955e-17
6743.9126 4.54969e-17
6745.0908 4.74948e-17
6746.2695 4.60512e-17
6747.4478 4.34757e-17
6748.6265 4.53058e-17
6749.8052 4.41253e-17
6750.9839 4.54323e-17
6752.1626 4.54963e-17
6753.3413 4.32576e-17
6754.52 4.51754e-17
6755.6987 4.87973e-17
6756.8774 4.92154e-17
6758.0562 4.97074e-17
6759.2349 4.44436e-17
6760.4141 4.30721e-17
6761.5928 4.7249e-17
6762.772 4.52528e-17
6763.9507 4.4294e-17
6765.1299 5.03075e-17
6766.3086 4.72293e-17
6767.4878 4.64087e-17
6768.667 4.4322e-17
6769.8462 4.67563e-17
6771.0254 4.59538e-17
6772.2046 4.42682e-17
6773.3838 4.49427e-17
6774.563 4.70898e-17
6775.7422 4.73781e-17
6776.9214 4.46932e-17
6778.1006 4.16311e-17
6779.2803 4.49624e-17
6780.4595 4.73602e-17
6781.6387 4.77551e-17
6782.8184 4.67256e-17
6783.998 4.70549e-17
6785.1772 4.95454e-17
6786.3569 4.73363e-17
6787.5366 4.60683e-17
6788.7163 4.79738e-17
6789.8955 4.69288e-17
6791.0752 4.59801e-17
6792.2549 4.62387e-17
6793.4346 4.42859e-17
6794.6143 5.26529e-17
6795.7944 4.67828e-17
6796.9741 4.33618e-17
6798.1538 4.7769e-17
6799.334 4.22269e-17
6800.5137 4.53234e-17
6801.6934 4.93865e-17
6802.8735 5.04824e-17
6804.0537 4.91747e-17
6805.2334 4.69233e-17
6806.4136 4.63959e-17
6807.5938 4.65214e-17
6808.7739 4.61263e-17
6809.9541 4.39612e-17
6811.1343 4.58078e-17
6812.3145 4.76572e-17
6813.4946 4.55641e-17
6814.6748 4.68674e-17
6815.855 4.64839e-17
6817.0352 5.14724e-17
6818.2158 4.98729e-17
6819.396 5.24036e-17
6820.5762 5.10956e-17
6821.7568 4.84184e-17
6822.9375 4.80064e-17
6824.1177 4.9076e-17
6825.2983 4.41849e-17
6826.479 4.89829e-17
6827.6592 4.56833e-17
6828.8398 4.62128e-17
6830.0205 5.19071e-17
6831.2012 5.05361e-17
6832.3818 5.01726e-17
6833.5625 4.91436e-17
6834.7437 4.89239e-17
6835.9243 4.73768e-17
6837.105 4.73894e-17
6838.2861 4.49599e-17
6839.4668 4.67576e-17
6840.6475 4.98827e-17
6841.8286 4.66529e-17
6843.0093 4.63963e-17
6844.1904 4.90574e-17
6845.3716 5.08329e-17
6846.5527 4.37716e-17
6847.7334 4.71879e-17
6848.9146 4.73974e-17
6850.0957 4.17142e-17
6851.2769 4.98119e-17
6852.458 4.93718e-17
6853.6392 5.02548e-17
6854.8208 5.06135e-17
6856.002 4.59627e-17
6857.1831 5.02485e-17
6858.3643 4.52667e-17
6859.5459 4.47941e-17
6860.7271 4.65399e-17
6861.9087 4.70757e-17
6863.0903 4.93222e-17
6864.2715 4.89772e-17
6865.4531 4.61288e-17
6866.6348 4.56528e-17
6867.8159 4.24608e-17
6868.9976 4.46453e-17
6870.1792 5.16349e-17
6871.3608 4.50588e-17
6872.5425 4.67756e-17
6873.7246 4.63663e-17
6874.9062 4.13576e-17
6876.0879 4.43959e-17
6877.2695 4.92348e-17
6878.4512 4.91078e-17
6879.6333 4.28825e-17
6880.8149 4.92053e-17
6881.9971 4.27923e-17
6883.1792 4.89391e-17
6884.3608 4.46744e-17
6885.543 4.74123e-17
6886.7251 4.11784e-17
6887.9072 4.31863e-17
6889.0889 4.60409e-17
6890.271 3.94948e-17
6891.4531 4.16769e-17
6892.6353 4.21341e-17
6893.8174 4.64145e-17
6895.0 4.65094e-17
6896.1821 4.5158e-17
6897.3643 4.46762e-17
6898.5464 4.44069e-17
6899.729 4.50006e-17
6900.9111 4.74448e-17
6902.0938 4.67647e-17
6903.2759 4.6256e-17
6904.4585 4.01143e-17
6905.6411 4.94514e-17
6906.8232 4.08844e-17
6908.0059 4.59221e-17
6909.1885 4.38216e-17
6910.3711 4.24494e-17
6911.5537 4.53137e-17
6912.7363 4.4409e-17
6913.9189 4.51279e-17
6915.1016 4.21512e-17
6916.2842 4.48362e-17
6917.4673 4.06765e-17
6918.6499 4.16082e-17
6919.8325 4.49589e-17
6921.0156 4.24289e-17
6922.1982 4.44328e-17
6923.3813 4.20131e-17
6924.564 4.12899e-17
6925.7471 4.56709e-17
6926.9302 4.93901e-17
6928.1133 4.53189e-17
6929.2959 4.37768e-17
6930.479 4.33339e-17
6931.6621 4.24016e-17
6932.8452 4.58522e-17
6934.0283 4.30774e-17
6935.2114 4.65646e-17
6936.395 4.06803e-17
6937.5781 4.22983e-17
6938.7612 4.59364e-17
6939.9443 4.39297e-17
6941.1279 4.28876e-17
6942.311 4.43939e-17
6943.4946 4.174e-17
6944.6777 4.38179e-17
6945.8613 4.1696e-17
6947.0449 4.35799e-17
6948.228 4.504e-17
6949.4116 4.90221e-17
6950.5952 4.26973e-17
6951.7788 4.5442e-17
6952.9624 4.22899e-17
6954.146 4.54928e-17
6955.3296 4.17361e-17
6956.5132 4.15763e-17
6957.6968 4.77163e-17
6958.8804 4.61463e-17
6960.0645 4.6038e-17
6961.248 4.45745e-17
6962.4321 4.27314e-17
6963.6157 4.51312e-17
6964.7993 3.96712e-17
6965.9834 4.58817e-17
6967.1675 4.57867e-17
6968.3511 4.54703e-17
6969.5352 4.092e-17
6970.7192 4.29637e-17
6971.9033 4.34209e-17
6973.0874 4.19756e-17
6974.2715 4.64059e-17
6975.4556 3.87109e-17
6976.6396 4.50355e-17
6977.8237 4.85399e-17
6979.0078 4.21351e-17
6980.1919 4.13054e-17
6981.376 4.00717e-17
6982.5605 4.48418e-17
6983.7446 4.57879e-17
6984.9292 4.413e-17
6986.1133 3.98766e-17
6987.2979 3.52716e-17
6988.4819 3.81493e-17
6989.6665 4.31065e-17
6990.8511 3.96554e-17
6992.0352 4.12192e-17
6993.2197 3.65852e-17
6994.4043 3.99895e-17
6995.5889 4.2216e-17
6996.7734 3.99136e-17
6997.958 4.25039e-17
6999.1426 4.42145e-17
7000.3276 4.02196e-17
7001.5122 4.1e-17
7002.6968 3.85755e-17
7003.8818 4.3639e-17
7005.0664 3.8775e-17
7006.251 3.96954e-17
7007.436 4.11852e-17
7008.6206 4.0867e-17
7009.8057 3.90916e-17
7010.9907 4.17384e-17
7012.1753 4.34851e-17
7013.3604 4.32084e-17
7014.5454 4.11257e-17
7015.7305 4.15923e-17
7016.9155 3.75181e-17
7018.1006 4.19097e-17
7019.2856 3.90028e-17
7020.4707 4.09582e-17
7021.6558 4.21339e-17
7022.8408 4.35562e-17
7024.0259 4.15895e-17
7025.2114 3.82866e-17
7026.3965 3.91905e-17
7027.582 3.52371e-17
7028.7671 3.80629e-17
7029.9526 4.05361e-17
7031.1377 3.7688e-17
7032.3232 4.32568e-17
7033.5083 4.13912e-17
7034.6938 4.01983e-17
7035.8794 4.54652e-17
7037.0649 3.87715e-17
7038.2505 4.00429e-17
7039.436 3.79673e-17
7040.6216 4.08346e-17
7041.8071 4.12374e-17
7042.9927 4.17392e-17
7044.1782 4.14408e-17
7045.3638 4.64582e-17
7046.5498 4.29333e-17
7047.7354 4.1949e-17
7048.9209 3.54232e-17
7050.1069 4.10409e-17
7051.2925 3.95406e-17
7052.4785 4.48651e-17
7053.6641 4.02486e-17
7054.8501 4.34975e-17
7056.0361 3.87425e-17
7057.2217 4.1839e-17
7058.4077 3.77645e-17
7059.5938 4.42614e-17
7060.7798 3.79783e-17
7061.9658 4.26985e-17
7063.1519 3.92179e-17
7064.3379 4.18874e-17
7065.5239 4.22916e-17
7066.71 4.15133e-17
7067.8965 4.32889e-17
7069.0825 3.94537e-17
7070.2686 4.34723e-17
7071.4546 4.04748e-17
7072.6411 4.06467e-17
7073.8276 4.43879e-17
7075.0137 4.26275e-17
7076.2002 3.92111e-17
7077.3862 4.27325e-17
7078.5728 4.00155e-17
7079.7593 4.1913e-17
7080.9453 3.86045e-17
7082.1318 3.80559e-17
7083.3184 4.55679e-17
7084.5049 4.03038e-17
7085.6914 3.86564e-17
7086.8779 3.92072e-17
7088.0645 3.94972e-17
7089.251 3.7547e-17
7090.438 3.93187e-17
7091.6245 4.32094e-17
7092.811 4.0569e-17
7093.998 3.94166e-17
7095.1846 4.53527e-17
7096.3716 3.96153e-17
7097.5581 4.30627e-17
7098.7451 4.24776e-17
7099.9316 4.45321e-17
7101.1187 3.75106e-17
7102.3057 4.07445e-17
7103.4927 4.04541e-17
7104.6792 4.07863e-17
7105.8662 4.28278e-17
7107.0532 4.10152e-17
7108.2402 3.79274e-17
7109.4272 4.21313e-17
7110.6143 4.13988e-17
7111.8013 4.02458e-17
7112.9888 3.88625e-17
7114.1758 4.02149e-17
7115.3628 3.91856e-17
7116.5503 4.18159e-17
7117.7373 4.07216e-17
7118.9248 4.22559e-17
7120.1118 3.88641e-17
7121.2993 3.82134e-17
7122.4863 3.78046e-17
7123.6738 3.83303e-17
7124.8613 3.98176e-17
7126.0483 3.9148e-17
7127.2358 3.60484e-17
7128.4233 3.66356e-17
7129.6108 4.11473e-17
7130.7983 3.55799e-17
7131.9858 3.91615e-17
7133.1733 4.46404e-17
7134.3608 3.7628e-17
7135.5483 3.90373e-17
7136.7358 4.16383e-17
7137.9238 3.49808e-17
7139.1113 3.62451e-17
7140.2988 3.70861e-17
7141.4868 3.81234e-17
7142.6743 4.11195e-17
7143.8623 4.28237e-17
7145.0498 4.36478e-17
7146.2378 4.04761e-17
7147.4258 3.76572e-17
7148.6133 4.01589e-17
7149.8013 3.8926e-17
7150.9893 3.94141e-17
7152.1772 3.92401e-17
7153.3652 3.6787e-17
7154.5532 3.93833e-17
7155.7412 3.62233e-17
7156.9292 3.52652e-17
7158.1172 3.61982e-17
7159.3052 4.0277e-17
7160.4932 3.56183e-17
7161.6816 3.94247e-17
7162.8696 3.74982e-17
7164.0576 4.17581e-17
7165.2461 4.01645e-17
7166.4341 3.98288e-17
7167.6226 3.49151e-17
7168.8105 4.1545e-17
7169.999 4.03138e-17
7171.187 4.14488e-17
7172.3755 4.10034e-17
7173.564 4.17184e-17
7174.7524 4.00907e-17
7175.9409 4.40275e-17
7177.1289 3.52151e-17
7178.3174 3.88459e-17
7179.5059 4.1197e-17
7180.6948 3.88371e-17
7181.8833 3.91896e-17
7183.0718 3.70664e-17
7184.2603 4.21828e-17
7185.4487 3.93155e-17
7186.6377 3.92913e-17
7187.8262 3.78642e-17
7189.0146 3.7177e-17
7190.2036 3.89205e-17
7191.3921 3.85911e-17
7192.5811 3.79045e-17
7193.7695 4.10872e-17
7194.9585 3.76588e-17
7196.1475 3.96968e-17
7197.3364 4.08582e-17
7198.5249 3.67253e-17
7199.7139 3.65056e-17
7200.9028 4.08618e-17
7202.0918 3.65955e-17
7203.2808 3.73817e-17
7204.4697 3.57533e-17
7205.6587 3.91521e-17
7206.8477 3.94127e-17
7208.0366 3.83154e-17
7209.2256 3.9662e-17
7210.415 3.73561e-17
7211.604 3.57664e-17
7212.793 4.11313e-17
7213.9824 4.10928e-17
7215.1714 3.64519e-17
7216.3608 4.19203e-17
7217.5498 3.87778e-17
7218.7393 3.87215e-17
7219.9287 3.49326e-17
7221.1177 3.78155e-17
7222.3071 3.56714e-17
7223.4966 3.60373e-17
7224.686 3.24489e-17
7225.8755 3.54129e-17
7227.0649 3.51736e-17
7228.2544 3.72125e-17
7229.4438 3.58731e-17
7230.6333 3.59464e-17
7231.8228 3.61315e-17
7233.0122 3.90618e-17
7234.2017 3.47499e-17
7235.3916 3.62671e-17
7236.5811 3.68316e-17
7237.7705 3.79587e-17
7238.9604 3.54573e-17
7240.1499 3.82378e-17
7241.3398 3.34508e-17
7242.5293 4.04214e-17
7243.7192 3.28962e-17
7244.9087 3.46959e-17
7246.0986 3.72601e-17
7247.2886 3.64133e-17
7248.4785 3.80389e-17
7249.6685 3.54457e-17
7250.8579 3.71941e-17
7252.0479 3.23584e-17
7253.2378 3.72964e-17
7254.4277 3.69886e-17
7255.6177 3.87644e-17
7256.8081 3.53608e-17
7257.998 3.63018e-17
7259.188 3.93463e-17
7260.3779 3.49016e-17
7261.5684 4.15272e-17
7262.7583 3.75507e-17
7263.9482 4.12655e-17
7265.1387 3.74893e-17
7266.3286 3.63849e-17
7267.519 3.72845e-17
7268.709 3.76789e-17
7269.8994 3.68185e-17
7271.0898 3.95368e-17
7272.2798 3.16667e-17
7273.4702 3.38773e-17
7274.6606 4.04236e-17
7275.8511 4.04907e-17
7277.0415 3.30923e-17
7278.2319 3.09892e-17
7279.4224 3.79975e-17
7280.6128 3.73396e-17
7281.8032 3.05607e-17
7282.9937 3.29683e-17
7284.1841 3.75475e-17
7285.375 3.67223e-17
7286.5654 3.46812e-17
7287.7559 4.21721e-17
7288.9463 3.26782e-17
7290.1372 3.75474e-17
7291.3276 3.48244e-17
7292.5186 3.73122e-17
7293.709 3.83653e-17
7294.8999 3.74826e-17
7296.0908 3.2538e-17
7297.2812 3.61191e-17
7298.4722 3.5383e-17
7299.6631 3.22969e-17
7300.854 3.29946e-17
7302.0449 4.03847e-17
7303.2358 3.73441e-17
7304.4263 3.65059e-17
7305.6172 3.72953e-17
7306.8086 3.54399e-17
7307.9995 3.6846e-17
7309.1904 3.64815e-17
7310.3813 4.15156e-17
7311.5723 3.70058e-17
7312.7632 3.96465e-17
7313.9546 4.23555e-17
7315.1455 3.70394e-17
7316.3369 3.61879e-17
7317.5278 3.81956e-17
7318.7192 3.77346e-17
7319.9102 3.75355e-17
7321.1016 4.01664e-17
7322.2925 3.90319e-17
7323.4839 3.62339e-17
7324.6753 3.34837e-17
7325.8667 3.91765e-17
7327.0576 3.40054e-17
7328.249 3.95778e-17
7329.4404 3.69735e-17
7330.6318 3.71246e-17
7331.8232 3.74968e-17
7333.0146 3.8953e-17
7334.2061 3.8573e-17
7335.3975 3.33676e-17
7336.5889 3.80511e-17
7337.7808 3.39097e-17
7338.9722 4.23742e-17
7340.1636 3.61923e-17
7341.3555 3.66786e-17
7342.5469 3.8847e-17
7343.7383 3.85702e-17
7344.9302 3.69502e-17
7346.1216 3.70946e-17
7347.3135 3.8583e-17
7348.5054 4.05614e-17
7349.6968 3.81607e-17
7350.8887 3.92461e-17
7352.0806 3.93054e-17
7353.272 3.26468e-17
7354.4639 3.77176e-17
7355.6558 3.97835e-17
7356.8477 4.16139e-17
7358.0396 3.61377e-17
7359.2314 4.25388e-17
7360.4233 3.77388e-17
7361.6152 3.74439e-17
7362.8071 3.95351e-17
7363.9995 3.8875e-17
7365.1914 4.21737e-17
7366.3833 4.16456e-17
7367.5752 3.97528e-17
7368.7676 3.9752e-17
7369.9595 3.66421e-17
7371.1519 4.26782e-17
7372.3438 3.85703e-17
7373.5361 3.96913e-17
7374.728 3.9951e-17
7375.9204 4.00231e-17
7377.1123 3.91153e-17
7378.3047 3.93119e-17
7379.4971 4.03444e-17
7380.6895 4.14452e-17
7381.8818 4.09303e-17
7383.0737 3.95981e-17
7384.2661 3.81047e-17
7385.4585 3.95903e-17
7386.6509 4.08993e-17
7387.8433 3.70041e-17
7389.0356 4.37211e-17
7390.2285 4.01738e-17
7391.4209 4.20144e-17
7392.6133 3.96164e-17
7393.8057 3.93292e-17
7394.9985 4.20942e-17
7396.1909 4.38324e-17
7397.3833 3.98586e-17
7398.5762 3.93615e-17
7399.7686 3.87017e-17
7400.9614 3.73088e-17
7402.1538 4.30586e-17
7403.3467 3.91475e-17
7404.5391 4.32187e-17
7405.7319 3.72539e-17
7406.9248 3.566e-17
7408.1172 3.82874e-17
7409.3101 4.01807e-17
7410.5029 3.78884e-17
7411.6958 4.13073e-17
7412.8887 4.27896e-17
7414.0815 4.09702e-17
7415.2744 3.58024e-17
7416.4673 3.78275e-17
7417.6602 4.19978e-17
7418.853 4.13667e-17
7420.0459 4.34335e-17
7421.2393 3.75206e-17
7422.4321 4.22824e-17
7423.625 3.97527e-17
7424.8179 3.88849e-17
7426.0112 3.73438e-17
7427.2041 3.52667e-17
7428.3975 3.79955e-17
7429.5903 3.8853e-17
7430.7837 3.70673e-17
7431.9766 3.83872e-17
7433.1699 3.93319e-17
7434.3633 4.29643e-17
7435.5566 4.14962e-17
7436.7495 3.86555e-17
7437.9429 3.89716e-17
7439.1362 3.56658e-17
7440.3296 4.05068e-17
7441.5229 3.71593e-17
7442.7163 4.06671e-17
7443.9097 3.79709e-17
7445.103 3.89556e-17
7446.2964 3.44432e-17
7447.4897 3.98274e-17
7448.6831 3.94075e-17
7449.8765 4.06641e-17
7451.0703 3.9934e-17
7452.2637 3.86192e-17
7453.457 4.3039e-17
7454.6509 4.04073e-17
7455.8442 3.99609e-17
7457.0376 3.98544e-17
7458.2314 3.75962e-17
7459.4248 4.14845e-17
7460.6187 3.68667e-17
7461.8125 3.86267e-17
7463.0059 3.89831e-17
7464.1997 4.08786e-17
7465.3936 3.61565e-17
7466.5874 3.45142e-17
7467.7808 3.70658e-17
7468.9746 3.70598e-17
7470.1685 3.76774e-17
7471.3623 3.85718e-17
7472.5562 3.76418e-17
7473.75 3.82201e-17
7474.9438 3.60075e-17
7476.1377 3.38346e-17
7477.3315 3.80925e-17
7478.5254 3.76625e-17
7479.7197 4.03962e-17
7480.9136 3.82235e-17
7482.1074 3.72816e-17
7483.3018 3.7283e-17
7484.4956 3.85786e-17
7485.6895 4.02757e-17
7486.8838 3.76444e-17
7488.0776 3.4758e-17
7489.272 3.62965e-17
7490.4658 3.47275e-17
7491.6602 3.65894e-17
7492.8545 3.54387e-17
7494.0483 3.98716e-17
7495.2427 3.63736e-17
7496.437 3.76107e-17
7497.6313 3.72093e-17
7498.8257 3.84447e-17
7500.0195 3.66564e-17
7501.2139 3.73003e-17
7502.4082 4.10546e-17
7503.6025 3.84899e-17
7504.7969 4.06249e-17
7505.9912 3.71684e-17
7507.186 3.57765e-17
7508.3804 3.76442e-17
7509.5747 3.56085e-17
7510.769 3.77435e-17
7511.9634 3.77777e-17
7513.1582 3.4715e-17
7514.3525 4.04299e-17
7515.5469 3.66142e-17
7516.7417 3.80178e-17
7517.936 3.66679e-17
7519.1309 3.76228e-17
7520.3252 3.48161e-17
7521.52 3.92074e-17
7522.7148 4.06099e-17
7523.9092 3.94459e-17
7525.104 3.64465e-17
7526.2988 3.93607e-17
7527.4932 4.17945e-17
7528.688 3.81918e-17
7529.8828 3.63834e-17
7531.0776 3.73473e-17
7532.2725 3.92819e-17
7533.4673 3.84296e-17
7534.6621 3.64392e-17
7535.8569 3.71666e-17
7537.0518 4.00202e-17
7538.2466 3.39694e-17
7539.4414 3.66431e-17
7540.6367 3.83606e-17
7541.8315 3.63172e-17
7543.0264 3.65845e-17
7544.2212 4.07268e-17
7545.4165 3.47122e-17
7546.6113 3.36133e-17
7547.8066 3.49978e-17
7549.0015 3.55451e-17
7550.1963 3.79498e-17
7551.3916 3.33644e-17
7552.5869 3.47151e-17
7553.7817 4.03502e-17
7554.9771 3.55505e-17
7556.1719 3.74297e-17
7557.3672 3.84022e-17
7558.5625 3.58646e-17
7559.7578 3.89554e-17
7560.9531 3.64283e-17
7562.1484 3.64803e-17
7563.3433 3.86816e-17
7564.5386 3.80707e-17
7565.7339 3.75189e-17
7566.9292 3.52675e-17
7568.1245 3.68981e-17
7569.3203 3.29161e-17
7570.5156 3.59081e-17
7571.7109 3.66732e-17
7572.9062 3.75042e-17
7574.1016 3.52212e-17
7575.2969 3.4155e-17
7576.4927 3.93346e-17
7577.688 3.86235e-17
7578.8838 3.73836e-17
7580.0791 3.86776e-17
7581.2744 3.98964e-17
7582.4702 4.11502e-17
7583.666 3.96311e-17
7584.8613 3.61267e-17
7586.0571 4.01203e-17
7587.2524 4.03876e-17
7588.4482 3.44738e-17
7589.644 4.22513e-17
7590.8398 4.01921e-17
7592.0352 3.86919e-17
7593.231 3.68551e-17
7594.4268 3.89576e-17
7595.6226 4.00496e-17
7596.8184 3.23632e-17
7598.0142 3.47239e-17
7599.21 3.93465e-17
7600.4058 3.72131e-17
7601.6016 4.02562e-17
7602.7974 3.66042e-17
7603.9932 3.68119e-17
7605.189 4.29954e-17
7606.3848 3.63221e-17
7607.5811 3.98726e-17
7608.7769 4.08768e-17
7609.9727 3.29113e-17
7611.1689 3.86626e-17
7612.3647 4.31621e-17
7613.561 3.50763e-17
7614.7568 3.57567e-17
7615.9531 4.07929e-17
7617.1489 3.98422e-17
7618.3452 3.89859e-17
7619.541 3.99301e-17
7620.7373 3.93979e-17
7621.9336 3.595e-17
7623.1294 3.98575e-17
7624.3257 3.6042e-17
7625.522 3.16302e-17
7626.7183 4.37422e-17
7627.9141 4.49074e-17
7629.1104 4.03869e-17
7630.3066 4.2463e-17
7631.5029 4.10252e-17
7632.6992 4.09101e-17
7633.8955 4.34131e-17
7635.0918 3.87418e-17
7636.2881 3.53831e-17
7637.4849 3.97964e-17
7638.6812 3.7073e-17
7639.8774 4.49313e-17
7641.0737 4.56606e-17
7642.2705 4.36623e-17
7643.4668 3.78155e-17
7644.6631 4.15929e-17
7645.8594 4.57299e-17
7647.0562 4.46442e-17
7648.2524 4.58362e-17
7649.4492 4.4377e-17
7650.6455 3.79082e-17
7651.8423 3.91638e-17
7653.0386 3.96271e-17
7654.2354 4.04099e-17
7655.4321 3.82527e-17
7656.6284 4.19006e-17
7657.8252 4.00264e-17
7659.022 4.21628e-17
7660.2188 4.1378e-17
7661.4155 3.82619e-17
7662.6118 4.18295e-17
7663.8086 4.03931e-17
7665.0054 4.06298e-17
7666.2021 3.94358e-17
7667.3989 4.0207e-17
7668.5957 4.00036e-17
7669.7925 4.30691e-17
7670.9893 4.0955e-17
7672.1865 3.88262e-17
7673.3833 4.12025e-17
7674.5801 3.82294e-17
7675.7769 3.79442e-17
7676.9736 3.92146e-17
7678.1709 4.12558e-17
7679.3677 4.0824e-17
7680.5645 4.03907e-17
7681.7617 4.15366e-17
7682.9585 4.39182e-17
7684.1553 3.91149e-17
7685.3525 4.01822e-17
7686.5498 4.09503e-17
7687.7466 4.14779e-17
7688.9438 3.86688e-17
7690.1406 3.88739e-17
7691.3379 4.34978e-17
7692.5352 4.03378e-17
7693.7319 3.95735e-17
7694.9292 3.64942e-17
7696.1265 3.97791e-17
7697.3237 3.90327e-17
7698.521 4.10403e-17
7699.7178 3.98001e-17
7700.9155 4.02055e-17
7702.1123 3.93268e-17
7703.3096 3.91964e-17
7704.5068 3.84773e-17
7705.7041 4.1694e-17
7706.9014 3.98604e-17
7708.0991 4.15497e-17
7709.2964 4.11264e-17
7710.4937 4.0039e-17
7711.6909 3.4597e-17
7712.8882 3.97384e-17
7714.0859 4.60888e-17
7715.2832 3.09777e-17
7716.4805 3.62682e-17
7717.6782 4.15479e-17
7718.8755 3.57016e-17
7720.0732 3.9983e-17
7721.2705 4.02728e-17
7722.4678 3.54494e-17
7723.6655 3.94575e-17
7724.8633 3.85946e-17
7726.0605 4.19579e-17
7727.2583 3.98772e-17
7728.4556 3.58196e-17
7729.6533 4.19546e-17
7730.8511 4.15898e-17
7732.0488 3.93646e-17
7733.2461 3.96387e-17
7734.4438 3.91589e-17
7735.6416 4.0219e-17
7736.8394 3.89971e-17
7738.0371 4.08501e-17
7739.2349 4.0435e-17
7740.4326 3.87617e-17
7741.6304 4.06965e-17
7742.8281 3.99278e-17
7744.0259 3.58997e-17
7745.2236 3.86663e-17
7746.4214 3.99765e-17
7747.6191 4.11559e-17
7748.8174 4.24238e-17
7750.0151 3.81704e-17
7751.2129 3.91271e-17
7752.4106 3.40819e-17
7753.6089 3.42545e-17
7754.8066 4.02183e-17
7756.0044 3.89575e-17
7757.2026 4.13871e-17
7758.4004 3.46368e-17
7759.5986 3.45209e-17
7760.7964 3.83952e-17
7761.9946 4.20765e-17
7763.1924 3.78399e-17
7764.3906 3.97384e-17
7765.5889 3.95025e-17
7766.7866 4.09099e-17
7767.9849 4.37538e-17
7769.1831 3.5139e-17
7770.3809 3.95693e-17
7771.5791 3.93485e-17
7772.7773 3.92739e-17
7773.9756 3.84504e-17
7775.1738 3.78132e-17
7776.3721 3.98425e-17
7777.5703 3.87977e-17
7778.7681 3.5839e-17
7779.9668 4.31469e-17
7781.165 4.19279e-17
7782.3633 4.1092e-17
7783.5615 4.24089e-17
7784.7598 3.90202e-17
7785.958 3.58921e-17
7787.1562 3.69204e-17
7788.3545 3.96555e-17
7789.5532 3.74815e-17
7790.7515 3.94916e-17
7791.9497 3.54736e-17
7793.1479 3.81698e-17
7794.3467 3.56052e-17
7795.5449 3.79893e-17
7796.7432 3.5828e-17
7797.9419 3.64811e-17
7799.1401 3.73007e-17
7800.3389 3.97817e-17
7801.5371 3.69486e-17
7802.7358 3.9118e-17
7803.9346 3.83031e-17
7805.1328 3.65656e-17
7806.3315 3.78306e-17
7807.5298 3.65841e-17
7808.7285 4.23801e-17
7809.9272 3.94359e-17
7811.126 3.86121e-17
7812.3247 3.62103e-17
7813.5229 3.49244e-17
7814.7217 3.77449e-17
7815.9204 3.68581e-17
7817.1191 3.94349e-17
7818.3179 3.59813e-17
7819.5166 3.49968e-17
7820.7153 3.74175e-17
7821.9141 3.48683e-17
7823.1128 3.33465e-17
7824.3115 3.24664e-17
7825.5103 4.27268e-17
7826.709 3.87419e-17
7827.9077 3.87512e-17
7829.1069 3.3773e-17
7830.3057 3.76651e-17
7831.5044 3.71675e-17
7832.7031 3.41961e-17
7833.9023 3.82589e-17
7835.1011 3.92653e-17
7836.2998 3.41132e-17
7837.499 3.36531e-17
7838.6978 3.60619e-17
7839.8965 3.51891e-17
7841.0957 3.70407e-17
7842.2949 3.6732e-17
7843.4937 3.7609e-17
7844.6929 3.81867e-17
7845.8916 3.44103e-17
7847.0908 3.59454e-17
7848.2896 3.54878e-17
7849.4888 4.02841e-17
7850.688 3.48092e-17
7851.8867 3.52013e-17
7853.0859 3.5787e-17
7854.2852 2.87039e-17
7855.4844 3.59692e-17
7856.6836 2.98061e-17
7857.8828 3.57218e-17
7859.0815 3.34387e-17
7860.2808 3.2935e-17
7861.48 2.6858e-17
7862.6792 3.32262e-17
7863.8784 3.63055e-17
7865.0776 4.06286e-17
7866.2769 3.334e-17
7867.4761 3.71147e-17
7868.6753 2.94485e-17
7869.875 3.51171e-17
7871.0742 3.81589e-17
7872.2734 3.41165e-17
7873.4727 3.4778e-17
7874.6719 3.37072e-17
7875.8716 3.63515e-17
7877.0708 3.33295e-17
7878.27 3.5013e-17
7879.4697 3.52065e-17
7880.6689 3.26925e-17
7881.8682 3.4375e-17
7883.0679 3.50916e-17
7884.2671 3.37375e-17
7885.4668 3.35642e-17
7886.666 3.20597e-17
7887.8657 3.30474e-17
7889.0649 3.47506e-17
7890.2646 3.20817e-17
7891.4639 3.39557e-17
7892.6636 3.43398e-17
7893.8633 3.49602e-17
7895.0625 3.5116e-17
7896.2622 3.41894e-17
7897.4619 3.23027e-17
7898.6616 3.36633e-17
7899.8613 3.50866e-17
7901.0605 3.22699e-17
7902.2603 3.62536e-17
7903.46 3.27895e-17
7904.6597 3.32048e-17
7905.8594 3.6892e-17
7907.0591 3.11801e-17
7908.2588 3.44669e-17
7909.4585 3.34559e-17
7910.6582 3.46622e-17
7911.8579 3.69722e-17
7913.0576 3.89327e-17
7914.2573 3.43569e-17
7915.457 3.64475e-17
7916.6567 3.54176e-17
7917.8569 3.06994e-17
7919.0566 3.37293e-17
7920.2563 3.71852e-17
7921.4561 3.3514e-17
7922.6558 3.52846e-17
7923.856 3.10292e-17
7925.0557 3.42751e-17
7926.2554 3.29986e-17
7927.4556 3.68549e-17
7928.6553 3.30074e-17
7929.8555 3.09495e-17
7931.0552 3.74273e-17
7932.2554 3.50185e-17
7933.4551 3.28071e-17
7934.6553 3.34882e-17
7935.855 3.6611e-17
7937.0552 3.72831e-17
7938.2549 3.41516e-17
7939.4551 3.88383e-17
7940.6553 3.51612e-17
7941.855 3.49575e-17
7943.0552 3.54667e-17
7944.2554 3.00693e-17
7945.4551 3.29659e-17
7946.6553 3.48628e-17
7947.8555 3.32673e-17
7949.0557 3.43442e-17
7950.2559 3.56318e-17
7951.4561 3.22976e-17
7952.6558 3.28372e-17
7953.856 3.32045e-17
7955.0566 3.49554e-17
7956.2563 3.4867e-17
7957.4565 3.16712e-17
7958.6567 3.20568e-17
7959.8569 3.38644e-17
7961.0576 3.37342e-17
7962.2578 3.91589e-17
7963.458 3.65962e-17
7964.6582 3.25714e-17
7965.8584 3.56697e-17
7967.0586 3.55283e-17
7968.2588 3.53123e-17
7969.4595 3.39603e-17
7970.6597 3.22553e-17
7971.8599 3.50212e-17
7973.0601 3.27667e-17
7974.2607 3.26534e-17
7975.4609 3.54e-17
7976.6616 3.53133e-17
7977.8618 3.82343e-17
7979.062 3.09947e-17
7980.2627 3.09802e-17
7981.4629 3.18561e-17
7982.6636 3.18276e-17
7983.8638 2.97405e-17
7985.0645 2.85766e-17
7986.2646 3.27227e-17
7987.4653 3.54357e-17
7988.666 3.47905e-17
7989.8662 3.08664e-17
7991.0669 3.29969e-17
7992.2671 2.90079e-17
7993.4678 3.24082e-17
7994.6685 3.88386e-17
7995.8691 3.52201e-17
7997.0693 3.28269e-17
7998.27 3.28858e-17
7999.4707 3.14929e-17
8000.6714 2.85897e-17
8001.8721 3.29458e-17
8003.0723 3.1266e-17
8004.2729 3.18652e-17
8005.4736 3.15538e-17
8006.6743 2.98106e-17
8007.875 3.08014e-17
8009.0757 3.30975e-17
8010.2764 2.91138e-17
8011.4771 2.91017e-17
8012.6777 3.11916e-17
8013.8784 3.39708e-17
8015.0791 3.31685e-17
8016.2798 3.2291e-17
8017.481 3.2422e-17
8018.6816 2.9295e-17
8019.8823 3.39386e-17
8021.083 3.01818e-17
8022.2837 2.93546e-17
8023.4849 2.89797e-17
8024.6855 2.81842e-17
8025.8862 3.54678e-17
8027.0874 2.95896e-17
8028.2881 3.36755e-17
8029.4888 3.16511e-17
8030.6899 3.26703e-17
8031.8906 3.05407e-17
8033.0913 3.46446e-17
8034.2925 3.37513e-17
8035.4932 3.0834e-17
8036.6943 3.55887e-17
8037.895 2.9902e-17
8039.0962 3.84305e-17
8040.2969 3.4226e-17
8041.498 3.35574e-17
8042.6992 3.50144e-17
8043.8999 3.12508e-17
8045.1011 3.38856e-17
8046.3018 3.44022e-17
8047.5029 3.64842e-17
8048.7041 3.09923e-17
8049.9048 3.66408e-17
8051.106 3.52891e-17
8052.3071 3.63933e-17
8053.5083 3.4364e-17
8054.7095 3.33577e-17
8055.9102 3.30563e-17
8057.1113 3.36281e-17
8058.3125 3.08873e-17
8059.5137 3.53334e-17
8060.7148 3.8188e-17
8061.916 3.0824e-17
8063.1172 3.65593e-17
8064.3184 3.4026e-17
8065.5195 3.23388e-17
8066.7207 3.23408e-17
8067.9219 3.07768e-17
8069.123 3.47472e-17
8070.3242 3.62061e-17
8071.5254 3.61937e-17
8072.7266 3.53673e-17
8073.9277 3.15598e-17
8075.1289 3.51891e-17
8076.3301 3.28789e-17
8077.5317 3.32446e-17
8078.7329 3.12395e-17
8079.9341 3.54846e-17
8081.1353 3.62196e-17
8082.3364 3.30763e-17
8083.5381 3.27312e-17
8084.7393 3.26661e-17
8085.9404 3.17705e-17
8087.1421 3.05547e-17
8088.3433 3.40476e-17
8089.5444 3.33301e-17
8090.7461 3.29362e-17
8091.9473 3.4258e-17
8093.1489 3.30919e-17
8094.3501 3.03126e-17
8095.5513 3.11156e-17
8096.7529 3.25368e-17
8097.9541 3.35865e-17
8099.1558 3.0837e-17
8100.3574 3.57832e-17
8101.5586 3.24237e-17
8102.7603 3.18193e-17
8103.9614 3.5733e-17
8105.1631 3.28966e-17
8106.3643 3.06911e-17
8107.5659 3.34397e-17
8108.7676 3.46634e-17
8109.9692 3.45744e-17
8111.1704 3.26615e-17
8112.3721 3.35869e-17
8113.5737 3.42904e-17
8114.7749 2.88553e-17
8115.9766 3.36568e-17
8117.1782 3.23481e-17
8118.3799 3.08907e-17
8119.5815 3.47434e-17
8120.7832 3.36877e-17
8121.9844 3.48365e-17
8123.186 3.20628e-17
8124.3877 3.18665e-17
8125.5894 3.32683e-17
8126.791 3.3047e-17
8127.9927 3.66596e-17
8129.1943 3.33058e-17
8130.396 3.4823e-17
8131.5977 3.45947e-17
8132.7993 3.11909e-17
8134.001 3.71639e-17
8135.2026 3.57358e-17
8136.4043 3.12298e-17
8137.606 2.90114e-17
8138.8081 3.21888e-17
8140.0098 3.2802e-17
8141.2114 3.13051e-17
8142.4131 3.66651e-17
8143.6147 3.31046e-17
8144.8164 3.20864e-17
8146.0186 3.18779e-17
8147.2202 3.28306e-17
8148.4219 3.44201e-17
8149.6235 3.16493e-17
8150.8257 3.7983e-17
8152.0273 3.08806e-17
8153.229 3.31537e-17
8154.4312 3.0825e-17
8155.6328 3.05375e-17
8156.8345 3.35601e-17
8158.0366 3.31201e-17
8159.2383 3.19545e-17
8160.4404 3.23891e-17
8161.6421 3.79765e-17
8162.8442 3.36206e-17
8164.0459 3.19541e-17
8165.2476 3.28118e-17
8166.4497 3.18689e-17
8167.6514 3.47747e-17
8168.8535 3.29209e-17
8170.0557 3.34201e-17
8171.2573 3.21802e-17
8172.4595 3.32067e-17
8173.6611 3.58062e-17
8174.8633 3.21398e-17
8176.0654 3.15956e-17
8177.2671 3.28014e-17
8178.4692 3.4261e-17
8179.6714 3.1614e-17
8180.873 2.96782e-17
8182.0752 3.52417e-17
8183.2773 3.5844e-17
8184.4795 3.71462e-17
8185.6812 3.01858e-17
8186.8833 3.7141e-17
8188.0854 3.67869e-17
8189.2876 3.24726e-17
8190.4893 3.36148e-17
8191.6914 3.29806e-17
8192.8936 3.03393e-17
8194.0957 3.01229e-17
8195.2979 3.21743e-17
8196.5 3.54331e-17
8197.7021 3.2326e-17
8198.9043 3.23391e-17
8200.1064 2.95267e-17
8201.3086 3.2559e-17
8202.5107 3.25495e-17
8203.7129 3.19332e-17
8204.915 3.18085e-17
8206.1172 3.17035e-17
8207.3193 2.93834e-17
8208.5215 3.50219e-17
8209.7236 3.00935e-17
8210.9258 3.10165e-17
8212.1279 3.37651e-17
8213.3301 3.45599e-17
8214.5322 3.03052e-17
8215.7344 3.2114e-17
8216.9365 3.29696e-17
8218.1387 3.53564e-17
8219.3408 3.23284e-17
8220.5439 3.33671e-17
8221.7461 2.98015e-17
8222.9482 3.57207e-17
8224.1504 2.83757e-17
8225.3525 3.05971e-17
8226.5547 2.91515e-17
8227.7568 3.21279e-17
8228.96 2.7914e-17
8230.1621 2.79954e-17
8231.3643 2.81859e-17
8232.5664 2.87874e-17
8233.7686 2.94339e-17
8234.9707 3.14362e-17
8236.1738 3.08229e-17
8237.376 3.31958e-17
8238.5781 3.50979e-17
8239.7803 3.27692e-17
8240.9824 3.13154e-17
8242.1855 3.29281e-17
8243.3877 2.94772e-17
8244.5898 3.38288e-17
8245.792 3.30151e-17
8246.9951 3.37705e-17
8248.1973 3.54082e-17
8249.3994 3.20733e-17
8250.6016 3.16678e-17
8251.8047 3.40273e-17
8253.0068 3.28447e-17
8254.209 2.9956e-17
8255.4111 2.99968e-17
8256.6143 3.31019e-17
8257.8164 3.21896e-17
8259.0186 3.32787e-17
8260.2217 2.93875e-17
8261.4238 3.51418e-17
8262.626 3.49185e-17
8263.8291 3.11635e-17
8265.0312 2.9498e-17
8266.2334 3.30955e-17
8267.4365 3.16623e-17
8268.6387 3.17862e-17
8269.8418 2.8535e-17
8271.0439 3.32718e-17
8272.2461 2.8742e-17
8273.4492 2.98449e-17
8274.6514 3.07816e-17
8275.8535 3.13566e-17
8277.0566 3.34466e-17
8278.2588 3.03356e-17
8279.4619 3.19429e-17
8280.6641 3.11792e-17
8281.8672 3.39438e-17
8283.0693 2.6257e-17
8284.2725 3.02314e-17
8285.4746 3.06364e-17
8286.6768 2.87416e-17
8287.8799 2.99547e-17
8289.082 3.44729e-17
8290.2852 3.1417e-17
8291.4873 3.39112e-17
8292.6904 3.31707e-17
8293.8926 3.13766e-17
8295.0957 2.83394e-17
8296.2979 3.1059e-17
8297.501 2.75026e-17
8298.7031 3.81268e-17
8299.9062 2.82212e-17
8301.1084 2.70367e-17
8302.3115 2.89748e-17
8303.5137 2.87229e-17
8304.7168 3.4404e-17
8305.9189 2.8937e-17
8307.1221 3.22896e-17
8308.3252 3.49421e-17
8309.5273 2.74929e-17
8310.7305 3.19219e-17
8311.9326 3.43597e-17
8313.1357 2.88599e-17
8314.3389 3.13673e-17
8315.541 3.02864e-17
8316.7441 3.04388e-17
8317.9463 2.86741e-17
8319.1494 2.84558e-17
8320.3525 3.20451e-17
8321.5547 3.06905e-17
8322.7578 3.08055e-17
8323.96 3.25804e-17
8325.1631 3.03519e-17
8326.3662 3.24506e-17
8327.5684 3.23003e-17
8328.7715 3.20121e-17
8329.9746 3.41418e-17
8331.1768 2.95958e-17
8332.3799 3.11913e-17
8333.583 3.37712e-17
8334.7852 3.39146e-17
8335.9883 3.17841e-17
8337.1914 3.2779e-17
8338.3936 3.21367e-17
8339.5967 3.13429e-17
8340.7998 3.70693e-17
8342.002 3.23335e-17
8343.2051 3.24684e-17
8344.4082 2.93468e-17
8345.6113 3.45566e-17
8346.8135 3.48064e-17
8348.0166 3.40087e-17
8349.2197 3.14725e-17
8350.4219 2.77653e-17
8351.625 3.10616e-17
8352.8281 3.18137e-17
8354.0312 3.24739e-17
8355.2334 3.98905e-17
8356.4365 2.90294e-17
8357.6396 2.8378e-17
8358.8428 3.19497e-17
8360.0449 3.45497e-17
8361.248 2.8409e-17
8362.4512 3.25778e-17
8363.6543 3.14912e-17
8364.8574 3.18389e-17
8366.0596 3.13793e-17
8367.2627 3.05162e-17
8368.4658 3.01545e-17
8369.6689 3.13244e-17
8370.8721 3.03127e-17
8372.0742 3.18272e-17
8373.2773 3.55658e-17
8374.4805 3.1164e-17
8375.6836 3.19756e-17
8376.8867 2.96224e-17
8378.0898 3.02232e-17
8379.292 2.70852e-17
8380.4951 3.31947e-17
8381.6982 2.6006e-17
8382.9014 3.1361e-17
8384.1045 3.03251e-17
8385.3076 2.93277e-17
8386.5107 3.21137e-17
8387.7129 3.09632e-17
8388.916 3.10769e-17
8390.1191 3.10447e-17
8391.3223 3.1517e-17
8392.5254 3.22512e-17
8393.7285 3.59661e-17
8394.9316 2.59852e-17
8396.1348 2.85833e-17
8397.3369 3.07514e-17
8398.54 2.59095e-17
8399.7432 2.68377e-17
8400.9463 3.12928e-17
8402.1494 3.89095e-17
8403.3525 2.97465e-17
8404.5557 3.17152e-17
8405.7588 3.02724e-17
8406.9619 3.30481e-17
8408.165 3.23401e-17
8409.3682 3.21136e-17
8410.5713 2.78598e-17
8411.7734 3.35562e-17
8412.9766 3.53339e-17
8414.1797 2.93147e-17
8415.3828 3.08081e-17
8416.5859 2.64569e-17
8417.7891 2.74256e-17
8418.9922 2.93045e-17
8420.1953 3.16975e-17
8421.3984 3.07249e-17
8422.6016 2.90012e-17
8423.8047 3.24544e-17
8425.0078 3.47672e-17
8426.2109 2.76221e-17
8427.4141 3.05896e-17
8428.6172 3.29381e-17
8429.8203 2.81102e-17
8431.0234 3.13089e-17
8432.2266 3.16351e-17
8433.4297 2.82792e-17
8434.6328 2.89212e-17
8435.8359 3.6884e-17
8437.0391 3.60512e-17
8438.2422 2.89714e-17
8439.4453 3.0009e-17
8440.6484 3.43308e-17
8441.8516 3.30203e-17
8443.0547 3.19553e-17
8444.2578 3.19948e-17
8445.4609 3.15444e-17
8446.6641 3.23469e-17
8447.8672 3.47958e-17
8449.0703 3.60543e-17
8450.2734 3.17027e-17
8451.4766 2.96271e-17
8452.6797 3.19747e-17
8453.8828 3.60103e-17
8455.0859 3.21654e-17
8456.2891 2.99035e-17
8457.4922 3.30142e-17
8458.6953 2.67258e-17
8459.8984 2.9078e-17
8461.1025 2.956e-17
8462.3057 2.80539e-17
8463.5088 2.93299e-17
8464.7119 3.01232e-17
8465.915 2.49372e-17
8467.1182 2.72337e-17
8468.3213 2.97231e-17
8469.5244 3.1235e-17
8470.7275 3.08023e-17
8471.9307 2.96147e-17
8473.1338 3.4761e-17
8474.3369 3.3145e-17
8475.54 3.34913e-17
8476.7432 3.48515e-17
8477.9473 3.28694e-17
8479.1504 3.39312e-17
8480.3535 2.91424e-17
8481.5566 3.08448e-17
8482.7598 3.43073e-17
8483.9629 2.82764e-17
8485.166 2.93458e-17
8486.3691 3.0441e-17
8487.5723 3.0328e-17
8488.7754 3.21767e-17
8489.9785 3.11611e-17
8491.1826 3.355e-17
8492.3857 2.91443e-17
8493.5889 3.11643e-17
8494.792 3.22723e-17
8495.9951 3.12191e-17
8497.1982 2.81951e-17
8498.4014 3.12647e-17
8499.6045 3.37153e-17
8500.8076 3.00371e-17
8502.0117 3.45535e-17
8503.2148 2.74572e-17
8504.418 3.13815e-17
8505.6211 3.03824e-17
8506.8242 2.84101e-17
8508.0273 3.51565e-17
8509.2305 3.0246e-17
8510.4346 2.75103e-17
8511.6377 3.25829e-17
8512.8408 3.22734e-17
8514.0439 3.33302e-17
8515.2471 3.26584e-17
8516.4502 3.29989e-17
8517.6533 3.2223e-17
8518.8564 2.8689e-17
8520.0605 3.35111e-17
8521.2637 3.02006e-17
8522.4668 3.39721e-17
8523.6699 3.32896e-17
8524.873 3.22739e-17
8526.0762 3.60478e-17
8527.2803 2.97754e-17
8528.4834 3.19984e-17
8529.6865 3.36593e-17
8530.8896 3.31608e-17
8532.0928 3.16915e-17
8533.2959 3.18445e-17
8534.499 3.37594e-17
8535.7031 3.20293e-17
8536.9062 3.36957e-17
8538.1094 2.94693e-17
8539.3125 3.02703e-17
8540.5156 3.30069e-17
8541.7188 3.0599e-17
8542.9219 3.48171e-17
8544.126 3.50531e-17
8545.3291 3.26462e-17
8546.5322 3.51159e-17
8547.7354 3.06947e-17
8548.9385 3.06479e-17
8550.1416 3.46954e-17
8551.3457 3.18151e-17
8552.5488 3.02855e-17
8553.752 3.10773e-17
8554.9551 3.38728e-17
8556.1582 3.14721e-17
8557.3613 3.00341e-17
8558.5654 2.92468e-17
8559.7686 3.31303e-17
8560.9717 3.06343e-17
8562.1748 3.01086e-17
8563.3779 3.33485e-17
8564.5811 3.03229e-17
8565.7852 3.17279e-17
8566.9883 2.83487e-17
8568.1914 3.32344e-17
8569.3945 3.24378e-17
8570.5977 2.91774e-17
8571.8008 3.00069e-17
8573.0049 3.04999e-17
8574.208 3.24936e-17
8575.4111 3.03457e-17
8576.6143 3.27868e-17
8577.8174 2.93597e-17
8579.0205 2.93072e-17
8580.2236 3.08729e-17
8581.4277 3.13268e-17
8582.6309 3.16382e-17
8583.834 2.71936e-17
8585.0371 2.86027e-17
8586.2402 2.7928e-17
8587.4443 2.85285e-17
8588.6475 3.10046e-17
8589.8506 2.67363e-17
8591.0537 2.87165e-17
8592.2568 3.10587e-17
8593.46 2.96453e-17
8594.6641 3.09849e-17
8595.8672 3.21485e-17
8597.0703 3.23211e-17
8598.2734 3.02307e-17
8599.4766 2.84898e-17
8600.6797 2.72331e-17
8601.8828 2.82654e-17
8603.0869 3.14107e-17
8604.29 2.92348e-17
8605.4932 2.90543e-17
8606.6963 2.91039e-17
8607.8994 3.45613e-17
8609.1025 3.05267e-17
8610.3066 2.7323e-17
8611.5098 2.89445e-17
8612.7129 3.05286e-17
8613.916 2.91926e-17
8615.1191 3.09386e-17
8616.3223 2.71858e-17
8617.5254 2.77713e-17
8618.7295 2.9977e-17
8619.9326 3.28883e-17
8621.1357 3.079e-17
8622.3389 2.76459e-17
8623.542 2.60977e-17
8624.7451 2.86451e-17
8625.9482 2.91188e-17
8627.1523 3.10066e-17
8628.3555 3.00669e-17
8629.5586 2.92177e-17
8630.7617 2.59078e-17
8631.9648 2.61816e-17
8633.168 3.24287e-17
8634.3711 2.77852e-17
8635.5742 3.04027e-17
8636.7783 2.90683e-17
8637.9814 2.90289e-17
8639.1846 2.95895e-17
8640.3877 2.82816e-17
8641.5908 3.02307e-17
8642.7939 3.00371e-17
8643.9971 2.94446e-17
8645.2012 3.04313e-17
8646.4043 2.85729e-17
8647.6074 2.64108e-17
8648.8105 2.64724e-17
8650.0137 3.15566e-17
8651.2168 2.60199e-17
8652.4199 2.62633e-17
8653.623 2.41025e-17
8654.8262 2.63066e-17
8656.0303 3.28719e-17
8657.2334 2.80597e-17
8658.4365 2.49043e-17
8659.6396 2.66002e-17
8660.8428 2.71828e-17
8662.0459 2.92038e-17
8663.249 2.86276e-17
8664.4521 2.87126e-17
8665.6553 2.953e-17
8666.8584 2.38129e-17
8668.0615 2.88238e-17
8669.2656 2.82149e-17
8670.4688 2.82361e-17
8671.6719 2.68113e-17
8672.875 2.56933e-17
8674.0781 2.79706e-17
8675.2812 2.67031e-17
8676.4844 2.80664e-17
8677.6875 2.90718e-17
8678.8906 2.59135e-17
8680.0938 2.87543e-17
8681.2969 2.90535e-17
8682.5 2.67687e-17
8683.7031 2.91846e-17
8684.9062 2.8899e-17
8686.1104 2.93677e-17
8687.3135 2.84133e-17
8688.5166 2.84582e-17
8689.7197 3.03926e-17
8690.9229 2.49283e-17
8692.126 3.12053e-17
8693.3291 2.68268e-17
8694.5322 2.5138e-17
8695.7354 2.79788e-17
8696.9385 2.52065e-17
8698.1416 3.07014e-17
8699.3447 2.60543e-17
8700.5479 2.54459e-17
8701.751 2.64312e-17
8702.9541 2.60693e-17
8704.1572 2.35523e-17
8705.3604 2.50899e-17
8706.5635 2.46061e-17
8707.7666 2.7235e-17
8708.9697 2.53494e-17
8710.1729 2.42189e-17
8711.376 2.62325e-17
8712.5791 2.75585e-17
8713.7822 2.32857e-17
8714.9854 2.56024e-17
8716.1885 2.81757e-17
8717.3916 2.78018e-17
8718.5947 2.78235e-17
8719.7979 2.41626e-17
8721.001 2.53343e-17
8722.2041 2.94933e-17
8723.4072 2.73853e-17
8724.6104 2.72872e-17
8725.8135 2.66428e-17
8727.0166 2.47549e-17
8728.2197 2.82326e-17
8729.4229 2.46997e-17
8730.626 2.85869e-17
8731.8281 2.65507e-17
8733.0312 2.99456e-17
8734.2344 2.81601e-17
8735.4375 2.60592e-17
8736.6406 2.77385e-17
8737.8438 2.73957e-17
8739.0469 2.77779e-17
8740.25 2.6672e-17
8741.4531 2.75456e-17
8742.6562 2.71692e-17
8743.8594 2.57607e-17
8745.0625 2.62279e-17
8746.2656 2.62941e-17
8747.4678 2.74298e-17
8748.6709 2.76589e-17
8749.874 2.75135e-17
8751.0771 2.32404e-17
8752.2803 2.94449e-17
8753.4834 2.39114e-17
8754.6865 2.74576e-17
8755.8896 2.63955e-17
8757.0928 2.61642e-17
8758.2949 2.3094e-17
8759.498 2.16055e-17
8760.7012 2.69773e-17
8761.9043 2.73755e-17
8763.1074 2.6154e-17
8764.3105 2.83324e-17
8765.5127 2.52862e-17
8766.7158 2.3917e-17
8767.9189 2.3487e-17
8769.1221 3.24981e-17
8770.3252 2.83751e-17
8771.5283 2.89549e-17
8772.7305 2.72115e-17
8773.9336 2.80941e-17
8775.1367 2.57004e-17
8776.3398 3.56579e-17
8777.543 3.14467e-17
8778.7451 2.02539e-17
8779.9482 1.96105e-17
8781.1514 2.5306e-17
8782.3545 2.35153e-17
8783.5566 2.37435e-17
8784.7598 3.05428e-17
8785.9629 2.68309e-17
8787.166 2.70499e-17
8788.3691 2.70805e-17
8789.5713 2.6027e-17
8790.7744 2.95254e-17
8791.9775 2.58386e-17
8793.1807 2.31745e-17
8794.3828 2.3678e-17
8795.5859 2.3291e-17
8796.7891 2.68984e-17
8797.9912 2.72135e-17
8799.1943 2.47367e-17
8800.3975 2.42652e-17
8801.6006 2.45656e-17
8802.8027 2.51967e-17
8804.0059 2.58775e-17
8805.209 2.27556e-17
8806.4111 2.67158e-17
8807.6143 2.47544e-17
8808.8174 2.67553e-17
8810.0195 2.4161e-17
8811.2227 2.39212e-17
8812.4258 2.57298e-17
8813.6279 2.51888e-17
8814.8311 2.23778e-17
8816.0342 2.39055e-17
8817.2363 2.54895e-17
8818.4395 2.4812e-17
8819.6426 2.21298e-17
8820.8447 2.38811e-17
8822.0479 2.62167e-17
8823.25 2.86733e-17
8824.4531 2.44178e-17
8825.6562 1.6576e-17
8826.8584 1.89673e-17
8828.0615 2.00684e-17
8829.2637 2.11095e-17
8830.4668 2.30355e-17
8831.6699 2.40059e-17
8832.8721 2.65861e-17
8834.0752 2.53449e-17
8835.2773 2.55108e-17
8836.4805 2.0281e-17
8837.6826 2.17833e-17
8838.8857 2.22624e-17
8840.0879 2.46695e-17
8841.291 2.52301e-17
8842.4932 2.66708e-17
8843.6963 2.34912e-17
8844.8984 2.64266e-17
8846.1016 2.57405e-17
8847.3047 2.62167e-17
8848.5068 3.09239e-17
8849.709 2.80638e-17
8850.9121 2.17186e-17
8852.1143 2.67275e-17
8853.3174 2.62544e-17
8854.5195 2.70002e-17
8855.7227 2.68242e-17
8856.9248 2.42403e-17
8858.1279 2.48302e-17
8859.3301 2.74608e-17
8860.5332 2.4899e-17
8861.7354 2.65362e-17
8862.9385 2.66753e-17
8864.1406 2.42617e-17
8865.3428 2.37468e-17
8866.5459 2.57726e-17
8867.748 2.33156e-17
8868.9512 2.73764e-17
8870.1533 2.11596e-17
8871.3555 2.24212e-17
8872.5586 2.62138e-17
8873.7607 2.74585e-17
8874.9629 2.57459e-17
8876.166 2.64306e-17
8877.3682 2.71325e-17
8878.5703 2.40338e-17
8879.7734 2.20061e-17
8880.9756 2.74268e-17
8882.1777 3.0155e-17
8883.3809 2.53834e-17
8884.583 2.40547e-17
8885.7852 2.5619e-17
8886.9883 2.70977e-17
8888.1904 2.30462e-17
8889.3926 2.33267e-17
8890.5947 2.46326e-17
8891.7979 2.79593e-17
8893.0 2.25113e-17
8894.2021 2.85799e-17
8895.4053 2.25344e-17
8896.6074 2.48645e-17
8897.8096 2.50834e-17
8899.0117 2.73288e-17
8900.2139 2.70636e-17
8901.417 2.66709e-17
8902.6191 2.58102e-17
8903.8213 2.75332e-17
8905.0234 2.76417e-17
8906.2256 2.35741e-17
8907.4287 2.64273e-17
8908.6309 2.50289e-17
8909.833 2.66618e-17
8911.0352 2.221e-17
8912.2373 2.46002e-17
8913.4395 2.45346e-17
8914.6426 2.24535e-17
8915.8447 2.42551e-17
8917.0469 2.70569e-17
8918.249 3.09799e-17
8919.4512 3.25605e-17
8920.6533 2.27132e-17
8921.8555 2.30689e-17
8923.0576 3.02982e-17
8924.2598 2.51374e-17
8925.4619 2.75141e-17
8926.6641 2.36413e-17
8927.8672 2.48581e-17
8929.0693 2.42404e-17
8930.2715 2.49673e-17
8931.4736 2.64982e-17
8932.6758 2.56215e-17
8933.8779 2.33374e-17
8935.0801 2.71015e-17
8936.2822 2.6368e-17
8937.4844 2.84066e-17
8938.6865 2.77116e-17
8939.8887 2.85159e-17
8941.0908 2.67955e-17
8942.293 2.57703e-17
8943.4941 2.57953e-17
8944.6963 2.67388e-17
8945.8984 2.73088e-17
8947.1006 2.52347e-17
8948.3027 2.72446e-17
8949.5049 2.77135e-17
8950.707 2.64639e-17
8951.9092 2.69194e-17
8953.1113 2.51266e-17
8954.3135 3.19036e-17
8955.5156 3.10689e-17
8956.7168 2.12568e-17
8957.9189 2.93424e-17
8959.1211 3.07631e-17
8960.3232 3.04885e-17
8961.5254 2.431e-17
8962.7275 2.82275e-17
8963.9297 2.50633e-17
8965.1309 2.78663e-17
8966.333 2.90251e-17
8967.5352 2.7016e-17
8968.7373 2.9092e-17
8969.9385 2.61627e-17
8971.1406 2.863e-17
8972.3428 2.82905e-17
8973.5449 2.41977e-17
8974.7461 2.77446e-17
8975.9482 2.79938e-17
8977.1504 2.55062e-17
8978.3525 2.74091e-17
8979.5537 2.74112e-17
8980.7559 2.64965e-17
8981.958 2.63146e-17
8983.1592 2.28751e-17
8984.3613 2.61362e-17
8985.5635 2.49088e-17
8986.7646 2.78362e-17
8987.9668 3.04158e-17
8989.1689 2.98885e-17
8990.3701 3.45569e-17
8991.5723 2.89256e-17
8992.7734 2.89019e-17
8993.9756 2.79741e-17
8995.1777 2.70898e-17
8996.3789 3.11032e-17
8997.5811 2.6755e-17
8998.7822 2.60793e-17
8999.9844 2.41506e-17
9001.1865 2.45151e-17
9002.3877 3.35238e-17
9003.5898 3.04459e-17
9004.791 2.82719e-17
9005.9932 2.63093e-17
9007.1943 2.6452e-17
9008.3965 2.77753e-17
9012.001 2.84001e-17
9013.2031 2.96023e-17
9014.4043 2.76082e-17
9015.6055 3.07758e-17
9016.8076 2.78114e-17
9018.0088 2.82854e-17
9019.2109 2.89683e-17
9020.4121 2.64337e-17
9021.6143 2.65325e-17
9022.8154 2.75054e-17
9024.0166 2.53917e-17
9025.2188 2.78042e-17
9026.4199 2.77626e-17
9027.6211 2.61734e-17
9028.8232 2.85226e-17
9030.0244 2.83781e-17
9031.2256 2.68158e-17
9032.4277 2.84278e-17
9033.6289 2.93504e-17
9034.8301 2.56366e-17
9036.0312 3.00405e-17
9037.2334 2.68324e-17
9038.4346 2.73215e-17
9039.6357 2.28827e-17
9040.8369 2.58053e-17
9042.0391 2.63883e-17
9043.2402 2.76806e-17
9044.4414 3.09647e-17
9045.6426 2.88314e-17
9046.8438 2.93754e-17
9048.0459 2.83821e-17
9049.2471 2.64243e-17
9050.4482 2.56725e-17
9051.6494 2.83906e-17
9052.8506 3.00873e-17
9054.0518 2.55515e-17
9055.2539 2.7736e-17
9056.4551 2.90386e-17
9057.6562 2.6577e-17
9058.8574 2.66112e-17
9060.0586 2.52405e-17
9061.2598 2.5829e-17
9062.4609 2.84951e-17
9063.6621 2.69964e-17
9064.8633 2.53324e-17
9066.0645 2.61871e-17
9067.2656 2.98832e-17
9068.4668 2.88936e-17
9069.668 2.83193e-17
9070.8691 2.73801e-17
9072.0703 2.65635e-17
9073.2715 2.53163e-17
9074.4727 3.01171e-17
9075.6738 2.70361e-17
9076.875 2.47514e-17
9078.0762 2.75547e-17
9079.2773 2.57715e-17
9080.4785 2.75138e-17
9081.6797 3.10684e-17
9082.8799 3.00468e-17
9084.0811 2.79383e-17
9085.2822 2.46798e-17
9086.4834 2.47677e-17
9087.6846 2.84526e-17
9088.8857 2.83006e-17
9090.0859 2.69506e-17
9091.2871 3.08791e-17
9092.4883 2.58912e-17
9093.6895 2.90099e-17
9094.8906 2.75024e-17
9096.0908 2.85873e-17
9097.292 2.35165e-17
9098.4932 2.76361e-17
9099.6943 2.67891e-17
9100.8945 2.51745e-17
9102.0957 2.28069e-17
9103.2969 2.97359e-17
9104.4971 2.8318e-17
9105.6982 2.27287e-17
9106.8994 2.65049e-17
9108.1006 2.87254e-17
9109.3008 3.0435e-17
9110.502 2.76138e-17
9111.7021 2.8588e-17
9112.9033 2.75527e-17
9114.1045 2.71372e-17
9115.3047 2.47844e-17
9116.5059 2.79781e-17
9117.7061 2.76489e-17
9118.9072 2.54777e-17
9120.1074 2.98167e-17
9121.3086 2.71914e-17
9122.5088 2.87301e-17
9123.71 2.5205e-17
9124.9102 2.64098e-17
9126.1113 2.79327e-17
9127.3115 2.7401e-17
9128.5127 2.61891e-17
9129.7129 2.59856e-17
9130.9141 2.61728e-17
9132.1143 2.9322e-17
9133.3154 2.84871e-17
9134.5156 2.70745e-17
9135.7158 2.69182e-17
9136.917 2.83213e-17
9138.1172 2.75252e-17
9139.3184 2.58666e-17
9140.5186 2.60366e-17
9141.7188 2.68012e-17
9142.9189 2.72989e-17
9144.1201 2.60366e-17
9145.3203 2.635e-17
9146.5205 2.57504e-17
9147.7217 2.719e-17
9148.9219 2.52043e-17
9150.1221 2.71719e-17
9151.3223 3.07934e-17
9152.5234 2.63611e-17
9153.7236 2.79688e-17
9154.9238 2.5501e-17
9156.124 2.7024e-17
9157.3242 2.87971e-17
9158.5254 2.70494e-17
9159.7256 2.72889e-17
9160.9258 2.63207e-17
9162.126 2.81965e-17
9163.3262 2.8497e-17
9164.5264 2.59163e-17
9165.7266 2.56283e-17
9166.9268 2.4841e-17
9168.1279 2.56013e-17
9169.3281 2.58477e-17
9170.5283 2.80265e-17
9171.7285 2.4539e-17
9172.9287 2.69813e-17
9174.1289 2.52949e-17
9175.3291 2.8638e-17
9176.5293 2.51582e-17
9177.7295 2.71429e-17
9178.9297 2.62978e-17
9180.1299 2.64257e-17
9181.3301 2.4533e-17
9182.5303 2.74116e-17
9183.7295 2.44691e-17
9184.9297 2.82522e-17
9186.1299 2.54179e-17
9187.3301 2.92859e-17
9188.5303 2.57156e-17
9189.7305 2.75047e-17
9190.9307 2.89044e-17
9192.1299 2.5654e-17
9193.3301 2.59548e-17
9194.5303 2.72915e-17
9195.7305 2.46524e-17
9196.9307 2.61726e-17
9198.1299 2.47604e-17
9199.3301 2.55935e-17
9200.5303 2.32531e-17
9201.7305 2.83969e-17
9202.9297 2.86143e-17
9204.1299 2.7107e-17
9205.3301 2.72971e-17
9206.5293 2.64469e-17
9207.7295 2.7122e-17
9208.9297 2.40788e-17
9210.1289 2.30361e-17
9211.3291 2.5516e-17
9212.5283 2.58337e-17
9213.7285 2.82161e-17
9214.9287 2.6576e-17
9216.1279 2.68518e-17
9217.3281 2.87015e-17
9218.5273 2.7472e-17
9219.7275 2.60312e-17
9220.9268 2.7625e-17
9222.127 2.86669e-17
9223.3262 2.59687e-17
9224.5264 2.64023e-17
9225.7256 2.74235e-17
9226.9258 2.5386e-17
9228.125 2.52653e-17
9229.3252 2.55061e-17
9230.5244 2.57171e-17
9231.7236 2.39278e-17
9232.9238 2.63073e-17
9234.123 2.66039e-17
9235.3232 2.40733e-17
9236.5225 2.6717e-17
9237.7217 2.65732e-17
9238.9219 2.69607e-17
9240.1211 2.45791e-17
9241.3203 2.51433e-17
9242.5195 2.2997e-17
9243.7197 2.66488e-17
9244.9189 2.32243e-17
9246.1182 2.5354e-17
9247.3174 2.46302e-17
9248.5176 2.37535e-17
9249.7168 2.41501e-17
9250.916 2.33188e-17
9252.1152 2.46088e-17
9253.3145 2.40591e-17
9254.5146 2.80995e-17
9255.7139 2.52709e-17
9256.9131 2.71749e-17
9258.1123 2.17746e-17
9259.3115 2.55672e-17
9260.5107 2.26891e-17
9261.71 2.57452e-17
9262.9092 2.35066e-17
9264.1084 2.34805e-17
9265.3076 2.49125e-17
9266.5068 2.77976e-17
9267.7061 2.18858e-17
9268.9053 2.62027e-17
9270.1045 2.32564e-17
9271.3037 2.52103e-17
9272.5029 2.65146e-17
9273.7021 2.60433e-17
9274.9014 2.63704e-17
9276.1006 2.52072e-17
9277.2998 2.57902e-17
9278.499 2.39296e-17
9279.6973 2.53486e-17
9280.8965 2.83471e-17
9282.0957 2.23859e-17
9283.2949 2.47405e-17
9284.4941 2.56766e-17
9285.6934 2.74979e-17
9286.8916 2.42959e-17
9288.0908 2.73258e-17
9289.29 2.60413e-17
9290.4893 2.60784e-17
9291.6875 2.64271e-17
9292.8867 2.4734e-17
9294.0859 2.40924e-17
9295.2842 2.52823e-17
9296.4834 2.5992e-17
9297.6826 2.37634e-17
9298.8809 2.40699e-17
9300.0801 2.6331e-17
9301.2783 2.69967e-17
9302.4775 2.55826e-17
9303.6768 2.47412e-17
9304.875 2.79959e-17
9306.0742 2.76778e-17
9307.2725 3.33475e-17
9308.4717 2.30324e-17
9309.6699 2.79258e-17
9310.8691 2.28682e-17
9312.0674 3.62269e-17
9313.2666 2.80892e-17
9314.4648 2.05109e-17
9315.6641 2.8589e-17
9316.8623 2.05359e-17
9318.0605 2.87091e-17
9319.2598 2.37079e-17
9320.458 3.1604e-17
9321.6562 2.87975e-17
9322.8555 1.96038e-17
9324.0537 2.47586e-17
9325.252 2.14501e-17
9326.4512 3.17951e-17
9327.6494 2.8207e-17
9328.8477 2.82567e-17
9330.0469 2.85834e-17
9331.2451 2.51057e-17
9332.4434 2.1647e-17
9333.6416 2.63707e-17
9334.8398 2.19832e-17
9336.0391 2.53387e-17
9337.2373 2.38177e-17
9338.4355 1.66669e-17
9339.6338 2.41777e-17
9340.832 2.54195e-17
9342.0303 2.5145e-17
9343.2285 2.27356e-17
9344.4268 3.04666e-17
9345.626 3.0538e-17
9346.8242 2.97396e-17
9348.0225 3.22845e-17
9349.2207 2.75485e-17
9350.4189 2.37055e-17
9351.6172 2.50143e-17
9352.8154 1.81847e-17
9354.0137 2.25532e-17
9355.2109 2.4359e-17
9356.4092 2.76866e-17
9357.6074 2.68733e-17
9358.8057 2.82808e-17
9360.0039 3.07258e-17
9361.2021 2.74131e-17
9362.4004 2.69057e-17
9363.5986 2.40665e-17
9364.7969 2.45234e-17
9365.9941 2.36989e-17
9367.1924 2.49466e-17
9368.3906 2.40215e-17
9369.5889 2.56052e-17
9370.7861 2.16417e-17
9371.9844 3.81035e-17
9373.1826 3.70293e-17
9374.3809 3.13585e-17
9375.5781 2.61075e-17
9376.7764 3.21031e-17
9377.9746 3.50111e-17
9379.1719 2.32015e-17
9380.3701 2.63734e-17
9381.5674 2.10741e-17
9382.7656 3.26005e-17
9383.9639 2.44096e-17
9385.1611 2.06516e-17
9386.3594 2.32404e-17
9387.5566 1.76945e-17
9388.7549 2.93874e-17
9389.9521 2.60654e-17
9391.1504 2.55999e-17
9392.3477 2.50824e-17
9393.5459 2.29779e-17
9394.7432 2.83441e-17
9395.9414 2.90045e-17
9397.1387 2.22272e-17
9398.3359 2.62523e-17
9399.5342 2.11743e-17
9400.7314 2.25836e-17
9401.9297 2.90098e-17
9403.127 2.03186e-17
9404.3242 2.16349e-17
9405.5215 2.44632e-17
9406.7197 2.25378e-17
9407.917 2.32951e-17
9409.1143 2.16103e-17
9410.3115 2.19399e-17
9411.5098 2.55147e-17
9412.707 2.22656e-17
9413.9043 2.59921e-17
9415.1016 2.36659e-17
9416.2988 2.18115e-17
9417.4971 2.56378e-17
9418.6943 2.478e-17
9419.8916 2.87922e-17
9421.0889 2.48203e-17
9422.2861 1.69882e-17
9423.4834 2.14745e-17
9424.6807 2.45772e-17
9425.8779 2.4429e-17
9427.0752 2.09182e-17
9428.2725 2.63764e-17
9429.4697 3.10398e-17
9430.667 3.13644e-17
9431.8643 2.61397e-17
9433.0615 2.5893e-17
9434.2588 2.02554e-17
9435.4561 2.09155e-17
9436.6533 2.19821e-17
9437.8506 3.0563e-17
9439.0479 -4.2566e-19
9440.2441 4.34704e-17
9441.4414 1.47975e-17
9442.6387 1.23467e-17
9443.8359 2.79749e-17
9445.0332 2.78038e-17
9446.2305 2.70408e-17
9447.4268 2.8729e-17
9448.624 2.60168e-17
9449.8213 2.38824e-17
9451.0176 2.33204e-17
9452.2148 2.18864e-17
9453.4121 2.16068e-17
9454.6084 2.14524e-17
9455.8057 2.67189e-17
9457.0029 2.11317e-17
9458.1992 2.28253e-17
9459.3965 1.78002e-17
9460.5928 2.15501e-17
9461.79 2.93432e-17
9462.9873 2.60768e-17
9464.1836 2.59337e-17
9465.3809 2.47081e-17
9466.5771 2.13432e-17
9467.7744 2.08278e-17
9468.9707 2.15646e-17
9470.168 2.40418e-17
9471.3643 2.16345e-17
9472.5605 2.09668e-17
9473.7578 2.28828e-17
9474.9541 1.76062e-17
9476.1514 1.80213e-17
9477.3477 9.94203e-18
9478.5439 2.40938e-17
9479.7412 2.40666e-17
9480.9375 2.09075e-17
9482.1338 2.1019e-17
9483.3301 2.84288e-17
9484.5273 2.53123e-17
9485.7236 2.40204e-17
9486.9199 2.40354e-17
9488.1162 1.98378e-17
9489.3135 2.44385e-17
9490.5098 1.97929e-17
9491.7061 2.30078e-17
9492.9023 2.34007e-17
9494.0986 2.17771e-17
9495.2949 2.3197e-17
9496.4912 2.41313e-17
9497.6875 2.29236e-17
9498.8838 2.33852e-17
9500.0811 2.84042e-17
9501.2773 2.2469e-17
9502.4736 2.40376e-17
9503.6699 2.38848e-17
9504.8652 3.00454e-17
9506.0615 2.44295e-17
9507.2578 2.49001e-17
9508.4541 2.21503e-17
9509.6504 2.14287e-17
9510.8467 1.80359e-17
9512.043 2.11588e-17
9513.2393 2.6413e-17
9514.4355 2.03004e-17
9515.6318 2.15925e-17
9516.8271 2.20897e-17
9518.0234 1.9751e-17
9519.2197 2.15101e-17
9520.416 2.18777e-17
9521.6113 2.23063e-17
9522.8076 1.50559e-17
9524.0039 2.21966e-17
9525.2002 2.25679e-17
9526.3955 2.54013e-17
9527.5918 2.35969e-17
9528.7881 2.27304e-17
9529.9834 1.70006e-17
9531.1797 2.7336e-17
9532.376 1.8999e-17
9533.5713 2.15067e-17
9534.7676 2.05511e-17
9535.9629 2.26848e-17
9537.1592 1.7312e-17
9538.3545 2.05976e-17
9539.5508 2.21824e-17
9540.7461 2.11348e-17
9541.9424 2.17059e-17
9543.1377 1.65932e-17
9544.334 2.14029e-17
9545.5293 2.42712e-17
9546.7246 2.12739e-17
9547.9209 2.10172e-17
9549.1162 2.29395e-17
9550.3125 2.46211e-17
9551.5078 2.15121e-17
9552.7031 2.20145e-17
9553.8984 1.84549e-17
9555.0947 2.23321e-17
9556.29 1.86104e-17
9557.4854 1.85808e-17
9558.6816 1.88254e-17
9559.877 2.03439e-17
9561.0723 1.37667e-17
9562.2676 2.15817e-17
9563.4629 1.65263e-17
9564.6592 1.77215e-17
9565.8545 1.95163e-17
9567.0498 1.88311e-17
9568.2451 1.95819e-17
9569.4404 2.16279e-17
9570.6357 1.59725e-17
9571.8311 1.69258e-17
9573.0264 2.24871e-17
9574.2217 2.44194e-17
9575.417 1.96186e-17
9576.6123 2.13406e-17
9577.8076 2.25404e-17
9579.0029 2.04082e-17
9580.1982 1.92068e-17
9581.3936 2.31933e-17
9582.5889 2.03943e-17
9583.7842 1.93123e-17
9584.9795 1.8753e-17
9586.1738 2.19002e-17
9587.3691 1.96051e-17
9588.5645 2.38558e-17
9589.7598 2.17069e-17
9590.9551 2.1667e-17
9592.1494 1.85563e-17
9593.3447 2.61431e-17
9594.54 2.42019e-17
9595.7354 1.78878e-17
9596.9297 2.31612e-17
9598.125 1.80331e-17
9599.3203 2.11582e-17
9600.5146 2.28862e-17
9601.71 1.89475e-17
9602.9053 1.97958e-17
9604.0996 2.03564e-17
9605.2949 1.80999e-17
9606.4893 2.46641e-17
9607.6846 2.0465e-17
9608.8799 2.06851e-17
9610.0742 1.99348e-17
9611.2695 2.089e-17
9612.4639 2.02155e-17
9613.6592 1.59982e-17
9614.8535 1.98139e-17
9616.0479 1.90112e-17
9617.2432 1.91994e-17
9618.4375 2.48131e-17
9619.6328 1.72281e-17
9620.8271 2.02837e-17
9622.0215 1.79344e-17
9623.2168 2.33453e-17
9624.4111 2.09106e-17
9625.6055 2.23305e-17
9626.8008 2.44119e-17
9627.9951 2.35641e-17
9629.1895 2.33517e-17
9630.3848 1.99673e-17
9631.5791 1.84709e-17
9632.7734 1.9781e-17
9633.9678 1.9799e-17
9635.1621 2.00578e-17
9636.3564 1.93414e-17
9637.5518 2.12752e-17
9638.7461 2.16743e-17
9639.9404 2.26097e-17
9641.1348 2.2467e-17
9642.3291 2.20751e-17
9643.5234 2.12442e-17
9644.7178 2.19562e-17
9645.9121 1.9725e-17
9647.1064 2.0338e-17
9648.3008 2.03476e-17
9649.4951 2.30227e-17
9650.6895 2.37819e-17
9651.8838 1.84163e-17
9653.0781 1.95646e-17
9654.2725 1.85241e-17
9655.4668 2.15586e-17
9656.6611 2.08104e-17
9657.8555 1.76845e-17
9659.0488 1.98274e-17
9660.2432 1.78773e-17
9661.4375 1.90815e-17
9662.6318 2.4692e-17
9663.8262 2.17173e-17
9665.0195 2.24476e-17
9666.2139 1.9636e-17
9667.4082 1.83415e-17
9668.6016 1.87422e-17
9669.7959 2.10718e-17
9670.9902 1.75608e-17
9672.1846 1.86352e-17
9673.3779 2.10169e-17
9674.5723 2.31901e-17
9675.7656 1.98951e-17
9676.96 2.13551e-17
9678.1543 2.33007e-17
9679.3477 2.38289e-17
9680.542 1.87212e-17
9681.7354 1.83941e-17
9682.9297 2.2211e-17
9684.123 2.00332e-17
9685.3174 1.363e-17
9686.5107 2.08302e-17
9687.7051 2.31371e-17
9688.8984 2.27903e-17
9690.0928 1.65331e-17
9691.2861 1.90636e-17
9692.4795 1.71656e-17
9693.6738 1.93715e-17
9694.8672 1.8926e-17
9696.0605 2.07266e-17
9697.2549 2.03688e-17
9698.4482 1.8718e-17
9699.6416 1.60899e-17
9700.835 2.0064e-17
9702.0293 2.01659e-17
9703.2227 1.7278e-17
9704.416 1.96049e-17
9705.6094 1.94877e-17
9706.8037 1.94851e-17
9707.9971 1.96267e-17
9709.1904 1.86183e-17
9710.3838 2.44914e-17
9711.5771 1.56262e-17
9712.7705 1.67072e-17
9713.9639 1.93046e-17
9715.1572 1.82728e-17
9716.3516 1.61929e-17
9717.5449 1.65463e-17
9718.7383 2.53584e-17
9719.9316 2.15337e-17
9721.125 2.39733e-17
9722.3184 2.43888e-17
9723.5107 1.93931e-17
9724.7041 1.89319e-17
9725.8975 1.98322e-17
9727.0908 2.04911e-17
9728.2842 2.13103e-17
9729.4775 1.94194e-17
9730.6709 1.80058e-17
9731.8643 1.80295e-17
9733.0576 2.06615e-17
9734.25 1.94974e-17
9735.4434 1.42137e-17
9736.6367 1.95005e-17
9737.8301 1.87656e-17
9739.0234 1.73419e-17
9740.2158 1.80052e-17
9741.4092 1.92703e-17
9742.6025 1.82224e-17
9743.7949 1.64274e-17
9744.9883 2.35986e-17
9746.1816 1.68995e-17
9747.374 2.00702e-17
9748.5674 1.90152e-17
9749.7607 1.93318e-17
9750.9531 2.25249e-17
9752.1465 1.57678e-17
9753.3389 1.70538e-17
9754.5322 1.96512e-17
9755.7246 2.26127e-17
9756.918 1.89242e-17
9758.1104 1.81575e-17
9759.3037 1.98263e-17
9760.4961 1.9892e-17
9761.6895 2.16442e-17
9762.8818 2.32562e-17
9764.0752 1.96379e-17
9765.2676 1.81065e-17
9766.46 2.19905e-17
9767.6533 1.86051e-17
9768.8457 2.27189e-17
9770.0381 2.18744e-17
9771.2314 2.32668e-17
9772.4238 2.28361e-17
9773.6162 1.79895e-17
9774.8096 2.15073e-17
9776.002 2.11467e-17
9777.1943 2.25421e-17
9778.3867 2.00167e-17
9779.5801 2.13694e-17
9780.7725 2.0351e-17
9781.9648 2.12666e-17
9783.1572 1.99127e-17
9784.3496 1.7227e-17
9785.542 2.23639e-17
9786.7354 2.04508e-17
9787.9277 2.82839e-17
9789.1201 2.93782e-17
9790.3125 2.65088e-17
9791.5049 1.40912e-17
9792.6973 2.12984e-17
9793.8896 1.7669e-17
9795.082 1.51587e-17
9796.2744 2.08528e-17
9797.4668 2.73477e-17
9798.6592 1.93536e-17
9799.8516 1.88211e-17
9801.0439 1.88041e-17
9802.2363 2.34014e-17
9803.4287 1.73139e-17
9804.6201 1.99762e-17
9805.8125 2.45625e-17
9807.0049 1.66593e-17
9808.1973 2.34973e-17
9809.3896 2.32988e-17
9810.582 1.47677e-17
9811.7744 1.9541e-17
9812.9658 2.7927e-17
9814.1582 1.81774e-17
9815.3506 2.45674e-17
9816.543 1.7476e-17
9817.7344 2.47522e-17
9818.9268 2.18761e-17
9820.1191 2.08257e-17
9821.3105 2.37417e-17
9822.5029 2.12887e-17
9823.6953 1.73709e-17
9824.8867 2.33006e-17
9826.0791 2.35895e-17
9827.2715 2.13434e-17
9828.4629 2.08384e-17
9829.6553 2.13856e-17
9830.8467 2.26384e-17
9832.0391 2.24914e-17
9833.2305 2.17162e-17
9834.4229 2.03413e-17
9835.6143 2.03291e-17
9836.8066 2.12822e-17
9837.998 2.25662e-17
9839.1904 2.18082e-17
9840.3818 2.20855e-17
9841.5742 1.93604e-17
9842.7656 1.88604e-17
9843.957 1.97208e-17
9845.1494 2.36879e-17
9846.3408 2.46385e-17
9847.5332 2.24816e-17
9848.7246 1.76878e-17
9849.916 2.93386e-17
9851.1084 2.19562e-17
9852.2998 1.84385e-17
9853.4912 2.04037e-17
9854.6826 2.32924e-17
9855.875 2.28086e-17
9857.0664 1.83446e-17
9858.2578 2.20642e-17
9859.4492 2.40851e-17
9860.6416 1.92442e-17
9861.833 2.45084e-17
9863.0244 2.06996e-17
9864.2158 2.14155e-17
9865.4072 2.19347e-17
9866.5986 2.11557e-17
9867.79 2.27336e-17
9868.9824 2.39778e-17
9870.1738 1.781e-17
9871.3652 1.96632e-17
9872.5566 2.00382e-17
9873.748 3.53446e-17
9874.9395 3.06466e-17
9876.1309 1.47933e-17
9877.3223 1.94732e-17
9878.5137 2.33222e-17
9879.7051 1.91391e-17
9880.8965 2.35733e-17
9882.0879 2.27967e-17
9883.2793 1.9716e-17
9884.4707 2.52137e-17
9885.6611 1.91429e-17
9886.8525 2.38603e-17
9888.0439 1.94259e-17
9889.2354 2.28424e-17
9890.4268 1.61033e-17
9891.6182 2.37058e-17
9892.8096 1.42719e-17
9894.0 1.4824e-17
9895.1914 2.7499e-17
9896.3828 2.2712e-17
9897.5742 2.42207e-17
9898.7656 2.19684e-17
9899.9561 2.22305e-17
9901.1475 2.09003e-17
9902.3389 1.94398e-17
9903.5293 2.31699e-17
9904.7207 2.26213e-17
9905.9121 2.52197e-17
9907.1025 2.31769e-17
9908.2939 2.02637e-17
9909.4854 2.25947e-17
9910.6758 2.82445e-17
9911.8672 1.82652e-17
9913.0586 2.78594e-17
9914.249 1.86121e-17
9915.4404 1.48534e-17
9916.6309 2.28281e-17
9917.8223 2.25203e-17
9919.0127 1.87241e-17
9920.2041 2.29712e-17
9921.3945 1.84098e-17
9922.5859 1.89762e-17
9923.7764 2.37294e-17
9924.9678 2.37766e-17
9926.1582 2.22047e-17
9927.3496 1.99402e-17
9928.54 2.68287e-17
9929.7314 1.92416e-17
9930.9219 2.20936e-17
9932.1123 2.15289e-17
9933.3037 2.17584e-17
9934.4941 1.89161e-17
9935.6846 2.33053e-17
9936.876 2.26616e-17
9938.0664 2.56776e-17
9939.2568 1.62599e-17
9940.4482 2.46877e-17
9941.6387 2.45272e-17
9942.8291 1.77382e-17
9944.0205 3.62285e-17
9945.2109 2.61162e-17
9946.4014 1.58994e-17
9947.5918 3.01425e-17
9948.7832 2.4723e-17
9949.9736 1.86456e-17
9951.1641 2.07455e-17
9952.3545 2.56926e-17
9953.5449 2.72298e-17
9954.7354 1.8433e-17
9955.9268 2.24352e-17
9957.1172 2.42916e-17
9958.3076 1.86382e-17
9959.498 3.09525e-17
9960.6885 2.5811e-17
9961.8789 1.57828e-17
9963.0693 2.1835e-17
9964.2598 1.91521e-17
9965.4502 1.65914e-17
9966.6406 1.83133e-17
9967.8311 2.35587e-17
9969.0225 1.97009e-17
9970.2119 2.38805e-17
9971.4033 1.92424e-17
9972.5938 2.17504e-17
9973.7842 1.79482e-17
9974.9736 1.72661e-17
9976.1641 2.15597e-17
9977.3545 2.15346e-17
9978.5449 2.08626e-17
9979.7354 2.04224e-17
9980.9258 2.41217e-17
9982.1162 2.3032e-17
9983.3066 1.94694e-17
9984.4971 2.16368e-17
9985.6875 2.30046e-17
9986.877 1.79607e-17
9988.0674 1.95639e-17
9989.2578 2.01558e-17
9990.4482 2.08913e-17
9991.6387 2.08501e-17
9992.8291 2.25374e-17
9994.0186 2.04225e-17
9995.209 2.14076e-17
9996.3994 2.04013e-17
9997.5898 1.99979e-17
9998.7803 1.83777e-17
9999.9697 2.14237e-17
10001.16 2.0413e-17
10002.35 2.0913e-17
10003.54 2.26823e-17
10004.731 1.78332e-17
10005.921 2.54547e-17
10007.111 2.06005e-17
10008.301 2.46366e-17
10009.491 3.2302e-17
10010.681 2.44761e-17
10011.871 1.10676e-17
10013.061 2.16131e-17
10014.251 2.11082e-17
10015.441 2.35949e-17
10016.631 1.39913e-17
10017.821 2.04507e-17
10019.011 1.72748e-17
10020.201 1.94724e-17
10021.391 1.47154e-17
10022.581 1.90978e-17
10023.771 2.08466e-17
10024.961 1.64191e-17
10026.151 2.69482e-17
10027.341 3.20784e-17
10028.531 2.07867e-17
10029.721 1.87041e-17
10030.911 2.17508e-17
10032.101 2.13636e-17
10033.291 2.08196e-17
10034.481 1.8681e-17
10035.671 2.23344e-17
10036.861 1.67465e-17
10038.05 1.94204e-17
10039.24 1.82768e-17
10040.43 2.35772e-17
10041.62 2.00734e-17
10042.81 2.27819e-17
10044.0 1.41951e-17
10045.19 2.64311e-17
10046.379 1.91963e-17
10047.569 1.79685e-17
10048.759 2.33778e-17
10049.949 2.73537e-17
10051.139 2.52865e-17
10052.328 1.85224e-17
10053.518 2.40896e-17
10054.708 1.88842e-17
10055.898 2.28396e-17
10057.087 2.3824e-17
10058.277 2.30711e-17
10059.467 2.09108e-17
10060.656 1.99367e-17
10061.846 1.68872e-17
10063.036 2.06211e-17
10064.226 1.68067e-17
10065.415 1.90963e-17
10066.605 2.93356e-17
10067.795 2.45795e-17
10068.984 1.44292e-17
10070.174 2.01978e-17
10071.364 2.77823e-17
10072.553 1.42659e-17
10073.743 2.66376e-17
10074.933 2.06803e-17
10076.122 2.21499e-17
10077.312 1.53615e-17
10078.501 2.66584e-17
10079.691 2.31084e-17
10080.881 3.32807e-17
10082.07 1.30483e-17
10083.26 1.73064e-17
10084.449 2.85787e-17
10085.639 2.23525e-17
10086.828 2.13762e-17
10088.018 2.03231e-17
10089.208 2.05333e-17
10090.397 1.81754e-17
10091.587 2.07479e-17
10092.776 2.31819e-17
10093.966 2.28502e-17
10095.155 2.23426e-17
10096.345 2.2833e-17
10097.534 2.22702e-17
10098.724 2.25533e-17
10099.913 2.58447e-17
10101.103 1.42415e-17
10102.292 1.80763e-17
10103.482 1.54619e-17
10104.671 1.74678e-17
10105.861 1.58067e-17
10107.05 1.82083e-17
10108.239 1.95693e-17
10109.429 2.12112e-17
10110.618 2.30993e-17
10111.808 2.1148e-17
10112.997 2.05115e-17
10114.187 1.95247e-17
10115.376 2.15888e-17
10116.565 2.47688e-17
10117.755 1.85058e-17
10118.944 2.14407e-17
10120.134 2.00346e-17
10121.323 2.80392e-17
10122.512 3.59457e-17
10123.702 9.03792e-18
10124.891 2.32074e-17
10126.081 2.62926e-17
10127.27 2.26878e-17
10128.459 2.20875e-17
10129.649 1.59161e-17
10130.838 1.19012e-17
10132.027 2.0565e-17
10133.217 1.88146e-17
10134.406 2.03066e-17
10135.595 1.61041e-17
10136.785 1.6748e-17
10137.974 2.01696e-17
10139.163 2.3013e-17
10140.353 1.55098e-17
10141.542 1.81586e-17
10142.731 1.44375e-17
10143.921 1.78233e-17
10145.11 2.39972e-17
10146.299 2.01898e-17
10147.489 1.06099e-17
10148.678 2.45253e-17
10149.867 2.04747e-17
10151.056 1.95631e-17
10152.246 3.01503e-17
10153.435 2.14409e-17
10154.624 1.4956e-17
10155.814 2.29375e-17
10157.003 2.06214e-17
10158.192 1.60991e-17
10159.381 1.70856e-17
10160.571 2.45717e-17
10161.76 1.54868e-17
10162.949 1.33853e-17
10164.138 1.99212e-17
10165.328 2.3271e-17
10166.517 2.3977e-17
10167.706 1.88335e-17
10168.896 1.30248e-17
10170.085 1.85348e-17
10171.274 3.15504e-17
10172.463 2.09003e-17
10173.652 1.56239e-17
10174.842 2.58917e-17
10176.031 2.34529e-17
10177.22 2.01777e-17
10178.409 1.63399e-17
10179.599 2.86722e-17
10180.788 9.55971e-18
10181.977 2.63951e-17
10183.166 2.24403e-17
10184.356 1.60469e-17
10185.545 1.93374e-17
10186.734 2.98123e-17
10187.923 1.53537e-17
10189.112 9.61815e-18
10190.302 2.93854e-17
10191.491 2.09192e-17
10192.68 2.30638e-17
10193.869 1.46896e-17
10195.059 1.78559e-17
10196.248 6.97083e-18
10197.437 2.56021e-17
10198.626 1.77112e-17
10199.815 2.63177e-17
10201.005 1.75264e-17
10202.194 1.08362e-17
10203.383 8.23541e-18
10204.572 2.6912e-17
10205.761 1.59187e-17
10206.951 3.07027e-17
10208.14 2.14477e-17
10209.329 2.95619e-17
10210.518 4.10348e-17
10211.708 3.54741e-17
10212.897 1.41748e-17
10214.086 2.11529e-17
10215.275 1.02807e-17
10216.464 1.76671e-17
10217.654 2.08947e-17
10218.843 1.52597e-17
10220.032 1.79428e-17
10221.221 2.03208e-17
10222.41 2.41072e-17
10223.6 2.92597e-17
10224.789 1.73273e-17
10225.978 7.28427e-18
10227.167 2.55327e-17
10228.357 1.40489e-17
10229.546 1.90133e-17
10230.735 2.48531e-17
10231.924 1.893e-17
10233.113 1.41903e-17
10234.303 1.92269e-17
10235.492 1.66427e-17
10236.681 1.89205e-17
10237.87 2.17409e-17
10239.06 1.8214e-17
10240.249 2.23257e-17
10241.438 2.1762e-17
10242.627 2.41433e-17
10243.817 2.24541e-17
10245.006 1.84451e-17
10246.195 1.40576e-17
10247.384 1.14573e-17
10248.574 6.79058e-18
10249.763 2.02955e-17
10250.952 2.04589e-17
10252.141 2.19797e-17
10253.331 2.41312e-17
10254.52 2.62176e-17
10255.709 2.0075e-17
10256.899 2.27908e-17
10258.088 2.86743e-17
10259.277 1.95981e-17
10260.466 1.89977e-17
10261.656 2.15642e-17
10262.845 2.08454e-17
10264.034 2.50062e-17
10265.224 1.9435e-17
10266.413 2.82604e-17
10267.602 2.55925e-17
10268.792 1.56445e-17
10269.981 2.07908e-17
10271.17 2.85132e-17
10272.36 2.21548e-17
10273.549 1.83655e-17
10274.738 2.40959e-17
10275.928 2.60468e-17
10277.117 1.5297e-17
10278.306 2.67056e-17
10279.496 2.53323e-17
10280.685 1.93513e-17
10281.874 2.28297e-17
10283.064 1.49054e-17
10284.253 3.81475e-17
10285.443 5.178e-17
10286.632 5.00738e-18
10287.821 7.22106e-18
10289.011 2.60065e-18
10290.2 4.12264e-17
10291.39 -2.95605e-18
10292.579 2.73048e-17
10293.769 -1.06982e-18
10294.958 -5.83245e-18
10296.147 3.91936e-17
10297.337 2.6491e-17
10298.526 8.6026e-18
10299.716 2.24957e-17
10300.905 7.76035e-18
10302.095 8.81786e-18
10303.284 1.38398e-17
10304.474 2.50442e-17
10305.663 1.68002e-17
10306.853 1.02547e-17
10308.042 2.54458e-17
10309.232 3.21979e-17
