# Wavelength Flux
# STATUS = PUBLIC
# OBJECT = 2019aamu
# TELESCOPE = Keck1
# INSTRUMENT =
# DATE-OBS = 2020.0124
# MJD =
# EXPTIME =
# SLIT =
# DISPERSER =
# SOURCE = 2023ApJ...943...41C
# FILTER =
# FLUX_STANDARD =
# EXTINCTION_CORRECTED = False
# PHOTOMETRY_CALIBRATED =
# FLUX_UNITS = erg/s/cm^2/Angstroms
# QUALITY =
# MIN_WAVE =
# MAX_WAVE =
# COMMENT =
3062.4207 5.67789e-17
3064.3628 5.97149e-17
3066.3059 5.00738e-17
3068.2495 -4.3075e-17
3070.1936 -1.54288e-17
3072.1384 1.27183e-16
3074.084 -4.1185e-17
3076.03 -7.68482e-17
3077.9768 8.96719e-18
3079.9241 -4.32553e-17
3081.8721 7.70599e-18
3083.8206 2.21347e-17
3085.7698 -7.58238e-18
3087.7195 -2.55588e-17
3089.6699 4.86654e-17
3091.6211 -1.44986e-17
3093.5725 5.42389e-17
3095.5249 -2.28163e-18
3097.4778 1.7474e-17
3099.4312 5.62959e-18
3101.3853 4.00134e-18
3103.3401 -7.47941e-18
3105.2954 5.90597e-18
3107.2512 -4.88813e-17
3109.2078 -1.10008e-18
3111.165 2.11451e-17
3113.1228 -3.07778e-18
3115.0811 -9.77576e-18
3117.04 -1.72631e-17
3118.9995 1.82376e-17
3120.9597 2.91939e-17
3122.9204 2.78233e-17
3124.8818 1.59219e-17
3126.8438 -1.49085e-17
3128.8064 2.27913e-17
3130.7695 1.28028e-17
3132.7334 2.35005e-17
3134.6975 -1.02099e-17
3136.6626 2.56096e-17
3138.6282 -1.3311e-17
3140.5942 1.41223e-17
3142.561 -2.74073e-18
3144.5283 -1.55268e-17
3146.4963 1.30015e-17
3148.4648 -7.06659e-18
3150.4338 5.4023e-18
3152.4036 1.23682e-17
3154.3738 1.25783e-18
3156.3447 -2.84584e-18
3158.3162 6.69713e-18
3160.2881 -3.35471e-18
3162.2607 1.71853e-17
3164.2339 -1.38807e-17
3166.2078 8.80143e-18
3168.1821 3.35178e-18
3170.157 -4.67491e-18
3172.1326 -8.86765e-18
3174.1086 -9.70473e-19
3176.0854 1.73968e-17
3178.0627 -8.11561e-18
3180.0405 1.11164e-17
3182.0188 -4.69659e-18
3183.9978 -2.0934e-17
3185.9775 1.60903e-17
3187.9575 -4.77776e-18
3189.9382 -2.92834e-17
3191.9197 1.31096e-17
3193.9016 -1.10279e-17
3195.8838 7.625e-18
3197.8669 7.9659e-18
3199.8503 1.09081e-17
3201.8347 1.63015e-18
3203.8193 -9.30225e-18
3205.8044 -7.73691e-18
3207.7903 1.55664e-17
3209.7766 -1.25693e-18
3211.7637 3.14373e-18
3213.7512 2.10444e-17
3215.7393 2.51402e-17
3217.7278 8.62019e-18
3219.717 2.23623e-17
3221.7068 3.50074e-18
3223.6973 9.64847e-19
3225.688 6.68842e-18
3227.6794 1.72073e-17
3229.6714 3.04135e-17
3231.6641 1.50494e-18
3233.657 2.01472e-17
3235.6506 1.1752e-17
3237.645 2.90203e-18
3239.6396 2.07615e-18
3241.635 -6.42838e-18
3243.6309 9.86089e-18
3245.6272 3.04877e-18
3247.624 2.40486e-18
3249.6216 1.39054e-17
3251.6196 4.84446e-18
3253.6182 -4.36073e-18
3255.6172 1.22716e-18
3257.6169 9.3838e-19
3259.6172 1.28279e-17
3261.6179 -4.62149e-18
3263.6191 3.12037e-17
3265.6211 7.28755e-18
3267.6233 5.98102e-18
3269.6262 3.47856e-18
3271.6299 5.23756e-18
3273.6338 1.52838e-17
3275.6382 1.14727e-17
3277.6433 9.54827e-18
3279.6489 1.01298e-17
3281.655 -1.02993e-18
3283.6616 -1.23938e-18
3285.6689 1.02436e-17
3287.6765 1.57769e-17
3289.6848 6.53781e-18
3291.6936 1.7422e-17
3293.7029 -4.74416e-18
3295.7126 -3.98704e-18
3297.7231 2.8259e-18
3299.7339 -2.4864e-18
3301.7454 -5.58573e-18
3303.7573 1.76123e-18
3305.7698 -2.2464e-18
3307.7827 -2.00504e-18
3309.7961 4.28986e-18
3311.8103 7.33233e-18
3313.8247 1.26972e-17
3315.8398 6.64584e-18
3317.8555 -1.56825e-18
3319.8716 1.28605e-19
3321.8882 1.84682e-17
3323.9053 5.55265e-19
3325.9229 6.87445e-18
3327.9409 -8.77538e-19
3329.9597 8.80932e-18
3331.9788 -9.05946e-18
3333.9985 6.50459e-18
3336.0188 -4.02455e-18
3338.0393 -2.99563e-19
3340.0605 -4.02733e-18
3342.0823 6.71759e-18
3344.1045 6.63027e-18
3346.1272 -3.21791e-18
3348.1506 2.51769e-18
3350.1743 6.77165e-18
3352.1985 4.48631e-18
3354.2234 8.12596e-18
3356.2485 2.63656e-18
3358.2744 3.33744e-18
3360.3005 1.68805e-19
3362.3274 4.38413e-18
3364.3545 7.53281e-18
3366.3823 6.39508e-18
3368.4106 1.54343e-19
3370.4392 -6.83996e-18
3372.4685 3.91558e-18
3374.4983 1.55321e-18
3376.5286 -3.29214e-19
3378.5591 5.9358e-19
3380.5906 6.78523e-18
3382.6223 5.49135e-18
3384.6543 -7.52202e-18
3386.687 4.3331e-18
3388.7202 5.399e-18
3390.7539 4.0074e-18
3392.7881 4.79958e-18
3394.8228 7.18026e-18
3396.8579 1.5723e-18
3398.8933 4.65232e-18
3400.9294 -6.67768e-18
3402.9661 4.90073e-18
3405.0032 2.74922e-18
3407.0405 -4.27982e-18
3409.0786 4.6549e-20
3411.1172 -1.9644e-18
3413.156 -3.65375e-18
3415.1956 4.04555e-18
3417.2356 8.99958e-18
3419.2759 4.48565e-18
3421.3169 -2.58512e-18
3423.3582 6.94696e-18
3425.3999 6.65482e-18
3427.4424 5.16882e-18
3429.4851 8.33553e-18
3431.5283 5.29073e-18
3433.572 4.52409e-18
3435.6162 7.173e-18
3437.6609 1.21409e-17
3439.7058 7.99615e-18
3441.7515 6.58519e-18
3443.7976 7.84921e-18
3445.844 2.79184e-18
3447.8911 1.02623e-18
3449.9385 1.38468e-18
3451.9866 4.64258e-18
3454.0349 1.46281e-17
3456.0837 1.61417e-17
3458.1331 1.12823e-17
3460.1826 9.67944e-18
3462.2329 9.94973e-18
3464.2837 3.98028e-18
3466.3347 3.63974e-18
3468.3862 9.95432e-18
3470.4385 9.74336e-18
3472.491 1.18018e-17
3474.5437 3.55332e-18
3476.5972 6.81995e-18
3478.6511 2.64545e-18
3480.7053 9.29809e-18
3482.7603 1.4734e-17
3484.8154 8.62149e-18
3486.8711 6.40105e-18
3488.9272 1.15502e-17
3490.9836 5.65556e-18
3493.0408 5.01604e-18
3495.0981 1.34382e-18
3497.156 4.88148e-18
3499.2144 6.99823e-18
3501.2732 1.30843e-17
3503.3325 3.299e-18
3505.3921 4.79284e-18
3507.4521 9.85818e-18
3509.5127 4.67209e-18
3511.5737 5.84344e-18
3513.635 1.57577e-17
3515.697 1.11168e-17
3517.7593 4.22573e-18
3519.822 5.37649e-18
3521.8853 1.1908e-17
3523.9487 1.0091e-17
3526.0129 8.25835e-18
3528.0774 1.78774e-18
3530.1423 7.71641e-18
3532.2075 1.01776e-17
3534.2734 8.35479e-18
3536.3396 1.54357e-17
3538.4062 9.51888e-18
3540.4734 7.96965e-18
3542.5408 1.398e-17
3544.6086 8.03287e-18
3546.677 1.23245e-17
3548.7458 1.1557e-17
3550.8149 1.09566e-17
3552.8845 1.14972e-17
3554.9546 1.57805e-17
3557.0249 1.37735e-17
3559.0959 1.19868e-17
3561.1672 8.72902e-18
3563.239 1.63473e-17
3565.311 1.03478e-17
3567.3835 1.22533e-17
3569.4565 1.33784e-17
3571.53 1.36574e-17
3573.6038 1.49402e-17
3575.678 1.14725e-17
3577.7527 8.27371e-18
3579.8276 1.23226e-17
3581.9031 1.16002e-17
3583.979 8.82428e-18
3586.0552 7.54301e-18
3588.1318 7.05835e-18
3590.209 1.0812e-18
3592.2866 8.96979e-18
3594.3645 9.14893e-18
3596.4426 1.08016e-17
3598.5215 6.66679e-18
3600.6006 5.47653e-18
3602.6802 1.23124e-18
3604.76 6.87044e-18
3606.8403 2.2317e-18
3608.9211 1.16152e-17
3611.0022 5.92517e-18
3613.0837 9.14369e-18
3615.1658 5.69899e-18
3617.248 6.91027e-18
3619.3308 7.69134e-18
3621.4141 8.72563e-18
3623.4976 1.03041e-17
3625.5813 4.82579e-18
3627.6658 7.50984e-18
3629.7505 8.56031e-18
3631.8357 6.5978e-18
3633.9211 1.01337e-17
3636.0071 1.15065e-17
3638.0933 8.93126e-18
3640.1799 1.45927e-17
3642.2671 8.89739e-18
3644.3545 8.14066e-18
3646.4424 1.06065e-17
3648.5305 1.21656e-17
3650.6191 5.90393e-18
3652.7083 5.68028e-18
3654.7976 6.46454e-18
3656.8872 1.16738e-17
3658.9775 2.91552e-18
3661.0681 7.22503e-18
3663.1589 1.60999e-17
3665.2502 8.80322e-18
3667.3418 7.66564e-18
3669.4341 1.04915e-17
3671.5264 1.24752e-17
3673.6191 1.07075e-17
3675.7124 8.20824e-18
3677.8059 1.47105e-17
3679.8999 1.0836e-17
3681.9941 1.1127e-17
3684.0889 9.81322e-18
3686.1841 1.32499e-17
3688.2793 8.31555e-18
3690.3752 1.28279e-17
3692.4714 1.36719e-17
3694.5679 1.16804e-17
3696.6648 1.5553e-17
3698.7622 1.87753e-17
3700.8599 1.21842e-17
3702.9578 1.14453e-17
3705.0562 1.66692e-17
3707.1548 1.76325e-17
3709.2542 1.5597e-17
3711.3535 1.73209e-17
3713.4534 1.8809e-17
3715.5537 2.11177e-17
3717.6543 1.70094e-17
3719.7551 1.83514e-17
3721.8564 1.97879e-17
3723.958 1.87624e-17
3726.0601 1.96603e-17
3728.1624 2.13023e-17
3730.2651 1.38896e-17
3732.3682 1.50485e-17
3734.4717 2.24071e-17
3736.5754 2.18058e-17
3738.6794 2.11619e-17
3740.7839 1.6024e-17
3742.8889 1.9762e-17
3744.9941 1.98616e-17
3747.0996 1.32787e-17
3749.2056 2.19016e-17
3751.3118 1.6786e-17
3753.4185 2.35489e-17
3755.5254 2.03712e-17
3757.6326 1.64413e-17
3759.7402 1.54237e-17
3761.8481 1.69893e-17
3763.9565 1.61497e-17
3766.0652 1.46572e-17
3768.1743 1.51684e-17
3770.2837 2.09596e-17
3772.3933 1.39782e-17
3774.5034 1.91327e-17
3776.6138 1.68028e-17
3778.7244 1.30223e-17
3780.8354 1.8844e-17
3782.947 2.07821e-17
3785.0586 1.81754e-17
3787.1707 1.73633e-17
3789.2832 1.44e-17
3791.3958 1.5771e-17
3793.5088 1.6938e-17
3795.6223 2.10222e-17
3797.7361 1.30317e-17
3799.8501 1.16716e-17
3801.9646 1.54641e-17
3804.0793 1.44449e-17
3806.1943 1.76604e-17
3808.3098 1.48609e-17
3810.4255 8.39885e-18
3812.5415 1.21655e-17
3814.658 7.26919e-18
3816.7747 8.0683e-18
3818.8916 1.13271e-17
3821.009 1.23273e-17
3823.1267 1.20914e-17
3825.2446 9.90805e-18
3827.363 1.06948e-17
3829.4817 8.12284e-18
3831.6006 6.69932e-18
3833.72 1.2746e-17
3835.8396 7.79313e-18
3837.9595 9.69567e-18
3840.0796 4.56513e-18
3842.2002 4.73135e-18
3844.321 7.774e-18
3846.4424 9.36655e-18
3848.5637 1.29756e-17
3850.6858 1.17828e-17
3852.8079 8.45647e-18
3854.9302 1.03036e-17
3857.053 1.65004e-17
3859.176 1.03262e-17
3861.2996 1.29265e-17
3863.4231 1.58308e-17
3865.5471 1.59435e-17
3867.6714 1.05768e-17
3869.7961 1.21764e-17
3871.9209 1.66407e-17
3874.0461 1.83284e-17
3876.1719 1.13669e-17
3878.2976 1.55498e-17
3880.4238 1.44262e-17
3882.5503 1.53383e-17
3884.677 1.12752e-17
3886.804 1.69495e-17
3888.9314 1.71629e-17
3891.0591 1.65082e-17
3893.187 1.48052e-17
3895.3152 1.16671e-17
3897.4438 1.75466e-17
3899.5728 1.78504e-17
3901.7019 1.37835e-17
3903.8313 1.40523e-17
3905.9609 1.58053e-17
3908.0911 1.64601e-17
3910.2214 1.67279e-17
3912.3521 1.4416e-17
3914.4829 1.10986e-17
3916.614 1.84683e-17
3918.7456 1.68596e-17
3920.8774 1.48657e-17
3923.0095 1.21892e-17
3925.1418 1.6451e-17
3927.2744 1.42247e-17
3929.4075 1.651e-17
3931.5408 1.24894e-17
3933.6743 1.47051e-17
3935.8081 1.24119e-17
3937.9421 1.07275e-17
3940.0764 1.71298e-17
3942.2112 1.06719e-17
3944.3459 1.13563e-17
3946.4812 1.48533e-17
3948.6167 1.26628e-17
3950.7524 1.60045e-17
3952.8887 1.53766e-17
3955.0249 1.27509e-17
3957.1616 1.53662e-17
3959.2983 1.16974e-17
3961.4355 1.30916e-17
3963.573 1.85805e-17
3965.7107 1.52288e-17
3967.8489 1.34469e-17
3969.9871 1.39973e-17
3972.1255 1.55146e-17
3974.2644 1.29643e-17
3976.4036 1.85064e-17
3978.543 1.43604e-17
3980.6826 1.61878e-17
3982.8225 1.09966e-17
3984.9626 1.8308e-17
3987.103 1.63671e-17
3989.2437 1.24845e-17
3991.3848 1.61368e-17
3993.5259 1.99304e-17
3995.6675 1.64493e-17
3997.8091 1.52829e-17
3999.9514 1.91876e-17
4002.0935 1.85073e-17
4004.2361 1.62602e-17
4006.3789 1.62396e-17
4008.5222 1.73228e-17
4010.6653 1.72725e-17
4012.8091 1.91926e-17
4014.9529 1.48957e-17
4017.0969 1.65463e-17
4019.2415 1.48245e-17
4021.386 2.11944e-17
4023.531 2.06095e-17
4025.676 2.08744e-17
4027.8215 1.95375e-17
4029.9673 1.38805e-17
4032.113 2.12478e-17
4034.2593 1.80389e-17
4036.4058 1.88258e-17
4038.5525 2.3805e-17
4040.6992 1.81246e-17
4042.8464 2.17086e-17
4044.9939 1.94061e-17
4047.1416 1.87596e-17
4049.2896 1.55979e-17
4051.4377 1.79186e-17
4053.5862 2.01624e-17
4055.7349 1.9446e-17
4057.8838 1.9701e-17
4060.033 2.1583e-17
4062.1824 2.18261e-17
4064.332 2.00048e-17
4066.4819 2.08085e-17
4068.6321 2.0463e-17
4070.7825 2.18534e-17
4072.9331 1.97178e-17
4075.084 2.14562e-17
4077.2351 2.33114e-17
4079.3862 2.22442e-17
4081.5378 2.49716e-17
4083.6897 2.04026e-17
4085.8418 1.79079e-17
4087.9941 1.89251e-17
4090.1465 1.87281e-17
4092.2993 2.14053e-17
4094.4524 2.21923e-17
4096.6055 1.95322e-17
4098.7588 1.75856e-17
4100.9126 1.7036e-17
4103.0669 2.13962e-17
4105.2207 1.88998e-17
4107.375 1.90467e-17
4109.5298 2.24175e-17
4111.6846 1.92725e-17
4113.8398 1.94754e-17
4115.9951 1.73226e-17
4118.1504 1.7719e-17
4120.3062 1.61511e-17
4122.4624 2.37685e-17
4124.6187 2.009e-17
4126.7749 1.72854e-17
4128.9316 1.75747e-17
4131.0884 1.73829e-17
4133.2456 1.82772e-17
4135.4028 1.85875e-17
4137.5605 1.60615e-17
4139.7183 1.83376e-17
4141.8765 1.56124e-17
4144.0347 1.84841e-17
4146.1929 2.03852e-17
4148.3516 1.65882e-17
4150.5103 1.50816e-17
4152.6694 1.64948e-17
4154.8286 1.73386e-17
4156.9883 2.20101e-17
4159.1479 1.52112e-17
4161.3081 1.51679e-17
4163.4683 1.88086e-17
4165.6284 1.81519e-17
4167.7891 1.58394e-17
4169.9497 1.76258e-17
4172.1108 1.77763e-17
4174.272 1.99522e-17
4176.4336 1.86199e-17
4178.5952 1.51344e-17
4180.7568 1.75039e-17
4182.9189 1.8868e-17
4185.0811 1.48203e-17
4187.2437 1.57022e-17
4189.4062 1.63579e-17
4191.5693 1.72562e-17
4193.7324 2.0954e-17
4195.8955 2.14115e-17
4198.0591 1.9105e-17
4200.2227 1.85571e-17
4202.3867 1.92238e-17
4204.5508 1.9429e-17
4206.7148 1.39712e-17
4208.8794 2.12715e-17
4211.0444 2.02248e-17
4213.209 1.79623e-17
4215.374 1.76342e-17
4217.5396 1.68226e-17
4219.7051 1.8323e-17
4221.8706 1.70511e-17
4224.0366 1.64206e-17
4226.2026 2.30044e-17
4228.3687 1.96785e-17
4230.5352 2.0605e-17
4232.7021 2.07839e-17
4234.8687 1.87913e-17
4237.0356 2.20665e-17
4239.2031 1.86473e-17
4241.3706 2.02751e-17
4243.5381 2.26153e-17
4245.7061 2.09704e-17
4247.874 2.221e-17
4250.042 1.69082e-17
4252.2104 1.69635e-17
4254.3789 1.88433e-17
4256.5479 1.96381e-17
4258.7168 2.00939e-17
4260.8857 2.03713e-17
4263.0552 2.13644e-17
4265.2246 1.8188e-17
4267.394 1.60547e-17
4269.564 1.71828e-17
4271.7339 2.08382e-17
4273.9043 1.72514e-17
4276.0747 1.44176e-17
4278.2451 1.87206e-17
4280.416 2.07428e-17
4282.5869 1.53526e-17
4284.7578 2.18541e-17
4286.9292 1.94892e-17
4289.1006 1.91768e-17
4291.2725 2.04633e-17
4293.4443 1.70636e-17
4295.6162 1.92454e-17
4297.7881 1.93749e-17
4299.9609 2.14311e-17
4302.1333 1.75015e-17
4304.3057 1.8604e-17
4306.4785 2.1268e-17
4308.6519 1.81943e-17
4310.8247 1.97157e-17
4312.9985 2.30972e-17
4315.1719 1.98022e-17
4317.3457 1.83347e-17
4319.5195 2.13659e-17
4321.6934 1.8997e-17
4323.8677 2.03584e-17
4326.042 1.9566e-17
4328.2168 2.25605e-17
4330.3916 1.94016e-17
4332.5664 2.01579e-17
4334.7412 2.0421e-17
4336.9165 1.9661e-17
4339.0918 2.15028e-17
4341.2676 2.13515e-17
4343.4429 2.02785e-17
4345.6191 2.30571e-17
4347.7949 2.57077e-17
4349.9712 1.80638e-17
4352.1475 2.18789e-17
4354.3242 2.30129e-17
4356.5005 2.19169e-17
4358.6777 2.41493e-17
4360.8545 2.28693e-17
4363.0317 1.94496e-17
4365.209 2.41448e-17
4367.3862 2.01177e-17
4369.564 2.05111e-17
4371.7417 2.02759e-17
4373.9194 1.99226e-17
4376.0977 2.19692e-17
4378.2759 2.30809e-17
4380.4541 2.12394e-17
4382.6328 2.17179e-17
4384.8115 2.30281e-17
4386.9902 2.11969e-17
4389.1694 2.48132e-17
4391.3486 2.3324e-17
4393.5278 2.18849e-17
4395.707 2.07942e-17
4397.8867 2.15107e-17
4400.0664 2.22962e-17
4402.2461 2.22111e-17
4404.4263 2.00622e-17
4406.6064 2.24841e-17
4408.7866 2.35076e-17
4410.9673 2.16052e-17
4413.1479 2.05867e-17
4415.3286 2.24442e-17
4417.5093 2.27823e-17
4419.6904 1.92244e-17
4421.8716 2.07546e-17
4424.0527 2.01134e-17
4426.2344 2.35281e-17
4428.416 1.83356e-17
4430.5977 2.43342e-17
4432.7798 2.21288e-17
4434.9614 2.26163e-17
4437.1436 2.09712e-17
4439.3262 2.09203e-17
4441.5083 2.33061e-17
4443.6909 2.36531e-17
4445.8735 2.018e-17
4448.0566 2.27144e-17
4450.2393 1.76966e-17
4452.4224 2.36869e-17
4454.606 2.16438e-17
4456.7891 2.41006e-17
4458.9727 1.96038e-17
4461.1562 2.32155e-17
4463.3398 2.15026e-17
4465.5239 1.9952e-17
4467.708 2.42414e-17
4469.8921 2.29284e-17
4472.0762 2.13007e-17
4474.2607 2.14215e-17
4476.4453 2.26263e-17
4478.6299 2.27217e-17
4480.8149 2.02456e-17
4482.9995 2.2093e-17
4485.1846 2.37748e-17
4487.3696 2.40194e-17
4489.5552 2.5974e-17
4491.7407 2.83256e-17
4493.9263 2.0412e-17
4496.1118 2.07307e-17
4498.2974 2.14994e-17
4500.4834 2.35846e-17
4502.6694 2.16443e-17
4504.8555 2.47284e-17
4507.042 2.52567e-17
4509.2285 2.30097e-17
4511.415 2.88882e-17
4513.6016 2.71051e-17
4515.7881 2.65784e-17
4517.9751 2.74077e-17
4520.1621 2.58558e-17
4522.3491 2.44613e-17
4524.5361 2.39704e-17
4526.7236 2.58467e-17
4528.9111 2.95901e-17
4531.0986 2.63656e-17
4533.2866 2.7992e-17
4535.4741 2.59673e-17
4537.6621 2.62214e-17
4539.8501 2.50559e-17
4542.0381 2.56528e-17
4544.2266 2.58966e-17
4546.415 2.63412e-17
4548.6035 3.02588e-17
4550.792 2.50198e-17
4552.9805 2.0809e-17
4555.1694 2.29551e-17
4557.3584 2.63282e-17
4559.5474 2.72685e-17
4561.7363 2.41261e-17
4563.9258 2.2852e-17
4566.1147 2.51635e-17
4568.3042 2.35534e-17
4570.4941 2.60996e-17
4572.6836 2.51395e-17
4574.8735 2.42451e-17
4577.063 2.62389e-17
4579.2529 2.32714e-17
4581.4434 2.62987e-17
4583.6333 1.88439e-17
4585.8237 2.40576e-17
4588.0142 3.00815e-17
4590.2046 2.44487e-17
4592.395 2.57526e-17
4594.5859 2.626e-17
4596.7764 2.6463e-17
4598.9673 2.41981e-17
4601.1582 2.16157e-17
4603.3496 2.29167e-17
4605.5405 2.12568e-17
4607.7319 2.02888e-17
4609.9233 2.0423e-17
4612.1147 2.38194e-17
4614.3062 2.24327e-17
4616.498 2.58734e-17
4618.6895 2.39262e-17
4620.8813 2.32849e-17
4623.0732 2.3007e-17
4625.2656 2.14437e-17
4627.4575 2.26287e-17
4629.6499 2.08728e-17
4631.8423 2.48374e-17
4634.0347 2.56303e-17
4636.2271 2.6537e-17
4638.4194 2.20385e-17
4640.6123 2.53283e-17
4642.8052 2.48465e-17
4644.9976 2.22647e-17
4647.1909 2.61017e-17
4649.3838 2.37923e-17
4651.5767 2.37347e-17
4653.77 2.49146e-17
4655.9634 2.5334e-17
4658.1567 2.58161e-17
4660.3501 2.25906e-17
4662.5435 2.73352e-17
4664.7373 3.06832e-17
4666.9312 2.57326e-17
4669.125 2.86153e-17
4671.3188 2.66117e-17
4673.5127 3.11729e-17
4675.707 2.49587e-17
4677.9009 2.92622e-17
4680.0952 3.01822e-17
4682.2896 2.60842e-17
4684.4839 2.78824e-17
4686.6782 2.74674e-17
4688.8726 3.07283e-17
4691.0674 2.99834e-17
4693.2622 3.09589e-17
4695.457 3.23292e-17
4697.6519 2.93449e-17
4699.8467 2.92481e-17
4702.0415 3.28177e-17
4704.2368 2.94667e-17
4706.4316 2.741e-17
4708.627 2.76044e-17
4710.8223 2.7678e-17
4713.0176 3.07279e-17
4715.2134 2.90663e-17
4717.4087 2.71193e-17
4719.6045 3.06432e-17
4721.7998 2.90136e-17
4723.9956 3.02992e-17
4726.1914 2.75958e-17
4728.3872 2.9742e-17
4730.5835 2.96814e-17
4732.7793 2.79549e-17
4734.9756 3.01974e-17
4737.1719 2.59308e-17
4739.3682 2.58462e-17
4741.5645 3.05099e-17
4743.7607 3.21724e-17
4745.957 2.92604e-17
4748.1538 2.80574e-17
4750.3501 2.85394e-17
4752.5469 2.64126e-17
4754.7437 2.73447e-17
4756.9404 3.01884e-17
4759.1372 2.79868e-17
4761.334 2.9128e-17
4763.5312 2.68258e-17
4765.728 2.73183e-17
4767.9253 2.94466e-17
4770.1226 2.51099e-17
4772.3198 2.85313e-17
4774.5171 2.30313e-17
4776.7144 2.312e-17
4778.9116 2.67923e-17
4781.1094 2.59369e-17
4783.3066 2.38903e-17
4785.5044 2.83407e-17
4787.7021 2.73487e-17
4789.8999 2.50786e-17
4792.0977 2.62369e-17
4794.2954 2.1174e-17
4796.4932 2.67615e-17
4798.6914 2.63065e-17
4800.8892 2.26172e-17
4803.0874 2.85817e-17
4805.2852 2.62437e-17
4807.4834 2.28681e-17
4809.6821 2.29939e-17
4811.8804 2.14497e-17
4814.0786 2.03604e-17
4816.2769 2.68286e-17
4818.4756 2.32317e-17
4820.6738 2.4338e-17
4822.8726 2.14421e-17
4825.0713 2.19644e-17
4827.27 2.29072e-17
4829.4683 2.19819e-17
4831.6675 2.22422e-17
4833.8662 2.13157e-17
4836.0649 2.36157e-17
4838.2637 2.22202e-17
4840.4629 2.27525e-17
4842.6621 2.16918e-17
4844.8608 1.745e-17
4847.0601 2.52619e-17
4849.2593 2.45564e-17
4851.4585 2.13179e-17
4853.6577 2.39413e-17
4855.8574 2.01983e-17
4858.0566 2.0865e-17
4860.2559 2.01202e-17
4862.4556 1.73092e-17
4864.6548 2.21064e-17
4866.8545 2.11401e-17
4869.0542 2.3968e-17
4871.2539 2.40443e-17
4873.4536 2.32766e-17
4875.6533 1.99068e-17
4877.853 2.07999e-17
4880.0527 2.17496e-17
4882.2529 2.11785e-17
4884.4526 2.44262e-17
4886.6528 2.37486e-17
4888.8525 2.14054e-17
4891.0527 2.60727e-17
4893.2529 2.79187e-17
4895.4526 2.40165e-17
4897.6528 2.2501e-17
4899.853 2.5567e-17
4902.0532 2.51679e-17
4904.2539 2.34071e-17
4906.4541 2.68791e-17
4908.6543 2.61946e-17
4910.855 2.60049e-17
4913.0552 2.47224e-17
4915.2559 2.5862e-17
4917.4561 2.60935e-17
4919.6567 2.41914e-17
4921.8574 2.84541e-17
4924.0581 2.45847e-17
4926.2588 2.59393e-17
4928.4595 2.95906e-17
4930.6602 2.70635e-17
4932.8608 2.77535e-17
4935.0615 2.62109e-17
4937.2622 3.00055e-17
4939.4634 2.73755e-17
4941.6641 2.73634e-17
4943.8652 2.98597e-17
4946.0659 2.76784e-17
4948.2671 2.67126e-17
4950.4683 2.63251e-17
4952.6689 2.96528e-17
4954.8701 2.6035e-17
4957.0713 2.89608e-17
4959.2725 2.8316e-17
4961.4736 2.80285e-17
4963.6748 3.21518e-17
4965.876 2.99864e-17
4968.0776 3.0552e-17
4970.2788 2.82245e-17
4972.48 2.93109e-17
4974.6812 2.8717e-17
4976.8828 3.07663e-17
4979.084 2.86429e-17
4981.2856 3.0873e-17
4983.4868 3.02822e-17
4985.6885 2.80056e-17
4987.8901 2.90363e-17
4990.0918 3.06054e-17
4992.293 2.80609e-17
4994.4946 3.13576e-17
4996.6963 3.26603e-17
4998.8979 3.06768e-17
5001.0996 3.03923e-17
5003.3013 3.11959e-17
5005.5029 3.29674e-17
5007.7046 3.0705e-17
5009.9067 3.45449e-17
5012.1084 3.50458e-17
5014.3101 3.44813e-17
5016.5122 3.35743e-17
5018.7139 3.08456e-17
5020.9155 3.08784e-17
5023.1177 3.03665e-17
5025.3193 3.12374e-17
5027.5215 3.50039e-17
5029.7236 3.40027e-17
5031.9253 3.04461e-17
5034.1274 3.61774e-17
5036.3296 3.20264e-17
5038.5312 2.81804e-17
5040.7334 3.17816e-17
5042.9355 3.67554e-17
5045.1377 3.27514e-17
5047.3398 2.92401e-17
5049.542 3.57859e-17
5051.7441 3.081e-17
5053.9463 3.33674e-17
5056.1484 2.79604e-17
5058.3506 2.86216e-17
5060.5527 2.93643e-17
5062.7549 3.03705e-17
5064.957 3.31065e-17
5067.1592 3.31926e-17
5069.3618 2.90611e-17
5071.564 3.00055e-17
5073.7661 2.70047e-17
5075.9688 3.20293e-17
5078.1709 2.78378e-17
5080.373 2.83454e-17
5082.5757 2.98459e-17
5084.7778 3.03156e-17
5086.9805 2.60237e-17
5089.1826 2.64136e-17
5091.3853 3.03752e-17
5093.5874 2.73561e-17
5095.79 2.54133e-17
5097.9922 2.8556e-17
5100.1948 2.86117e-17
5102.3975 2.47899e-17
5104.5996 2.58557e-17
5106.8022 2.75125e-17
5109.0049 2.20721e-17
5111.207 2.44938e-17
5113.4097 2.39296e-17
5115.6123 2.71317e-17
5117.8149 2.35859e-17
5120.0171 2.53644e-17
5122.2197 2.87058e-17
5124.4224 2.60854e-17
5126.625 2.51017e-17
5128.8276 2.4571e-17
5131.0298 2.44361e-17
5133.2324 2.50566e-17
5135.4351 2.89368e-17
5137.6377 2.49441e-17
5139.8403 2.46522e-17
5142.043 2.94909e-17
5144.2456 2.27719e-17
5146.4482 2.62375e-17
5148.6509 2.31363e-17
5150.8535 2.73081e-17
5153.0562 2.51235e-17
5155.2588 2.57274e-17
5157.4614 2.47213e-17
5159.6641 2.76645e-17
5161.8667 2.53165e-17
5164.0693 3.24303e-17
5166.272 2.85047e-17
5168.4746 2.64545e-17
5170.6772 2.9386e-17
5172.8799 2.88523e-17
5175.0825 2.64009e-17
5177.2852 2.69202e-17
5179.4878 2.56541e-17
5181.6904 2.81967e-17
5183.8931 2.47533e-17
5186.0957 2.71228e-17
5188.2983 2.86889e-17
5190.501 2.75603e-17
5192.7036 2.54541e-17
5194.9062 2.52159e-17
5197.1089 2.68269e-17
5199.3115 2.42689e-17
5201.5142 2.59424e-17
5203.7168 2.79441e-17
5205.9194 2.90147e-17
5208.1221 2.89575e-17
5210.3247 2.78064e-17
5212.5278 2.61879e-17
5214.7305 2.73052e-17
5216.9331 3.15492e-17
5219.1357 2.61628e-17
5221.3384 3.34107e-17
5223.541 2.52103e-17
5225.7437 2.9326e-17
5227.9463 2.86222e-17
5230.1489 2.95531e-17
5232.3516 2.65702e-17
5234.5542 2.64434e-17
5236.7568 2.62162e-17
5238.959 2.34377e-17
5241.1616 2.98279e-17
5243.3643 2.33101e-17
5245.5669 2.71138e-17
5247.7695 2.37331e-17
5249.9722 2.46596e-17
5252.1748 2.81264e-17
5254.3774 2.73235e-17
5256.5801 2.94527e-17
5258.7827 2.38907e-17
5260.9849 2.37489e-17
5263.1875 2.68468e-17
5265.3901 2.72669e-17
5267.5928 2.59201e-17
5269.7954 2.62345e-17
5271.9976 2.80238e-17
5274.2002 2.46344e-17
5276.4028 2.86662e-17
5278.6055 2.47263e-17
5280.8076 2.25283e-17
5283.0103 2.4232e-17
5285.2129 2.18072e-17
5287.415 2.58042e-17
5289.6177 2.63939e-17
5291.8203 2.77844e-17
5294.0225 2.90107e-17
5296.2251 2.53296e-17
5298.4272 2.41185e-17
5300.6299 2.39233e-17
5302.832 3.03865e-17
5305.0347 2.58814e-17
5307.2368 2.51654e-17
5309.4395 2.6571e-17
5311.6416 2.84062e-17
5313.8442 2.57206e-17
5316.0464 2.43859e-17
5318.2485 2.55555e-17
5320.4512 2.73754e-17
5322.6533 2.7381e-17
5324.8555 2.49976e-17
5327.0581 2.69112e-17
5329.2603 2.43044e-17
5331.4624 2.42589e-17
5333.6646 2.81443e-17
5335.8667 2.60249e-17
5338.0693 2.75978e-17
5340.2715 2.99241e-17
5342.4736 2.78593e-17
5344.6758 2.64834e-17
5346.8779 2.71048e-17
5349.0801 2.27332e-17
5351.2822 2.67495e-17
5353.4844 2.64761e-17
5355.6865 2.63305e-17
5357.8887 2.65485e-17
5360.0908 2.25334e-17
5362.2925 2.16207e-17
5364.4946 2.7587e-17
5366.6968 2.65526e-17
5368.8989 2.30963e-17
5371.1006 2.44302e-17
5373.3027 2.41488e-17
5375.5049 2.4033e-17
5377.7065 2.40789e-17
5379.9087 2.64052e-17
5382.1108 2.56097e-17
5384.3125 2.55466e-17
5386.5142 2.9088e-17
5388.7163 2.99317e-17
5390.918 2.77121e-17
5393.1201 2.20838e-17
5395.3218 2.49115e-17
5397.5239 2.87318e-17
5399.7256 2.67596e-17
5401.9272 2.47264e-17
5404.1289 2.46514e-17
5406.3306 2.27186e-17
5408.5327 2.49777e-17
5410.7344 2.40387e-17
5412.936 2.74652e-17
5415.1377 2.85095e-17
5417.3394 2.814e-17
5419.541 2.78405e-17
5421.7427 2.55553e-17
5423.9443 2.67528e-17
5426.146 2.7443e-17
5428.3472 2.72355e-17
5430.5488 2.96041e-17
5432.7505 2.41618e-17
5434.9521 2.47717e-17
5437.1538 2.51677e-17
5439.355 2.68132e-17
5441.5566 2.65646e-17
5443.7578 2.59653e-17
5445.9595 2.5207e-17
5448.1606 2.56354e-17
5450.3623 2.65178e-17
5452.5635 2.68122e-17
5454.7651 2.8988e-17
5456.9663 2.64377e-17
5459.1675 3.13287e-17
5461.3691 2.73517e-17
5463.5703 2.74243e-17
5465.7715 2.84147e-17
5467.9727 3.00005e-17
5470.1738 2.88077e-17
5472.375 2.59561e-17
5474.5762 2.8221e-17
5476.7773 2.65652e-17
5478.9785 2.46187e-17
5481.1797 2.6363e-17
5483.3809 2.90243e-17
5485.582 2.94135e-17
5487.7827 2.75577e-17
5489.9839 2.95217e-17
5492.1851 3.04865e-17
5494.3857 2.54047e-17
5496.5869 3.36199e-17
5498.7881 2.52852e-17
5500.9888 2.72139e-17
5503.1899 2.91537e-17
5505.3906 2.80174e-17
5507.5913 2.425e-17
5509.7925 3.0863e-17
5511.9932 2.72643e-17
5514.1938 2.58446e-17
5516.3945 2.09214e-17
5518.5957 2.39321e-17
5520.7964 2.17992e-17
5522.9971 2.70672e-17
5525.1978 2.30807e-17
5527.3984 2.59524e-17
5529.5991 2.56416e-17
5531.7998 2.19219e-17
5534.0 1.97774e-17
5536.2007 2.25191e-17
5538.4014 1.89394e-17
5540.6021 2.02715e-17
5542.8022 2.32093e-17
5545.0029 2.11606e-17
5547.2031 2.11843e-17
5549.4038 2.07668e-17
5551.604 2.31301e-17
5553.8047 2.00473e-17
5556.0049 2.40989e-17
5558.2056 2.3518e-17
5560.4058 2.05985e-17
5562.606 2.14993e-17
5564.8062 2.43814e-17
5567.0068 2.13052e-17
5569.207 2.69285e-17
5571.4072 2.55244e-17
5573.6074 2.24959e-17
5575.8076 2.07461e-17
5578.0078 1.66353e-17
5580.208 1.47392e-17
5582.4077 2.14492e-17
5584.6079 2.3669e-17
5586.8081 2.53637e-17
5589.0083 2.83248e-17
5591.208 2.78062e-17
5593.4082 2.27103e-17
5595.6079 1.91563e-17
5597.8081 2.31683e-17
5600.0078 2.5882e-17
5602.208 2.77186e-17
5604.4077 2.34498e-17
5606.6074 2.5544e-17
5608.8076 2.85822e-17
5611.0073 3.05021e-17
5613.207 2.64092e-17
5615.4067 2.95457e-17
5617.6064 2.22071e-17
5619.8062 2.33318e-17
5622.0059 2.37032e-17
5624.2056 2.70395e-17
5626.4053 3.09291e-17
5628.605 2.53929e-17
5630.8047 2.5925e-17
5633.0044 3.16018e-17
5635.2036 1.99889e-17
5637.4033 2.56552e-17
5639.603 2.88313e-17
5641.8022 2.51456e-17
5642.335 2.37831e-17
5643.4805 3.03453e-17
5644.6265 2.44965e-17
5645.772 2.97617e-17
5646.9175 2.71886e-17
5648.063 3.47953e-17
5649.209 3.56661e-17
5650.3545 2.85488e-17
5651.5005 3.26911e-17
5652.646 3.48275e-17
5653.792 2.60705e-17
5654.9375 2.09681e-17
5656.0835 1.84592e-17
5657.2295 3.25536e-17
5658.3755 3.55217e-17
5659.5215 1.81218e-17
5660.6675 3.18777e-17
5661.8135 3.40047e-17
5662.9595 3.13156e-17
5664.1055 2.67772e-17
5665.2515 3.45071e-17
5666.3975 2.2163e-17
5667.5439 3.41009e-17
5668.6899 3.1528e-17
5669.8364 2.91497e-17
5670.9824 2.42403e-17
5672.1289 3.17774e-17
5673.2754 2.8439e-17
5674.4214 2.8908e-17
5675.5679 2.85827e-17
5676.7144 3.79799e-17
5677.8608 3.00629e-17
5679.0073 3.248e-17
5680.1538 3.13193e-17
5681.3003 2.5658e-17
5682.4468 2.88734e-17
5683.5938 3.25963e-17
5684.7402 2.45296e-17
5685.8867 3.168e-17
5687.0337 3.47501e-17
5688.1802 3.2816e-17
5689.3271 3.34974e-17
5690.4741 2.33392e-17
5691.6206 2.8538e-17
5692.7676 3.09819e-17
5693.9146 4.10973e-17
5695.0615 2.97292e-17
5696.2085 3.55226e-17
5697.3555 3.04342e-17
5698.5024 3.46699e-17
5699.6494 3.26593e-17
5700.7964 3.45628e-17
5701.9438 2.65298e-17
5703.0908 2.52892e-17
5704.2383 2.97844e-17
5705.3853 2.25993e-17
5706.5327 3.07466e-17
5707.6797 3.50798e-17
5708.8271 3.3075e-17
5709.9746 3.33207e-17
5711.1221 2.97079e-17
5712.2695 3.71619e-17
5713.417 2.99717e-17
5714.5645 2.74998e-17
5715.7119 3.17466e-17
5716.8594 3.0386e-17
5718.0068 3.08631e-17
5719.1548 2.66593e-17
5720.3022 2.66924e-17
5721.4502 3.02368e-17
5722.5977 3.49825e-17
5723.7456 4.18775e-17
5724.8931 2.60634e-17
5726.041 3.42903e-17
5727.189 2.63416e-17
5728.3369 3.48159e-17
5729.4849 3.10416e-17
5730.6328 3.04397e-17
5731.7808 3.49982e-17
5732.9287 3.61497e-17
5734.0767 3.50207e-17
5735.2251 2.86577e-17
5736.373 3.31624e-17
5737.5215 3.67751e-17
5738.6694 4.59736e-17
5739.8179 3.01056e-17
5740.9658 3.66973e-17
5742.1143 3.38054e-17
5743.2627 4.23154e-17
5744.4111 3.17782e-17
5745.5596 3.24913e-17
5746.708 2.83596e-17
5747.8564 3.4075e-17
5749.0049 4.6066e-17
5750.1533 3.19907e-17
5751.3018 2.94627e-17
5752.4507 3.85639e-17
5753.5991 3.13826e-17
5754.748 4.12713e-17
5755.8965 4.21292e-17
5757.0454 3.37634e-17
5758.1943 3.11926e-17
5759.3428 3.54451e-17
5760.4917 3.28287e-17
5761.6406 3.93035e-17
5762.7896 3.47961e-17
5763.9385 3.89171e-17
5765.0874 4.0519e-17
5766.2368 3.82306e-17
5767.3857 3.55203e-17
5768.5347 4.72704e-17
5769.6841 4.02479e-17
5770.833 3.38973e-17
5771.9824 4.32712e-17
5773.1318 3.85193e-17
5774.2808 3.61152e-17
5775.4302 3.33919e-17
5776.5796 3.55551e-17
5777.729 3.446e-17
5778.8784 3.38158e-17
5780.0278 3.5555e-17
5781.1772 3.59494e-17
5782.3267 4.082e-17
5783.4766 3.72244e-17
5784.626 3.81318e-17
5785.7759 3.50123e-17
5786.9253 4.33096e-17
5788.0752 4.16934e-17
5789.2246 3.83015e-17
5790.3745 4.66946e-17
5791.5244 3.86319e-17
5792.6743 3.75595e-17
5793.8242 3.27858e-17
5794.9741 3.41913e-17
5796.124 4.18247e-17
5797.2739 3.5634e-17
5798.4243 4.07271e-17
5799.5742 3.79195e-17
5800.7241 3.84885e-17
5801.8745 3.92393e-17
5803.0244 3.64887e-17
5804.1748 4.27202e-17
5805.3252 3.17495e-17
5806.4751 3.79897e-17
5807.6255 4.58267e-17
5808.7759 4.26947e-17
5809.9263 4.01375e-17
5811.0767 3.77981e-17
5812.2275 4.08994e-17
5813.3779 4.08457e-17
5814.5283 3.90116e-17
5815.6787 3.64565e-17
5816.8296 3.66634e-17
5817.98 3.97435e-17
5819.1309 4.35054e-17
5820.2817 3.77999e-17
5821.4326 4.72645e-17
5822.583 3.94826e-17
5823.7339 3.68764e-17
5824.8848 4.03556e-17
5826.0356 2.93851e-17
5827.1865 3.96934e-17
5828.3379 3.66525e-17
5829.4888 3.92065e-17
5830.6396 3.70722e-17
5831.791 4.48676e-17
5832.9419 3.8389e-17
5834.0933 3.96451e-17
5835.2446 4.11032e-17
5836.3955 3.9754e-17
5837.5469 4.30848e-17
5838.6982 4.20524e-17
5839.8496 3.84254e-17
5841.001 3.6777e-17
5842.1523 4.02477e-17
5843.3037 3.47824e-17
5844.4551 4.01175e-17
5845.6069 3.62007e-17
5846.7583 4.13125e-17
5847.9102 3.40413e-17
5849.0615 3.7322e-17
5850.2134 3.90383e-17
5851.3652 4.30282e-17
5852.5171 3.90484e-17
5853.6685 3.78063e-17
5854.8203 4.08758e-17
5855.9722 3.7451e-17
5857.1245 3.88386e-17
5858.2764 4.05181e-17
5859.4282 4.15348e-17
5860.5801 3.92511e-17
5861.7324 3.42845e-17
5862.8843 3.59914e-17
5864.0366 3.88008e-17
5865.1885 3.21079e-17
5866.3408 3.48179e-17
5867.4932 3.248e-17
5868.6455 4.10732e-17
5869.7979 3.65608e-17
5870.9502 3.66858e-17
5872.1025 3.7646e-17
5873.2549 3.20434e-17
5874.4077 3.92231e-17
5875.5601 3.24468e-17
5876.7124 3.46351e-17
5877.8652 4.56874e-17
5879.0176 3.929e-17
5880.1704 4.00597e-17
5881.3232 3.96724e-17
5882.4761 3.61176e-17
5883.6284 3.1999e-17
5884.7817 3.6315e-17
5885.9341 3.47855e-17
5887.0874 3.47926e-17
5888.2402 4.10116e-17
5889.3931 3.18142e-17
5890.5459 3.78885e-17
5891.6992 3.36217e-17
5892.8521 3.4322e-17
5894.0054 4.01833e-17
5895.1587 3.84529e-17
5896.3115 3.00406e-17
5897.4648 3.93506e-17
5898.6182 3.90546e-17
5899.7715 3.54279e-17
5900.9248 3.57233e-17
5902.0781 3.5021e-17
5903.2314 3.47232e-17
5904.3853 3.50633e-17
5905.5386 3.84318e-17
5906.6919 3.78113e-17
5907.8457 4.2485e-17
5908.9995 3.74815e-17
5910.1528 3.49706e-17
5911.3066 3.65655e-17
5912.4604 4.63173e-17
5913.6143 3.54599e-17
5914.7681 3.36733e-17
5915.9219 3.47424e-17
5917.0757 3.31176e-17
5918.2295 3.43797e-17
5919.3838 3.27233e-17
5920.5376 3.0143e-17
5921.6914 3.14199e-17
5922.8457 3.34187e-17
5924.0 3.91657e-17
5925.1538 3.52829e-17
5926.3081 4.07019e-17
5927.4624 3.26105e-17
5928.6167 3.31064e-17
5929.771 3.58738e-17
5930.9253 3.68904e-17
5932.0796 2.75084e-17
5933.2339 3.57196e-17
5934.3887 4.14667e-17
5935.543 3.88451e-17
5936.6973 3.40565e-17
5937.8521 3.19355e-17
5939.0068 3.31625e-17
5940.1611 2.68247e-17
5941.3159 2.9229e-17
5942.4707 3.33419e-17
5943.6255 3.44316e-17
5944.7803 3.03823e-17
5945.9351 3.06331e-17
5947.0898 3.80166e-17
5948.2451 3.18336e-17
5949.3999 3.00777e-17
5950.5547 3.42766e-17
5951.71 3.31236e-17
5952.8652 3.1899e-17
5954.02 3.20902e-17
5955.1753 3.00771e-17
5956.3306 2.78404e-17
5957.4858 2.91876e-17
5958.6411 2.35741e-17
5959.7964 3.10145e-17
5960.9517 3.74628e-17
5962.1069 3.04456e-17
5963.2622 3.06212e-17
5964.418 2.54319e-17
5965.5732 3.37758e-17
5966.729 3.5804e-17
5967.8843 2.387e-17
5969.04 2.99952e-17
5970.1958 2.75479e-17
5971.3516 3.08843e-17
5972.5073 2.37853e-17
5973.6626 2.65343e-17
5974.8184 3.5964e-17
5975.9746 2.85521e-17
5977.1304 3.02434e-17
5978.2861 3.06424e-17
5979.4424 2.81553e-17
5980.5981 3.1365e-17
5981.7544 2.86853e-17
5982.9102 3.31837e-17
5984.0664 3.05441e-17
5985.2227 2.86777e-17
5986.3789 3.30771e-17
5987.5352 3.51468e-17
5988.6914 2.8941e-17
5989.8477 2.81627e-17
5991.0039 3.0809e-17
5992.1602 2.97067e-17
5993.3169 3.03478e-17
5994.4731 2.51013e-17
5995.6299 2.92055e-17
5996.7861 3.31597e-17
5997.9429 3.27646e-17
5999.0996 3.63418e-17
6000.2559 2.72744e-17
6001.4126 2.97563e-17
6002.5693 3.00077e-17
6003.7261 3.18728e-17
6004.8833 2.92076e-17
6006.04 2.8829e-17
6007.1968 3.08844e-17
6008.3535 2.61282e-17
6009.5107 2.8576e-17
6010.6675 3.09791e-17
6011.8247 2.81748e-17
6012.9819 3.10909e-17
6014.1387 2.8147e-17
6015.2959 2.63866e-17
6016.4531 2.1975e-17
6017.6104 3.10015e-17
6018.7676 2.63456e-17
6019.9253 2.95744e-17
6021.0825 2.83135e-17
6022.2397 2.74888e-17
6023.3975 2.9076e-17
6024.5547 2.75687e-17
6025.7124 2.16472e-17
6026.8696 3.08722e-17
6028.0273 2.73589e-17
6029.1851 2.80231e-17
6030.3428 2.76644e-17
6031.5005 2.44421e-17
6032.6582 2.70347e-17
6033.8159 2.99317e-17
6034.9736 2.49965e-17
6036.1313 1.97812e-17
6037.2896 2.61329e-17
6038.4473 3.05941e-17
6039.6055 2.00998e-17
6040.7632 2.57769e-17
6041.9214 3.14017e-17
6043.0796 2.15505e-17
6044.2378 2.59877e-17
6045.3955 2.55158e-17
6046.5537 3.10116e-17
6047.7124 2.37685e-17
6048.8706 2.58643e-17
6050.0288 2.96086e-17
6051.187 2.66514e-17
6052.3457 2.31119e-17
6053.5039 2.35676e-17
6054.6626 2.69753e-17
6055.8208 2.82379e-17
6056.9795 3.02361e-17
6058.1382 2.71688e-17
6059.2969 2.21852e-17
6060.4551 2.99206e-17
6061.6138 2.57583e-17
6062.7729 2.71926e-17
6063.9316 2.67009e-17
6065.0903 2.85671e-17
6066.249 2.61165e-17
6067.4082 2.25834e-17
6068.5669 2.68707e-17
6069.7261 2.62931e-17
6070.8848 2.32909e-17
6072.0439 2.73795e-17
6073.2031 2.5777e-17
6074.3623 1.88831e-17
6075.5215 3.11485e-17
6076.6807 2.90466e-17
6077.8398 2.6046e-17
6078.999 2.51625e-17
6080.1587 2.71144e-17
6081.3179 2.66235e-17
6082.4775 2.72288e-17
6083.6367 2.77692e-17
6084.7964 2.63354e-17
6085.9556 3.05407e-17
6087.1152 3.29791e-17
6088.2749 2.39566e-17
6089.4346 3.16708e-17
6090.5942 3.23671e-17
6091.7539 2.15948e-17
6092.9136 2.68035e-17
6094.0732 3.01397e-17
6095.2329 2.60406e-17
6096.3931 2.67215e-17
6097.5527 2.73718e-17
6098.7129 2.89463e-17
6099.8726 2.56163e-17
6101.0327 2.41055e-17
6102.1929 3.20727e-17
6103.353 3.03437e-17
6104.5132 2.77114e-17
6105.6733 2.80757e-17
6106.8335 3.03696e-17
6107.9937 3.03805e-17
6109.1538 2.61765e-17
6110.3145 3.536e-17
6111.4746 2.96541e-17
6112.6348 2.66633e-17
6113.7954 3.21216e-17
6114.9561 2.73901e-17
6116.1162 3.12501e-17
6117.2769 2.89184e-17
6118.4375 3.26716e-17
6119.5981 2.81461e-17
6120.7588 3.54073e-17
6121.9194 3.61143e-17
6123.0801 3.01967e-17
6124.2412 3.03623e-17
6125.4019 2.81619e-17
6126.5625 3.27842e-17
6127.7236 2.9571e-17
6128.8843 2.77018e-17
6130.0454 3.17249e-17
6131.2065 3.10739e-17
6132.3677 2.32336e-17
6133.5288 2.90907e-17
6134.6899 2.63357e-17
6135.8511 2.49295e-17
6137.0122 2.92716e-17
6138.1733 2.44028e-17
6139.3345 2.40857e-17
6140.4961 2.48466e-17
6141.6572 2.81949e-17
6142.8184 2.80599e-17
6143.98 2.55415e-17
6145.1416 2.31834e-17
6146.3032 2.8793e-17
6147.4644 2.8563e-17
6148.626 3.05438e-17
6149.7876 2.46835e-17
6150.9492 2.7268e-17
6152.1113 2.00041e-17
6153.2729 2.20326e-17
6154.4346 2.62437e-17
6155.5962 2.61291e-17
6156.7583 2.47095e-17
6157.9199 3.10998e-17
6159.082 2.7541e-17
6160.2441 2.73052e-17
6161.4058 2.52631e-17
6162.5679 2.39972e-17
6163.73 2.80494e-17
6164.8921 2.33045e-17
6166.0542 2.58885e-17
6167.2163 2.03122e-17
6168.3789 2.79423e-17
6169.541 2.67226e-17
6170.7031 2.85587e-17
6171.8657 2.65689e-17
6173.0278 2.23157e-17
6174.1904 2.58152e-17
6175.353 2.43349e-17
6176.5151 3.01518e-17
6177.6777 3.44304e-17
6178.8403 2.29415e-17
6180.0029 2.08424e-17
6181.1655 2.88874e-17
6182.3281 3.39807e-17
6183.4907 2.98816e-17
6184.6538 2.76335e-17
6185.8164 2.66696e-17
6186.9795 2.651e-17
6188.1421 2.88915e-17
6189.3052 2.2906e-17
6190.4678 2.40777e-17
6191.6309 3.32469e-17
6192.7939 2.41977e-17
6193.957 2.75347e-17
6195.1201 2.58386e-17
6196.2832 3.04013e-17
6197.4463 2.73352e-17
6198.6094 2.62583e-17
6199.7725 2.88828e-17
6200.936 2.57122e-17
6202.0991 3.37829e-17
6203.2627 2.74747e-17
6204.4258 2.64017e-17
6205.5894 3.00898e-17
6206.7529 2.96082e-17
6207.9165 2.70002e-17
6209.0801 3.17818e-17
6210.2437 2.60309e-17
6211.4072 2.64206e-17
6212.5708 3.10327e-17
6213.7344 2.47314e-17
6214.8984 2.51433e-17
6216.062 3.09855e-17
6217.2256 2.87472e-17
6218.3896 2.50969e-17
6219.5532 3.37831e-17
6220.7173 2.71181e-17
6221.8813 3.33839e-17
6223.0454 3.07554e-17
6224.209 2.81939e-17
6225.3735 3.06904e-17
6226.5376 2.81537e-17
6227.7017 3.56628e-17
6228.8657 2.98713e-17
6230.0298 3.11485e-17
6231.1943 2.89784e-17
6232.3584 2.55496e-17
6233.5225 2.99269e-17
6234.687 3.31685e-17
6235.8516 2.39269e-17
6237.0156 3.41144e-17
6238.1802 4.01343e-17
6239.3447 3.09703e-17
6240.5093 3.04756e-17
6241.6738 3.50199e-17
6242.8384 3.22748e-17
6244.0029 3.95185e-17
6245.168 3.27858e-17
6246.3325 2.63763e-17
6247.4971 3.46422e-17
6248.6621 3.65073e-17
6249.8267 3.64343e-17
6250.9917 3.59667e-17
6252.1567 2.81852e-17
6253.3218 3.57482e-17
6254.4863 3.7373e-17
6255.6514 2.89972e-17
6256.8164 3.39982e-17
6257.9819 3.04902e-17
6259.147 2.89532e-17
6260.312 2.61306e-17
6261.4771 3.03395e-17
6262.6426 2.65195e-17
6263.8076 3.43123e-17
6264.9727 3.32639e-17
6266.1382 3.69471e-17
6267.3037 3.52284e-17
6268.4692 3.02963e-17
6269.6343 3.47588e-17
6270.7998 2.91384e-17
6271.9653 3.41511e-17
6273.1309 3.40532e-17
6274.2964 2.86149e-17
6275.4624 3.22976e-17
6276.6279 2.80578e-17
6277.7935 2.51631e-17
6278.9595 2.29134e-17
6280.125 3.09951e-17
6281.291 2.70096e-17
6282.457 2.53369e-17
6283.6226 2.96115e-17
6284.7886 3.2713e-17
6285.9546 2.9227e-17
6287.1206 3.32749e-17
6288.2866 2.61794e-17
6289.4526 2.59709e-17
6290.6187 3.47396e-17
6291.7847 2.8195e-17
6292.9512 3.0351e-17
6294.1172 2.25884e-17
6295.2837 3.78437e-17
6296.4497 2.79809e-17
6297.6162 3.00516e-17
6298.7822 3.64179e-17
6299.9487 3.94073e-17
6301.1152 3.71339e-17
6302.2817 3.52362e-17
6303.4482 4.9512e-17
6304.6147 3.58156e-17
6305.7812 3.60741e-17
6306.9478 3.90763e-17
6308.1143 2.65741e-17
6309.2812 2.9324e-17
6310.4478 2.65106e-17
6311.6147 3.04118e-17
6312.7812 2.48676e-17
6313.9482 2.51687e-17
6315.1152 3.20504e-17
6316.2822 2.75803e-17
6317.4487 2.76945e-17
6318.6157 2.68412e-17
6319.7827 2.80864e-17
6320.9497 2.61039e-17
6322.1172 2.92048e-17
6323.2842 2.91391e-17
6324.4512 2.92329e-17
6325.6182 2.86318e-17
6326.7856 3.14388e-17
6327.9526 2.98758e-17
6329.1201 2.32082e-17
6330.2876 2.25626e-17
6331.4546 2.60014e-17
6332.6221 1.78675e-17
6333.7896 2.11092e-17
6334.957 3.02022e-17
6336.1245 2.39214e-17
6337.292 2.48788e-17
6338.4595 2.54031e-17
6339.6274 3.10935e-17
6340.7949 2.35028e-17
6341.9624 2.4324e-17
6343.1304 2.76304e-17
6344.2979 2.08776e-17
6345.4658 2.60943e-17
6346.6338 2.73767e-17
6347.8013 2.34716e-17
6348.9692 2.2871e-17
6350.1372 2.82481e-17
6351.3052 2.84049e-17
6352.4731 2.34486e-17
6353.6411 2.48489e-17
6354.8091 2.40394e-17
6355.9775 2.44242e-17
6357.1455 2.99976e-17
6358.3135 2.31884e-17
6359.4819 2.67818e-17
6360.6499 3.08507e-17
6361.8184 2.29586e-17
6362.9868 2.03233e-17
6364.1548 3.10375e-17
6365.3232 2.37088e-17
6366.4917 2.31728e-17
6367.6602 1.9808e-17
6368.8286 2.52798e-17
6369.9971 2.42237e-17
6371.1655 2.38363e-17
6372.3345 1.76632e-17
6373.5029 2.51708e-17
6374.6714 2.32485e-17
6375.8403 2.62346e-17
6377.0088 2.23176e-17
6378.1777 2.61115e-17
6379.3467 2.00325e-17
6380.5151 2.33187e-17
6381.6841 2.38696e-17
6382.853 2.44827e-17
6384.022 2.91187e-17
6385.1909 2.48949e-17
6386.3599 1.95882e-17
6387.5288 2.39495e-17
6388.6982 2.33969e-17
6389.8672 2.67384e-17
6391.0361 3.07812e-17
6392.2056 2.54688e-17
6393.3745 3.15424e-17
6394.5439 2.39548e-17
6395.7129 2.68967e-17
6396.8823 2.73812e-17
6398.0518 2.64355e-17
6399.2212 2.83689e-17
6400.3906 1.79209e-17
6401.5601 2.77919e-17
6402.7295 1.91841e-17
6403.8989 2.35253e-17
6405.0684 2.40889e-17
6406.2383 2.39813e-17
6407.4077 2.54746e-17
6408.5776 2.15506e-17
6409.7471 2.56363e-17
6410.917 2.54658e-17
6412.0864 2.88687e-17
6413.2563 2.53247e-17
6414.4263 2.52756e-17
6415.5962 2.50081e-17
6416.7656 1.92322e-17
6417.936 2.55635e-17
6419.1055 2.28776e-17
6420.2759 2.57637e-17
6421.4458 2.44637e-17
6422.6157 2.62317e-17
6423.7861 2.66857e-17
6424.9561 3.15421e-17
6426.126 2.72613e-17
6427.2964 2.60289e-17
6428.4668 2.44279e-17
6429.6367 2.47501e-17
6430.8071 2.40006e-17
6431.9775 2.68632e-17
6433.1479 2.91354e-17
6434.3184 2.91774e-17
6435.4888 2.68688e-17
6436.6592 2.37565e-17
6437.8296 2.70512e-17
6439.0 2.89839e-17
6440.1704 2.77797e-17
6441.3413 2.93077e-17
6442.5117 2.7216e-17
6443.6826 2.15602e-17
6444.853 2.78402e-17
6446.0239 2.66101e-17
6447.1948 2.29933e-17
6448.3657 2.60057e-17
6449.5361 2.85167e-17
6450.707 2.27668e-17
6451.8779 2.81554e-17
6453.0488 2.53084e-17
6454.2202 2.46487e-17
6455.3911 2.78884e-17
6456.562 3.00443e-17
6457.7329 2.89213e-17
6458.9043 2.13151e-17
6460.0752 2.97359e-17
6461.2466 2.88888e-17
6462.4175 2.34313e-17
6463.5889 2.66525e-17
6464.7603 2.2083e-17
6465.9316 2.86375e-17
6467.1025 2.42284e-17
6468.2739 2.88697e-17
6469.4453 3.03619e-17
6470.6167 2.56743e-17
6471.7886 2.83613e-17
6472.96 2.87295e-17
6474.1313 2.29347e-17
6475.3032 2.2151e-17
6476.4746 2.88646e-17
6477.646 2.89608e-17
6478.8179 2.97668e-17
6479.9893 3.1077e-17
6481.1611 3.02655e-17
6482.333 2.34475e-17
6483.5049 2.5005e-17
6484.6768 2.57482e-17
6485.8486 2.41441e-17
6487.0205 2.56744e-17
6488.1924 2.69974e-17
6489.3643 2.15912e-17
6490.5361 2.80624e-17
6491.708 2.78115e-17
6492.8804 2.96664e-17
6494.0522 2.83358e-17
6495.2246 2.89819e-17
6496.3965 2.40412e-17
6497.5688 2.80224e-17
6498.7412 2.78832e-17
6499.9131 2.43661e-17
6501.0854 2.24512e-17
6502.2578 2.94714e-17
6503.4302 2.62414e-17
6504.6025 2.62799e-17
6505.7749 2.44053e-17
6506.9473 2.02796e-17
6508.1196 2.84928e-17
6509.2925 2.08415e-17
6510.4648 2.76132e-17
6511.6372 2.47471e-17
6512.8101 2.66626e-17
6513.9829 2.91193e-17
6515.1553 2.76173e-17
6516.3281 2.4705e-17
6517.501 2.42082e-17
6518.6733 2.50498e-17
6519.8462 2.25862e-17
6521.019 2.30063e-17
6522.1919 2.50379e-17
6523.3647 2.54904e-17
6524.5376 2.64167e-17
6525.7109 2.37088e-17
6526.8838 2.86447e-17
6528.0566 3.05911e-17
6529.23 2.26492e-17
6530.4028 2.49843e-17
6531.5762 2.55314e-17
6532.749 2.63699e-17
6533.9224 2.69576e-17
6535.0957 3.10166e-17
6536.269 2.8613e-17
6537.4419 2.75384e-17
6538.6152 2.92578e-17
6539.7886 3.05919e-17
6540.9619 2.9208e-17
6542.1353 2.5938e-17
6543.3091 2.83733e-17
6544.4824 3.22131e-17
6545.6558 2.87557e-17
6546.8296 2.8773e-17
6548.0029 2.51297e-17
6549.1763 2.8155e-17
6550.3501 2.97604e-17
6551.5239 2.88028e-17
6552.6973 2.7828e-17
6553.8711 2.22185e-17
6555.0449 2.9028e-17
6556.2188 3.46339e-17
6557.3926 2.95063e-17
6558.5664 2.61814e-17
6559.7402 3.30433e-17
6560.9141 2.79496e-17
6562.0879 3.20835e-17
6563.2622 2.85426e-17
6564.436 2.51217e-17
6565.6099 2.65846e-17
6566.7842 2.76171e-17
6567.958 3.13793e-17
6569.1323 2.4588e-17
6570.3066 2.89968e-17
6571.4805 3.07872e-17
6572.6548 3.21067e-17
6573.8291 3.587e-17
6575.0034 2.44224e-17
6576.1777 3.52572e-17
6577.3521 2.6834e-17
6578.5264 2.57591e-17
6579.7007 3.24586e-17
6580.875 2.91124e-17
6582.0498 2.90619e-17
6583.2241 2.6871e-17
6584.3989 2.80784e-17
6585.5732 2.45456e-17
6586.748 3.15518e-17
6587.9224 3.20067e-17
6589.0972 3.37528e-17
6590.272 3.06535e-17
6591.4463 2.75268e-17
6592.6211 2.89096e-17
6593.7959 3.19672e-17
6594.9707 3.09318e-17
6596.1455 3.15908e-17
6597.3203 3.12634e-17
6598.4956 3.41012e-17
6599.6704 3.0646e-17
6600.8452 2.89335e-17
6602.0205 3.01736e-17
6603.1953 2.42745e-17
6604.3706 2.79322e-17
6605.5454 3.17091e-17
6606.7207 3.203e-17
6607.8955 3.40177e-17
6609.0708 3.23366e-17
6610.2461 3.24428e-17
6611.4214 3.0538e-17
6612.5967 3.37534e-17
6613.772 3.30394e-17
6614.9473 3.25222e-17
6616.1226 3.00109e-17
6617.2979 2.76352e-17
6618.4731 3.09625e-17
6619.6489 2.95635e-17
6620.8242 3.31009e-17
6622.0 3.216e-17
6623.1753 2.78224e-17
6624.3511 3.05141e-17
6625.5264 2.6186e-17
6626.7021 3.38927e-17
6627.8779 3.60728e-17
6629.0532 3.41375e-17
6630.229 3.27883e-17
6631.4048 3.4175e-17
6632.5806 3.44683e-17
6633.7563 3.66964e-17
6634.9321 2.93956e-17
6636.1084 3.52356e-17
6637.2842 3.37322e-17
6638.46 2.89628e-17
6639.6362 3.57175e-17
6640.812 3.09505e-17
6641.9878 3.18056e-17
6643.1641 3.13089e-17
6644.3403 3.04213e-17
6647.8687 3.04125e-17
6649.0449 3.45666e-17
6650.2207 3.44894e-17
6651.397 3.44275e-17
6652.5732 3.13341e-17
6653.75 3.63166e-17
6654.9263 2.98766e-17
6656.1025 3.14374e-17
6657.2788 3.49672e-17
6658.4551 2.93042e-17
6659.6318 3.73939e-17
6660.8081 3.56568e-17
6661.9849 3.05012e-17
6663.1611 3.25727e-17
6664.3379 3.35012e-17
6665.5146 3.27294e-17
6666.6914 3.44045e-17
6667.8677 3.18471e-17
6669.0444 3.26269e-17
6670.2212 3.36116e-17
6671.3979 3.1046e-17
6672.5747 3.10772e-17
6673.7515 3.54724e-17
6674.9287 3.82178e-17
6676.1055 3.68471e-17
6677.2822 3.12151e-17
6678.459 3.67482e-17
6679.6362 3.44486e-17
6680.813 3.28084e-17
6681.9902 3.78027e-17
6683.167 3.59258e-17
6684.3442 3.81599e-17
6685.5215 3.30899e-17
6686.6987 3.13266e-17
6687.8755 3.63105e-17
6689.0527 3.19812e-17
6690.23 3.26519e-17
6691.4072 3.40686e-17
6692.5845 3.55543e-17
6693.7622 3.27473e-17
6694.9395 3.59454e-17
6696.1167 3.58089e-17
6697.2939 3.22399e-17
6698.4717 3.60059e-17
6699.6489 3.14508e-17
6700.8267 2.82154e-17
6702.0039 3.28641e-17
6703.1816 3.42702e-17
6704.3589 3.60715e-17
6705.5366 3.06712e-17
6706.7144 3.15508e-17
6707.8921 2.77263e-17
6709.0698 3.46568e-17
6710.2476 3.76525e-17
6711.4253 3.00043e-17
6712.603 3.3483e-17
6713.7808 4.05452e-17
6714.9585 3.18756e-17
6716.1362 3.23461e-17
6717.3145 3.1062e-17
6718.4922 3.4327e-17
6719.6704 3.57622e-17
6720.8481 3.5043e-17
6722.0264 3.33089e-17
6723.2041 3.04116e-17
6724.3823 3.32835e-17
6725.5601 3.06782e-17
6726.7383 3.30984e-17
6727.9165 3.38e-17
6729.0947 3.4502e-17
6730.2729 3.66033e-17
6731.4512 3.01206e-17
6732.6294 3.51343e-17
6733.8076 3.43168e-17
6734.9863 3.40914e-17
6736.1646 3.33877e-17
6737.3428 3.25929e-17
6738.521 3.74492e-17
6739.6997 3.63334e-17
6740.8779 3.09356e-17
6742.0566 3.6623e-17
6743.2349 3.21157e-17
6744.4136 3.55438e-17
6745.5923 3.1249e-17
6746.771 3.64364e-17
6747.9492 3.73511e-17
6749.1279 3.41258e-17
6750.3066 3.67414e-17
6751.4854 3.27595e-17
6752.6641 3.58775e-17
6753.8428 3.51622e-17
6755.022 3.58013e-17
6756.2007 3.45234e-17
6757.3794 2.92126e-17
6758.5581 3.03843e-17
6759.7373 3.60024e-17
6760.916 3.03543e-17
6762.0952 3.3345e-17
6763.2739 3.48931e-17
6764.4531 3.14818e-17
6765.6323 2.64183e-17
6766.8115 2.77832e-17
6767.9902 3.18461e-17
6769.1694 3.30344e-17
6770.3486 3.29562e-17
6771.5278 3.23616e-17
6772.707 2.95775e-17
6773.8862 3.05359e-17
6775.0654 3.16167e-17
6776.2451 2.68821e-17
6777.4243 3.30542e-17
6778.6035 3.36146e-17
6779.7827 3.2003e-17
6780.9624 2.7435e-17
6782.1416 3.13749e-17
6783.3213 3.04716e-17
6784.5005 3.15427e-17
6785.6802 3.2088e-17
6786.8599 3.31331e-17
6788.0391 2.6209e-17
6789.2188 3.19521e-17
6790.3984 2.90574e-17
6791.5781 3.13808e-17
6792.7578 3.1378e-17
6793.9375 2.95445e-17
6795.1172 2.71665e-17
6796.2969 3.50024e-17
6797.4771 2.67735e-17
6798.6567 3.04185e-17
6799.8364 3.02384e-17
6801.0166 3.44865e-17
6802.1963 2.98496e-17
6803.3765 2.81934e-17
6804.5562 3.03907e-17
6805.7363 3.2222e-17
6806.916 2.97638e-17
6808.0962 3.28922e-17
6809.2764 3.33314e-17
6810.4565 3.03475e-17
6811.6367 2.8439e-17
6812.8169 3.31376e-17
6813.9971 3.36508e-17
6815.1772 2.73371e-17
6816.3574 3.46334e-17
6817.5376 3.16259e-17
6818.7178 3.35123e-17
6819.8979 3.45943e-17
6821.0786 3.65063e-17
6822.2588 3.43919e-17
6823.439 3.25297e-17
6824.6196 3.27692e-17
6825.8003 2.8651e-17
6826.9805 3.17052e-17
6828.1611 3.94986e-17
6829.3418 2.98822e-17
6830.522 3.05014e-17
6831.7026 2.77646e-17
6832.8833 3.51049e-17
6834.064 2.8028e-17
6835.2446 3.44086e-17
6836.4253 3.02296e-17
6837.606 3.07804e-17
6838.7866 3.84094e-17
6839.9673 3.74649e-17
6841.1484 3.0583e-17
6842.3291 3.43905e-17
6843.5098 2.99118e-17
6844.6909 2.60098e-17
6845.8716 2.80566e-17
6847.0527 2.9423e-17
6848.2334 3.19941e-17
6849.4146 3.00496e-17
6850.5957 3.27361e-17
6851.7764 3.00971e-17
6852.9575 2.87608e-17
6854.1387 3.33711e-17
6855.3198 3.09431e-17
6856.501 3.07364e-17
6857.6821 2.96962e-17
6858.8633 3.06198e-17
6860.0444 3.01744e-17
6861.2256 2.5577e-17
6862.4072 2.80612e-17
6863.5884 3.37929e-17
6864.7695 3.23868e-17
6865.9512 2.91037e-17
6867.1323 3.22977e-17
6868.314 3.2437e-17
6869.4951 3.32201e-17
6870.6768 3.68793e-17
6871.8579 2.7118e-17
6873.0396 3.01902e-17
6874.2212 3.08749e-17
6875.4028 2.75915e-17
6876.5845 2.94098e-17
6877.7661 3.44479e-17
6878.9478 3.35351e-17
6880.1294 3.11674e-17
6881.311 2.46647e-17
6882.4927 3.09433e-17
6883.6743 3.19932e-17
6884.856 3.32649e-17
6886.0381 3.17916e-17
6887.2197 2.92141e-17
6888.4014 3.07426e-17
6889.5835 3.28507e-17
6890.7656 3.12423e-17
6891.9473 3.47385e-17
6893.1294 3.53395e-17
6894.311 3.29672e-17
6895.4932 3.00954e-17
6896.6753 3.09253e-17
6897.8574 2.59414e-17
6899.0396 2.96792e-17
6900.2217 2.84092e-17
6901.4038 3.01649e-17
6902.5859 3.38745e-17
6903.7681 2.66294e-17
6904.9502 3.04758e-17
6906.1323 3.1144e-17
6907.3145 2.68417e-17
6908.4971 2.82154e-17
6909.6792 2.97791e-17
6910.8618 3.30637e-17
6912.0439 3.33984e-17
6913.2261 2.84637e-17
6914.4087 2.84861e-17
6915.5913 2.75171e-17
6916.7734 3.11586e-17
6917.9561 2.58705e-17
6919.1387 2.94864e-17
6920.3213 3.41016e-17
6921.5039 3.09749e-17
6922.6865 2.52232e-17
6923.8691 2.79901e-17
6925.0518 3.15118e-17
6926.2344 3.03508e-17
6927.417 2.68639e-17
6928.5996 2.7064e-17
6929.7822 2.8663e-17
6930.9653 2.947e-17
6932.1479 2.84479e-17
6933.3306 2.59568e-17
6934.5137 2.94523e-17
6935.6963 2.60387e-17
6936.8794 3.13285e-17
6938.0625 2.62078e-17
6939.2451 2.34794e-17
6940.4282 2.72618e-17
6941.6113 2.65393e-17
6942.7944 2.94781e-17
6943.9775 2.59683e-17
6945.1602 2.22892e-17
6946.3433 2.67647e-17
6947.5264 2.69578e-17
6948.71 2.61098e-17
6949.8931 3.19467e-17
6951.0762 2.72829e-17
6952.2593 2.33732e-17
6953.4424 2.78655e-17
6954.626 2.89525e-17
6955.8091 3.12352e-17
6956.9927 2.78066e-17
6958.1758 2.87117e-17
6959.3594 2.79481e-17
6960.5425 3.32025e-17
6961.7261 2.82486e-17
6962.9097 2.36808e-17
6964.0928 2.65676e-17
6965.2764 2.89226e-17
6966.46 2.56403e-17
6967.6436 2.80618e-17
6968.8271 2.6507e-17
6970.0107 2.83957e-17
6971.1943 2.83912e-17
6972.3779 3.15899e-17
6973.5615 2.687e-17
6974.7456 2.80002e-17
6975.9292 2.79809e-17
6977.1128 2.60698e-17
6978.2969 3.10396e-17
6979.4805 3.29692e-17
6980.6641 2.46714e-17
6981.8481 2.30359e-17
6983.0322 2.61723e-17
6984.2158 2.87164e-17
6985.3999 3.18636e-17
6986.584 2.44332e-17
6987.7676 2.44794e-17
6988.9517 2.94738e-17
6990.1357 2.64267e-17
6991.3198 2.49048e-17
6992.5039 3.10103e-17
6993.688 2.50246e-17
6994.8721 2.78315e-17
6996.0562 2.42805e-17
6997.2402 2.92661e-17
6998.4248 2.90792e-17
6999.6089 2.49238e-17
7000.793 3.16547e-17
7001.9775 1.88943e-17
7003.1616 2.78054e-17
7004.3462 2.38588e-17
7005.5303 2.75797e-17
7006.7148 2.74542e-17
7007.8989 2.57496e-17
7009.0835 2.89303e-17
7010.2681 2.75177e-17
7011.4526 2.87934e-17
7012.6367 2.26112e-17
7013.8213 2.24619e-17
7015.0059 2.62432e-17
7016.1904 2.39331e-17
7017.375 2.29002e-17
7018.5596 2.70858e-17
7019.7441 2.68926e-17
7020.9292 2.64061e-17
7022.1138 2.79611e-17
7023.2983 3.0082e-17
7024.4829 2.62877e-17
7025.668 2.96866e-17
7026.8525 2.92308e-17
7028.0376 2.6977e-17
7029.2222 2.71803e-17
7030.4072 2.47372e-17
7031.5918 2.87615e-17
7032.7769 2.51922e-17
7033.9619 2.69784e-17
7035.147 2.82883e-17
7036.3315 2.64929e-17
7037.5166 2.80666e-17
7038.7017 2.68633e-17
7039.8867 2.27349e-17
7041.0718 2.28315e-17
7042.2568 2.38916e-17
7043.4419 2.71514e-17
7044.6274 2.24051e-17
7045.8125 2.64507e-17
7046.9976 2.52288e-17
7048.1826 2.69513e-17
7049.3682 2.50955e-17
7050.5532 3.17318e-17
7051.7388 2.34755e-17
7052.9238 2.6542e-17
7054.1094 2.68849e-17
7055.2944 2.82189e-17
7056.48 2.72545e-17
7057.6655 2.47565e-17
7058.8506 3.01519e-17
7060.0361 2.9118e-17
7061.2217 2.54375e-17
7062.4072 2.38541e-17
7063.5928 3.2186e-17
7064.7783 2.69833e-17
7065.9639 2.91518e-17
7067.1494 2.44119e-17
7068.335 2.94661e-17
7069.5205 2.17221e-17
7070.7065 2.1931e-17
7071.8921 2.82554e-17
7073.0776 2.10079e-17
7074.2637 2.50926e-17
7075.4492 2.65563e-17
7076.6353 2.66021e-17
7077.8208 2.60689e-17
7079.0068 2.68069e-17
7080.1924 2.70116e-17
7081.3784 2.35128e-17
7082.5645 2.63072e-17
7083.7505 2.38202e-17
7084.936 2.38121e-17
7086.1221 2.63221e-17
7087.3081 2.85048e-17
7088.4941 2.40398e-17
7089.6802 2.01211e-17
7090.8662 2.60721e-17
7092.0522 2.53123e-17
7093.2383 2.51734e-17
7094.4248 2.45939e-17
7095.6108 2.73706e-17
7096.7969 2.47779e-17
7097.9834 2.47635e-17
7099.1694 2.63078e-17
7100.3555 2.53465e-17
7101.542 2.40542e-17
7102.7285 2.07711e-17
7103.9146 2.33744e-17
7105.1011 2.39533e-17
7106.2876 2.50179e-17
7107.4736 2.13058e-17
7108.6602 1.98171e-17
7109.8467 2.201e-17
7111.0332 2.36932e-17
7112.2197 2.34118e-17
7113.4062 2.54118e-17
7114.5928 2.97788e-17
7115.7793 2.23914e-17
7116.9658 2.17569e-17
7118.1523 2.35301e-17
7119.3389 2.23169e-17
7120.5254 2.61832e-17
7121.7124 2.40215e-17
7122.8989 2.15728e-17
7124.0859 2.61956e-17
7125.2725 2.39878e-17
7126.459 2.12929e-17
7127.646 2.56035e-17
7128.833 2.34e-17
7130.0195 2.37007e-17
7131.2065 2.09369e-17
7132.3936 2.09479e-17
7133.5801 2.44301e-17
7134.7671 2.45957e-17
7135.9541 1.85998e-17
7137.1411 2.39999e-17
7138.3281 2.33822e-17
7139.5151 2.21124e-17
7140.7021 2.47614e-17
7141.8892 1.86334e-17
7143.0762 1.98744e-17
7144.2637 2.8394e-17
7145.4507 2.2047e-17
7146.6377 2.00195e-17
7147.8252 1.79865e-17
7149.0122 2.26223e-17
7150.1992 2.57445e-17
7151.3867 2.33494e-17
7152.5737 2.34854e-17
7153.7612 2.6192e-17
7154.9487 1.84321e-17
7156.1357 2.2392e-17
7157.3232 2.41095e-17
7158.5107 1.90758e-17
7159.6982 2.26722e-17
7160.8857 2.24703e-17
7162.0728 2.44953e-17
7163.2603 1.96643e-17
7164.4478 1.82584e-17
7165.6353 2.0894e-17
7166.8232 2.48561e-17
7168.0107 2.16029e-17
7169.1982 2.01451e-17
7170.3857 2.30592e-17
7171.5732 2.46438e-17
7172.7612 1.83045e-17
7173.9487 2.13913e-17
7175.1367 2.02786e-17
7176.3242 2.29299e-17
7177.5117 2.01547e-17
7178.6997 2.16353e-17
7179.8877 2.47737e-17
7181.0752 1.8713e-17
7182.2632 2.25669e-17
7183.4512 2.33322e-17
7184.6387 2.49149e-17
7185.8267 2.33693e-17
7187.0146 2.31107e-17
7188.2026 1.96451e-17
7189.3906 2.12132e-17
7190.5786 2.24102e-17
7191.7666 2.18151e-17
7192.9546 1.91581e-17
7194.1426 2.07943e-17
7195.3311 1.99822e-17
7196.519 2.23256e-17
7197.707 2.13748e-17
7198.8955 2.07743e-17
7200.0835 2.28233e-17
7201.2715 2.31462e-17
7202.46 2.29677e-17
7203.6479 1.73685e-17
7204.8364 1.94664e-17
7206.0249 1.88613e-17
7207.2129 1.76188e-17
7208.4014 2.62175e-17
7209.5898 2.1112e-17
7210.7783 1.98501e-17
7211.9663 2.13801e-17
7213.1548 1.93365e-17
7214.3433 2.07315e-17
7215.5317 2.30509e-17
7216.7202 1.69597e-17
7217.9087 2.22608e-17
7219.0972 2.4985e-17
7220.2861 2.24061e-17
7221.4746 1.85976e-17
7222.6631 1.80013e-17
7223.8516 1.96355e-17
7225.0405 1.86837e-17
7226.229 2.06769e-17
7227.4175 1.93894e-17
7228.6064 1.8476e-17
7229.7949 2.09973e-17
7230.9839 2.51718e-17
7232.1729 2.24508e-17
7233.3613 1.88504e-17
7234.5503 1.76725e-17
7235.7393 1.74777e-17
7236.9282 2.2658e-17
7238.1167 2.01844e-17
7239.3057 2.51741e-17
7240.4946 1.90423e-17
7241.6836 2.02349e-17
7242.8726 2.31263e-17
7244.0615 2.58284e-17
7245.2505 1.65721e-17
7246.4399 2.36754e-17
7247.6289 2.28724e-17
7248.8179 2.27623e-17
7250.0068 1.96323e-17
7251.1963 1.88329e-17
7252.3853 1.783e-17
7253.5742 2.10925e-17
7254.7637 2.24314e-17
7255.9526 2.31098e-17
7257.1421 1.94183e-17
7258.3315 1.69522e-17
7259.5205 1.86115e-17
7260.71 2.15737e-17
7261.8994 1.66488e-17
7263.0884 2.04957e-17
7264.2778 1.84923e-17
7265.4673 2.13402e-17
7266.6567 1.85858e-17
7267.8462 2.05479e-17
7269.0356 2.20119e-17
7270.2251 1.9706e-17
7271.4146 2.23465e-17
7272.604 1.69496e-17
7273.7935 2.36305e-17
7274.9834 1.81225e-17
7276.1729 2.81714e-17
7277.3623 1.78883e-17
7278.5522 1.9099e-17
7279.7417 1.93773e-17
7280.9316 1.9846e-17
7282.1211 2.33893e-17
7283.311 2.07903e-17
7284.5005 2.0642e-17
7285.6904 1.63539e-17
7286.8799 2.03368e-17
7288.0698 1.53499e-17
7289.2598 1.90015e-17
7290.4497 2.08919e-17
7291.6392 1.76036e-17
7292.8291 2.36029e-17
7294.019 2.18203e-17
7295.209 1.58354e-17
7296.3989 2.30892e-17
7297.5889 1.54795e-17
7298.7793 1.91702e-17
7299.9692 2.07559e-17
7301.1592 1.9984e-17
7302.3491 1.93612e-17
7303.5391 1.78471e-17
7304.7295 1.94215e-17
7305.9194 1.87751e-17
7307.1099 2.09886e-17
7308.2998 2.33752e-17
7309.4902 1.90406e-17
7310.6802 1.89054e-17
7311.8706 1.38958e-17
7313.0605 2.20911e-17
7314.251 1.89307e-17
7315.4414 2.62595e-17
7316.6318 1.61567e-17
7317.8218 1.92982e-17
7319.0122 2.22434e-17
7320.2026 1.4169e-17
7321.3931 1.96561e-17
7322.5835 2.20491e-17
7323.7739 1.69514e-17
7324.9644 1.81178e-17
7326.1548 1.95907e-17
7327.3452 2.34842e-17
7328.5361 1.90261e-17
7329.7266 2.2267e-17
7330.917 1.56352e-17
7332.1079 1.93071e-17
7333.2983 2.42776e-17
7334.4888 2.22649e-17
7335.6797 2.1278e-17
7336.8701 1.9545e-17
7338.061 1.66094e-17
7339.2515 1.4685e-17
7340.4424 1.83035e-17
7341.6333 2.0972e-17
7342.8242 2.48035e-17
7344.0146 1.49472e-17
7345.2056 2.02021e-17
7346.3965 2.06134e-17
7347.5874 2.56506e-17
7348.7783 1.83559e-17
7349.9692 1.62253e-17
7351.1602 1.82513e-17
7352.3511 1.85304e-17
7353.542 2.05664e-17
7354.7329 2.05976e-17
7355.9238 2.19038e-17
7357.1152 1.75405e-17
7358.3062 1.88493e-17
7359.4971 1.92552e-17
7360.6885 1.9308e-17
7361.8794 2.13718e-17
7363.0703 2.13628e-17
7364.2617 1.62365e-17
7365.4531 2.09643e-17
7366.644 2.67442e-17
7367.8354 1.61769e-17
7369.0264 2.04573e-17
7370.2178 1.68133e-17
7371.4092 2.16232e-17
7372.6006 1.91364e-17
7373.7915 1.65336e-17
7374.9829 1.901e-17
7376.1743 1.84907e-17
7377.3657 2.3841e-17
7378.5571 1.84108e-17
7379.7485 2.17926e-17
7380.9399 1.92388e-17
7382.1318 2.14953e-17
7383.3232 1.45663e-17
7384.5146 2.29706e-17
7385.7061 2.06588e-17
7386.8975 2.00751e-17
7388.0894 2.03499e-17
7389.2808 2.19119e-17
7390.4727 1.99281e-17
7391.6641 1.91344e-17
7392.856 1.93024e-17
7394.0474 2.58021e-17
7395.2393 1.78671e-17
7396.4307 2.15926e-17
7397.6226 1.97113e-17
7398.8145 2.21249e-17
7400.0063 2.24098e-17
7401.1982 2.58495e-17
7402.3896 2.62233e-17
7403.5815 2.18469e-17
7404.7734 1.97679e-17
7405.9653 1.62541e-17
7407.1572 2.05613e-17
7408.3491 1.78498e-17
7409.541 2.50454e-17
7410.7334 1.73994e-17
7411.9253 1.79202e-17
7413.1172 2.0985e-17
7414.3091 1.43895e-17
7415.5015 2.3099e-17
7416.6934 1.75914e-17
7417.8853 1.77267e-17
7419.0776 2.04364e-17
7420.2695 2.29072e-17
7421.4619 2.27872e-17
7422.6538 2.29454e-17
7423.8462 2.20033e-17
7425.0386 1.93138e-17
7426.2305 2.46205e-17
7427.4229 1.68559e-17
7428.6152 2.08045e-17
7429.8076 2.27689e-17
7431.0 2.29311e-17
7432.1919 2.23515e-17
7433.3843 2.08865e-17
7434.5767 2.17486e-17
7435.769 2.11283e-17
7436.9619 2.00502e-17
7438.1543 1.90516e-17
7439.3467 2.64179e-17
7440.5391 2.00034e-17
7441.7314 1.96978e-17
7442.9243 1.99288e-17
7444.1167 2.04152e-17
7445.3091 1.88308e-17
7446.5015 2.02794e-17
7447.6943 1.94147e-17
7448.8872 2.15226e-17
7450.0796 2.01375e-17
7451.2725 1.8444e-17
7452.4648 2.16473e-17
7453.6577 2.31847e-17
7454.8506 2.06704e-17
7456.043 1.84232e-17
7457.2358 1.87918e-17
7458.4287 2.45162e-17
7459.6216 2.17544e-17
7460.8145 2.09407e-17
7462.0073 1.83153e-17
7463.2002 1.95966e-17
7464.3926 2.03338e-17
7465.5859 2.10499e-17
7466.7788 2.51072e-17
7467.9717 2.13418e-17
7469.1646 2.44912e-17
7470.3574 2.29106e-17
7471.5503 2.24341e-17
7472.7437 2.17766e-17
7473.9365 1.40181e-17
7475.1299 2.30413e-17
7476.3228 2.13112e-17
7477.5161 2.13553e-17
7478.709 1.71859e-17
7479.9023 2.31026e-17
7481.0952 2.01506e-17
7482.2886 2.28755e-17
7483.4819 2.29941e-17
7484.6748 1.8701e-17
7485.8682 1.60788e-17
7487.0615 1.89191e-17
7488.2549 2.05012e-17
7489.4482 2.05031e-17
7490.6411 2.14293e-17
7491.8345 1.71982e-17
7493.0278 1.88058e-17
7494.2212 1.94379e-17
7495.415 1.77767e-17
7496.6084 1.93358e-17
7497.8018 1.59881e-17
7498.9951 1.9822e-17
7500.1885 2.02239e-17
7501.3818 2.19926e-17
7502.5757 2.03348e-17
7503.769 2.22105e-17
7504.9629 1.96036e-17
7506.1562 1.79059e-17
7507.3496 1.76266e-17
7508.5435 1.82646e-17
7509.7373 2.10296e-17
7510.9307 1.91265e-17
7512.1245 2.20791e-17
7513.3179 2.18895e-17
7514.5117 1.89628e-17
7515.7056 1.58303e-17
7516.8994 1.87049e-17
7518.0933 1.94047e-17
7519.2871 2.14634e-17
7520.4805 1.67928e-17
7521.6743 2.38771e-17
7522.8682 1.66977e-17
7524.062 1.48569e-17
7525.2559 1.80866e-17
7526.4502 1.93473e-17
7527.644 1.76169e-17
7528.8379 1.37652e-17
7530.0317 1.79035e-17
7531.2261 1.41321e-17
7532.4199 2.07127e-17
7533.6138 1.79024e-17
7534.8081 1.68682e-17
7536.002 1.76813e-17
7537.1963 1.83783e-17
7538.3901 1.95206e-17
7539.5845 1.91332e-17
7540.7783 1.9218e-17
7541.9727 2.03533e-17
7543.167 1.64308e-17
7544.3608 1.78017e-17
7545.5552 1.86206e-17
7546.7495 1.54419e-17
7547.9438 2.05625e-17
7549.1382 1.60294e-17
7550.3325 2.03206e-17
7551.5264 1.8354e-17
7552.7207 1.75526e-17
7553.9155 1.18998e-17
7555.1099 1.72675e-17
7556.3042 1.80242e-17
7557.4985 1.88932e-17
7558.6929 2.06522e-17
7559.8872 1.76793e-17
7561.082 2.18547e-17
7562.2764 1.61266e-17
7563.4707 1.6236e-17
7564.6655 1.60528e-17
7565.8599 1.76404e-17
7567.0547 2.15199e-17
7568.249 1.75573e-17
7569.4434 1.60208e-17
7570.6382 1.76869e-17
7571.833 1.65292e-17
7573.0278 1.13133e-17
7574.2222 1.87461e-17
7575.417 1.58744e-17
7576.6118 2.3176e-17
7577.8066 1.67449e-17
7579.001 2.07772e-17
7580.1958 1.99376e-17
7581.3906 1.63113e-17
7582.5854 1.86277e-17
7583.7803 1.90888e-17
7584.9751 1.84098e-17
7586.1699 2.01204e-17
7587.3652 1.76363e-17
7588.5601 1.66325e-17
7589.7549 2.58606e-17
7590.9497 1.62253e-17
7592.1445 1.93927e-17
7593.3398 1.87199e-17
7594.5347 1.69957e-17
7595.7295 2.20937e-17
7596.9248 1.62513e-17
7598.1196 1.76448e-17
7599.3149 2.10234e-17
7600.5098 2.71665e-17
7601.7051 2.59106e-17
7602.9004 3.14854e-17
7604.0952 1.63789e-17
7605.2905 2.44752e-17
7606.4858 1.99582e-17
7607.6812 2.186e-17
7608.876 2.01456e-17
7610.0713 2.62011e-17
7611.2666 2.08884e-17
7612.4619 2.23551e-17
7613.6572 1.70732e-17
7614.8525 1.84637e-17
7616.0479 1.85248e-17
7617.2432 1.59104e-17
7618.4385 1.98628e-17
7619.6343 1.67703e-17
7620.8296 1.8171e-17
7622.0249 2.20392e-17
7623.2202 1.64826e-17
7624.416 2.19844e-17
7625.6113 1.8342e-17
7626.8071 1.60372e-17
7628.0024 2.04731e-17
7629.1982 1.42217e-17
7630.3936 1.99701e-17
7631.5889 1.61201e-17
7632.7847 2.46265e-17
7633.9805 1.6927e-17
7635.1758 2.14023e-17
7636.3716 1.87613e-17
7637.5674 1.47973e-17
7638.7632 1.86181e-17
7639.9585 2.09258e-17
7641.1543 1.81801e-17
7642.3501 1.7458e-17
7643.5459 1.64259e-17
7644.7417 1.82254e-17
7645.9375 2.07795e-17
7647.1333 1.76001e-17
7648.3291 1.61258e-17
7649.5249 2.12556e-17
7650.7207 2.01169e-17
7651.917 1.73247e-17
7653.1128 2.26517e-17
7654.3086 1.98164e-17
7655.5044 1.54862e-17
7656.7007 1.73351e-17
7657.8965 1.97723e-17
7659.0928 1.97907e-17
7660.2886 2.09049e-17
7661.4844 1.67277e-17
7662.6807 2.01246e-17
7663.877 2.16366e-17
7665.0728 1.78354e-17
7666.269 1.38736e-17
7667.4653 1.78451e-17
7668.6611 2.00132e-17
7669.8574 1.78089e-17
7671.0537 1.7854e-17
7672.25 1.88237e-17
7673.4463 1.69909e-17
7674.6421 1.84844e-17
7675.8384 2.00979e-17
7677.0347 2.00855e-17
7678.231 1.79431e-17
7679.4272 2.00394e-17
7680.624 1.67937e-17
7681.8203 1.79674e-17
7683.0166 2.02943e-17
7684.2129 2.02063e-17
7685.4092 1.95552e-17
7686.6055 1.81887e-17
7687.8022 1.89598e-17
7688.9985 1.59977e-17
7690.1953 1.5035e-17
7691.3916 1.93436e-17
7692.5879 2.14095e-17
7693.7847 1.89134e-17
7694.981 2.03415e-17
7696.1777 1.81138e-17
7697.3745 2.05636e-17
7698.5708 1.90238e-17
7699.7676 2.16467e-17
7700.9639 2.00792e-17
7702.1606 1.88511e-17
7703.3574 2.59885e-17
7704.5542 1.89213e-17
7705.751 2.34286e-17
7706.9478 1.91102e-17
7708.1445 2.14555e-17
7709.3413 2.00244e-17
7710.5381 2.54707e-17
7711.7349 2.78445e-17
7712.9316 2.23749e-17
7714.1284 1.76679e-17
7715.3252 3.30405e-17
7716.522 2.21398e-17
7717.7188 1.93936e-17
7718.916 2.48182e-17
7720.1128 2.08024e-17
7721.3096 2.16302e-17
7722.5068 2.1948e-17
7723.7036 2.11114e-17
7724.9004 2.69638e-17
7726.0977 2.05199e-17
7727.2944 2.05599e-17
7728.4917 2.20973e-17
7729.6885 2.25931e-17
7730.8857 2.21296e-17
7732.083 2.09509e-17
7733.2798 2.31893e-17
7734.4771 2.22578e-17
7735.6743 2.43762e-17
7736.8716 2.2304e-17
7738.0684 1.98981e-17
7739.2656 2.25785e-17
7740.4629 2.45924e-17
7741.6602 2.1762e-17
7742.8574 2.34631e-17
7744.0547 2.03954e-17
7745.252 2.06583e-17
7746.4492 2.2017e-17
7747.6465 2.63686e-17
7748.8442 1.78849e-17
7750.0415 2.13197e-17
7751.2388 1.91224e-17
7752.436 1.63026e-17
7753.6333 2.38796e-17
7754.8311 2.35239e-17
7756.0283 2.93655e-17
7757.2256 2.22172e-17
7758.4233 2.31331e-17
7759.6206 2.06612e-17
7760.8184 2.16159e-17
7762.0156 1.68663e-17
7763.2134 2.03375e-17
7764.4111 2.00809e-17
7765.6084 2.35337e-17
7766.8062 2.11811e-17
7768.0039 2.2416e-17
7769.2012 1.87221e-17
7770.3989 2.36559e-17
7771.5967 2.06104e-17
7772.7944 2.27429e-17
7773.9922 2.40048e-17
7775.1899 1.90342e-17
7776.3877 2.60038e-17
7777.585 2.10337e-17
7778.7832 2.27364e-17
7779.981 1.86648e-17
7781.1787 1.97505e-17
7782.3765 1.62395e-17
7783.5742 1.84949e-17
7784.772 2.05039e-17
7785.9697 2.28732e-17
7787.168 2.29509e-17
7788.3657 2.33355e-17
7789.5635 2.7142e-17
7790.7617 2.14277e-17
7791.9595 1.79419e-17
7793.1577 2.08813e-17
7794.3555 1.49853e-17
7795.5537 2.61853e-17
7796.7515 1.90852e-17
7797.9497 1.8227e-17
7799.1475 2.61105e-17
7800.3457 1.9242e-17
7801.5435 2.00214e-17
7802.7417 1.9263e-17
7803.9399 1.9385e-17
7805.1382 1.59918e-17
7806.3364 2.06495e-17
7807.5342 2.44732e-17
7808.7324 1.86531e-17
7809.9307 1.94374e-17
7811.1289 1.86902e-17
7812.3271 2.14332e-17
7813.5254 1.65091e-17
7814.7236 1.96703e-17
7815.9219 1.80942e-17
7817.1201 2.05417e-17
7818.3184 2.61209e-17
7819.5171 2.04094e-17
7820.7153 1.90432e-17
7821.9136 1.24689e-17
7823.1118 2.34836e-17
7824.3105 1.65988e-17
7825.5088 2.00156e-17
7826.707 1.79774e-17
7827.9058 2.22187e-17
7829.104 1.94441e-17
7830.3027 1.79576e-17
7831.501 1.94207e-17
7832.6997 2.40216e-17
7833.8984 1.94148e-17
7835.0967 1.94089e-17
7836.2954 1.61361e-17
7837.4937 2.05439e-17
7838.6924 1.45835e-17
7839.8911 2.09427e-17
7841.0898 2.06419e-17
7842.2881 1.4106e-17
7843.4868 1.19063e-17
7844.6855 1.74202e-17
7845.8843 1.87732e-17
7847.083 2.05776e-17
7848.2817 1.90407e-17
7849.4805 2.72584e-17
7850.6792 1.51589e-17
7851.8779 1.65787e-17
7853.0767 1.30351e-17
7854.2754 1.92253e-17
7855.4746 2.37246e-17
7856.6733 2.08942e-17
7857.8721 1.55674e-17
7859.0708 1.45824e-17
7860.27 1.56391e-17
7861.4688 1.77855e-17
7862.6675 1.89061e-17
7863.8667 1.86769e-17
7865.0654 2.07494e-17
7866.2642 2.05753e-17
7867.4634 1.81105e-17
7868.6626 1.83395e-17
7869.8613 1.8117e-17
7871.0605 1.57845e-17
7872.2593 1.47141e-17
7873.4585 1.46908e-17
7874.6577 1.89328e-17
7875.8564 1.41104e-17
7877.0557 1.8154e-17
7878.2549 2.30383e-17
7879.4541 2.07377e-17
7880.6533 1.92041e-17
7881.8525 2.1866e-17
7883.0513 1.99512e-17
7884.2505 2.42483e-17
7885.4497 1.8493e-17
7886.6489 1.65793e-17
7887.8481 1.87088e-17
7889.0474 2.1193e-17
7890.2471 1.84808e-17
7891.4463 2.50199e-17
7892.6455 2.35667e-17
7893.8447 1.80597e-17
7895.0439 2.03144e-17
7896.2432 1.82633e-17
7897.4429 1.78876e-17
7898.6421 1.77908e-17
7899.8418 1.27795e-17
7901.041 1.41759e-17
7902.2402 1.89552e-17
7903.4399 2.22576e-17
7904.6392 2.12266e-17
7905.8389 2.00297e-17
7907.0381 1.95207e-17
7908.2378 2.05473e-17
7909.4375 1.80566e-17
7910.6367 1.9405e-17
7911.8364 1.14913e-17
7913.0361 1.85318e-17
7914.2354 2.80406e-17
7915.4351 2.08672e-17
7916.6348 1.73487e-17
7917.8345 2.07415e-17
7919.0337 2.0279e-17
7920.2334 2.59436e-17
7921.4331 1.41549e-17
7922.6328 1.91726e-17
7923.8325 1.40454e-17
7925.0322 1.96562e-17
7926.2319 2.19584e-17
7927.4316 1.20263e-17
7928.6313 2.45765e-17
7929.8315 2.22281e-17
7931.0312 1.90116e-17
7932.231 1.9357e-17
7933.4307 1.87207e-17
7934.6304 2.10267e-17
7935.8306 1.81602e-17
7937.0303 2.04074e-17
7938.23 1.67511e-17
7939.4302 2.13768e-17
7940.6299 2.01975e-17
7941.8296 2.085e-17
7943.0298 2.04913e-17
7944.2295 2.09908e-17
7945.4297 2.36269e-17
7946.6294 1.92442e-17
7947.8296 1.81432e-17
7949.0298 1.78077e-17
7950.2295 2.36212e-17
7951.4297 2.02831e-17
7952.6299 2.03399e-17
7953.8296 1.82779e-17
7955.0298 2.33146e-17
7956.23 1.93433e-17
7957.4302 2.24218e-17
7958.6304 2.11461e-17
7959.8301 2.24204e-17
7961.0303 1.8759e-17
7962.2305 2.04649e-17
7963.4307 2.31677e-17
7964.6309 1.8042e-17
7965.8311 1.68078e-17
7967.0312 2.22516e-17
7968.2314 1.9065e-17
7969.4321 2.40037e-17
7970.6323 2.14252e-17
7971.8325 2.15577e-17
7973.0327 2.44131e-17
7974.2329 2.28793e-17
7975.4331 2.22246e-17
7976.6338 1.68511e-17
7977.834 2.34361e-17
7979.0342 1.98132e-17
7980.2349 2.22663e-17
7981.4351 2.28107e-17
7982.6357 2.291e-17
7983.8359 2.18472e-17
7985.0366 2.26907e-17
7986.2368 2.28514e-17
7987.4375 2.07385e-17
7988.6377 2.30129e-17
7989.8384 1.56323e-17
7991.0386 2.08718e-17
7992.2393 2.15011e-17
7993.4399 1.15562e-17
7994.6401 2.191e-17
7995.8408 2.22888e-17
7997.0415 2.40928e-17
7998.2422 2.68949e-17
7999.4424 2.41037e-17
8000.6431 2.16864e-17
8001.8438 2.47076e-17
8003.0444 2.4306e-17
8004.2451 2.02503e-17
8005.4458 2.17354e-17
8006.6465 2.09492e-17
8007.8472 2.00563e-17
8009.0479 2.19953e-17
8010.2485 2.60372e-17
8011.4492 2.16021e-17
8012.6499 2.49866e-17
8013.8511 1.80955e-17
8015.0518 2.75546e-17
8016.2524 1.59235e-17
8017.4531 2.36754e-17
8018.6538 1.80144e-17
8019.855 2.18628e-17
8021.0557 2.27751e-17
8022.2568 2.27164e-17
8023.4575 2.06853e-17
8024.6582 2.77524e-17
8025.8594 1.85361e-17
8027.0601 2.29666e-17
8028.2612 1.87029e-17
8029.4619 2.7839e-17
8030.6631 2.42892e-17
8031.8638 2.06945e-17
8033.0649 2.62475e-17
8034.2656 2.58228e-17
8035.4668 2.62322e-17
8036.668 2.23913e-17
8037.8691 2.13992e-17
8039.0698 1.8611e-17
8040.271 2.20462e-17
8041.4722 2.25562e-17
8042.6733 2.17698e-17
8043.874 2.50044e-17
8045.0752 2.30677e-17
8046.2764 2.28333e-17
8047.4775 2.29162e-17
8048.6787 2.46059e-17
8049.8799 2.48258e-17
8051.0811 1.89144e-17
8052.2822 2.38061e-17
8053.4834 2.60523e-17
8054.6846 2.2778e-17
8055.8857 2.12732e-17
8057.0869 2.22674e-17
8058.2881 2.69367e-17
8059.4893 2.70886e-17
8060.6909 2.34509e-17
8061.8921 2.42562e-17
8063.0933 2.05768e-17
8064.2949 1.84409e-17
8065.4961 2.37319e-17
8066.6973 2.36822e-17
8067.8984 2.3402e-17
8069.1001 2.3475e-17
8070.3013 2.07486e-17
8071.5029 2.28851e-17
8072.7041 2.3194e-17
8073.9058 2.53391e-17
8075.1069 2.3952e-17
8076.3086 2.49927e-17
8077.5098 2.32689e-17
8078.7114 2.41974e-17
8079.9126 2.37435e-17
8081.1143 2.77539e-17
8082.3159 2.22467e-17
8083.5171 2.26577e-17
8084.7188 2.35557e-17
8085.9204 2.37556e-17
8087.1216 2.31707e-17
8088.3232 2.62183e-17
8089.5249 2.24874e-17
8090.7266 2.36193e-17
8091.9282 2.92156e-17
8093.1299 2.68503e-17
8094.3315 2.58346e-17
8095.5327 2.35758e-17
8096.7344 2.73657e-17
8097.936 2.20361e-17
8099.1377 2.18183e-17
8100.3394 2.15599e-17
8101.541 2.73139e-17
8102.7427 2.41987e-17
8103.9448 2.50268e-17
8105.1465 2.45069e-17
8106.3481 2.92169e-17
8107.5498 2.58223e-17
8108.7515 2.08128e-17
8109.9531 2.01397e-17
8111.1553 2.20801e-17
8112.3569 2.24778e-17
8113.5586 2.27536e-17
8114.7607 2.10334e-17
8115.9624 2.62131e-17
8117.1641 2.42243e-17
8118.3662 2.16877e-17
8119.5679 2.46475e-17
8120.7695 2.11111e-17
8121.9717 2.02046e-17
8123.1733 2.49539e-17
8124.3755 2.11435e-17
8125.5771 2.1444e-17
8126.7793 1.9372e-17
8127.981 2.3121e-17
8129.1831 2.58523e-17
8130.3853 2.21007e-17
8131.5869 2.26772e-17
8132.7891 1.88978e-17
8133.9912 2.08245e-17
8135.1929 2.41832e-17
8136.395 2.07429e-17
8137.5972 2.17168e-17
8138.7993 2.45998e-17
8140.001 2.18928e-17
8141.2031 2.41082e-17
8142.4053 2.13191e-17
8143.6074 2.70731e-17
8144.8096 2.16414e-17
8146.0117 2.00123e-17
8147.2139 1.84977e-17
8148.416 2.05637e-17
8149.6177 2.15919e-17
8150.8203 2.47342e-17
8152.022 2.32707e-17
8153.2246 1.9625e-17
8154.4268 2.07768e-17
8155.6289 2.00582e-17
8156.8311 2.19634e-17
8158.0332 2.40563e-17
8159.2354 2.62557e-17
8160.4375 2.36998e-17
8161.6401 2.28401e-17
8162.8423 2.29765e-17
8164.0444 2.41006e-17
8165.2466 2.03175e-17
8166.4492 2.21999e-17
8167.6514 2.66883e-17
8168.8535 2.31697e-17
8170.0557 2.20988e-17
8171.2583 2.19725e-17
8172.4604 3.00378e-17
8173.6631 2.51582e-17
8174.8652 2.28222e-17
8176.0674 2.09924e-17
8177.27 2.32143e-17
8178.4722 2.12553e-17
8179.6748 2.18852e-17
8180.8774 2.28977e-17
8182.0796 2.28173e-17
8183.2822 1.96521e-17
8184.4844 2.37163e-17
8185.687 2.3403e-17
8186.8892 2.32401e-17
8188.0918 2.24937e-17
8189.2944 2.13389e-17
8190.4966 2.66805e-17
8191.6992 2.16535e-17
8192.9014 2.67355e-17
8194.1045 2.53764e-17
8195.3066 2.56753e-17
8196.5098 2.42671e-17
8197.7119 2.70226e-17
8198.9141 2.26988e-17
8200.1172 2.2333e-17
8201.3193 1.92981e-17
8202.5225 2.40569e-17
8203.7246 2.62873e-17
8204.9277 2.50933e-17
8206.1299 2.4558e-17
8207.333 2.17116e-17
8208.5352 2.32493e-17
8209.7383 2.22697e-17
8210.9404 2.6201e-17
8212.1436 2.40192e-17
8213.3457 2.30791e-17
8214.5488 2.73036e-17
8215.751 2.22016e-17
8216.9541 2.14275e-17
8218.1562 2.63226e-17
8219.3594 2.68181e-17
8220.5625 2.42169e-17
8221.7646 2.60335e-17
8222.9678 2.27378e-17
8224.1699 2.4423e-17
8225.373 2.50342e-17
8226.5762 2.3532e-17
8227.7783 2.34504e-17
8228.9814 2.61168e-17
8230.1846 2.36987e-17
8231.3867 2.03567e-17
8232.5898 2.32338e-17
8233.793 2.47842e-17
8234.9951 2.33253e-17
8236.1982 2.10066e-17
8237.4014 1.95037e-17
8238.6045 2.2504e-17
8239.8066 2.52464e-17
8241.0098 2.33065e-17
8242.2129 2.25905e-17
8243.416 2.72025e-17
8244.6182 2.55955e-17
8245.8213 2.06338e-17
8247.0244 2.20237e-17
8248.2275 2.36262e-17
8249.4307 2.07901e-17
8250.6328 2.70438e-17
8251.8359 2.25482e-17
8253.0391 2.47008e-17
8254.2422 2.20783e-17
8255.4453 2.54798e-17
8256.6484 2.20341e-17
8257.8506 2.67481e-17
8259.0537 2.97134e-17
8260.2568 3.0076e-17
8261.46 3.31183e-17
8262.6631 3.41798e-17
8263.8662 2.94434e-17
8265.0693 2.73607e-17
8266.2725 2.33821e-17
8267.4756 2.62212e-17
8268.6787 2.26153e-17
8269.8818 2.49972e-17
8271.085 2.57539e-17
8272.2881 2.54507e-17
8273.4902 2.25653e-17
8274.6934 2.00162e-17
8275.8965 1.98689e-17
8277.1006 2.56328e-17
8278.3027 2.51947e-17
8279.5059 3.09791e-17
8280.71 2.00161e-17
8281.9131 1.70864e-17
8283.1162 2.22268e-17
8284.3193 3.00425e-17
8285.5225 2.22168e-17
8286.7256 1.90471e-17
8287.9287 2.22304e-17
8289.1318 2.84235e-17
8290.335 2.03735e-17
8291.5381 1.6341e-17
8292.7412 2.35948e-17
8293.9443 1.94462e-17
8295.1475 2.83316e-17
8296.3516 2.99736e-17
8297.5547 1.70533e-17
8298.7578 1.63635e-17
8299.9609 2.56423e-17
8301.1641 1.72155e-17
8302.3672 2.25868e-17
8303.5703 2.39021e-17
8304.7744 2.4156e-17
8305.9775 2.16376e-17
8307.1807 2.56975e-17
8308.3838 2.1482e-17
8309.5869 2.20627e-17
8310.791 2.50249e-17
8311.9941 2.09791e-17
8313.1973 2.34235e-17
8314.4004 2.30624e-17
8315.6045 2.46954e-17
8316.8076 2.19778e-17
8318.0107 2.3311e-17
8319.2139 2.21621e-17
8320.418 2.08807e-17
8321.6211 2.27776e-17
8322.8242 1.9528e-17
8324.0273 2.25929e-17
8325.2314 2.20375e-17
8326.4346 2.21235e-17
8327.6377 2.20519e-17
8328.8418 2.22817e-17
8330.0449 2.0923e-17
8331.248 2.06611e-17
8332.4521 2.00286e-17
8333.6553 2.14079e-17
8334.8584 2.2716e-17
8336.0625 2.14988e-17
8337.2656 2.31361e-17
8338.4688 1.96234e-17
8339.6729 2.06138e-17
8340.876 2.36507e-17
8342.0801 2.7804e-17
8343.2832 2.91543e-17
8344.4863 2.76475e-17
8345.6904 2.09584e-17
8346.8936 2.13935e-17
8348.0977 1.81238e-17
8349.3008 1.33235e-17
8350.5049 2.24649e-17
8351.708 1.54011e-17
8352.9111 1.90834e-17
8354.1152 2.47731e-17
8355.3184 2.51401e-17
8356.5225 1.95731e-17
8357.7256 1.65678e-17
8358.9297 2.32013e-17
8360.1328 2.35709e-17
8361.3369 2.31433e-17
8362.54 1.80524e-17
8363.7441 2.50378e-17
8364.9473 1.60905e-17
8366.1514 1.65933e-17
8367.3545 1.68123e-17
8368.5586 2.08218e-17
8369.7617 1.84494e-17
8370.9658 2.23046e-17
8372.1689 1.8735e-17
8373.373 2.18329e-17
8374.5762 2.0937e-17
8375.7803 2.06949e-17
8376.9834 2.05776e-17
8378.1875 1.69372e-17
8379.3916 1.6306e-17
8380.5947 2.18806e-17
8381.7988 2.29892e-17
8383.002 2.37571e-17
8384.2061 1.68418e-17
8385.4092 1.74777e-17
8386.6133 2.05971e-17
8387.8174 1.64006e-17
8389.0205 1.97599e-17
8390.2246 1.89062e-17
8391.4277 1.79201e-17
8392.6318 1.6402e-17
8393.8359 1.6875e-17
8395.0391 1.96827e-17
8396.2432 1.4337e-17
8397.4473 2.10171e-17
8398.6504 1.53874e-17
8399.8545 1.13075e-17
8401.0586 2.68113e-17
8402.2617 1.73669e-17
8403.4658 2.25551e-17
8404.6699 1.98634e-17
8405.873 1.95178e-17
8407.0771 1.73446e-17
8408.2812 1.82749e-17
8409.4844 2.31331e-17
8410.6885 1.86906e-17
8411.8926 2.01173e-17
8413.0957 1.77269e-17
8414.2998 1.89079e-17
8415.5039 1.93448e-17
8416.708 1.77555e-17
8417.9111 1.66543e-17
8419.1152 1.68427e-17
8420.3193 1.90534e-17
8421.5225 2.02584e-17
8422.7266 1.98097e-17
8423.9307 1.4755e-17
8425.1348 1.29002e-17
8426.3379 9.15045e-18
8427.542 1.94484e-17
8428.7461 2.32785e-17
8429.9502 1.17228e-17
8431.1533 1.95383e-17
8432.3574 7.66835e-18
8433.5615 1.68524e-17
8434.7656 2.13174e-17
8435.9688 1.6743e-17
8437.1729 2.26531e-17
8438.377 2.03032e-17
8439.5811 2.02281e-17
8440.7852 1.66643e-17
8441.9883 1.65849e-17
8443.1924 1.69782e-17
8444.3965 1.91391e-17
8445.6006 1.7078e-17
8446.8047 1.58766e-17
8448.0078 1.83033e-17
8449.2119 1.4331e-17
8450.416 1.809e-17
8451.6201 1.96148e-17
8452.8242 1.73221e-17
8454.0273 2.22936e-17
8455.2314 1.80474e-17
8456.4355 2.09186e-17
8457.6396 1.86325e-17
8458.8438 2.10759e-17
8460.0479 1.69819e-17
8461.251 8.41281e-18
8462.4551 1.97428e-17
8463.6592 1.83112e-17
8464.8633 1.16787e-17
8466.0674 1.7926e-17
8467.2715 1.46688e-17
8468.4756 1.1599e-17
8469.6787 1.7682e-17
8470.8828 1.68691e-17
8472.0869 1.73004e-17
8473.291 1.79021e-17
8474.4951 1.7836e-17
8475.6992 1.4049e-17
8476.9033 1.71228e-17
8478.1064 1.60628e-17
8479.3105 1.67899e-17
8480.5146 1.85882e-17
8481.7188 1.76399e-17
8482.9229 1.76746e-17
8484.127 1.94732e-17
8485.3311 1.94825e-17
8486.5352 1.9295e-17
8487.7393 1.83112e-17
8488.9434 1.6328e-17
8490.1465 1.83817e-17
8491.3506 1.63762e-17
8492.5547 1.15396e-17
8493.7588 1.23973e-17
8494.9629 2.58581e-17
8496.167 2.30955e-17
8497.3711 1.61456e-17
8498.5752 1.96323e-17
8499.7793 1.78327e-17
8500.9834 1.61116e-17
8502.1865 1.60862e-17
8503.3906 1.94677e-17
8504.5947 2.3585e-17
8505.7988 1.43929e-17
8507.0029 1.49393e-17
8508.207 1.21565e-17
8509.4111 1.90536e-17
8510.6152 2.02636e-17
8511.8193 1.88258e-17
8513.0234 1.73894e-17
8514.2275 1.51914e-17
8515.4316 1.76793e-17
8516.6357 1.55241e-17
8517.8389 1.38886e-17
8519.043 1.85952e-17
8520.2471 1.71379e-17
8521.4512 1.72475e-17
8522.6553 1.76915e-17
8523.8594 1.91863e-17
8525.0635 1.69282e-17
8526.2676 1.53768e-17
8527.4717 1.30705e-17
8528.6758 1.93679e-17
8529.8799 1.46346e-17
8531.084 1.73323e-17
8532.2881 1.94259e-17
8533.4922 1.31646e-17
8534.6963 1.80076e-17
8535.8994 2.11313e-17
8537.1035 2.09002e-17
8538.3076 1.46697e-17
8539.5117 1.57533e-17
8540.7158 2.00792e-17
8541.9199 1.92827e-17
8543.124 1.96557e-17
8544.3281 1.43938e-17
8545.5322 1.58817e-17
8546.7363 1.60322e-17
8547.9404 1.50719e-17
8549.1445 1.44178e-17
8550.3486 1.11842e-17
8551.5527 2.24365e-17
8552.7568 1.71122e-17
8553.9609 1.24857e-17
8555.165 1.44479e-17
8556.3691 1.54105e-17
8557.5732 1.65224e-17
8558.7764 1.62046e-17
8559.9805 1.74755e-17
8561.1846 1.90275e-17
8562.3887 1.53404e-17
8563.5928 1.42645e-17
8564.7969 1.54134e-17
8566.001 1.56008e-17
8567.2051 1.53293e-17
8568.4092 1.5404e-17
8569.6133 1.40436e-17
8570.8174 1.6137e-17
8572.0215 1.77221e-17
8573.2256 1.38398e-17
8574.4297 1.60474e-17
8575.6338 1.46847e-17
8576.8379 1.62822e-17
8578.041 1.34075e-17
8579.2451 1.76126e-17
8580.4492 1.22509e-17
8581.6533 1.80098e-17
8582.8574 1.46529e-17
8584.0615 1.77214e-17
8585.2656 1.43733e-17
8586.4697 1.36874e-17
8587.6738 1.57635e-17
8588.8779 1.67623e-17
8590.082 1.42496e-17
8591.2861 1.60741e-17
8592.4902 1.46909e-17
8593.6943 1.50641e-17
8594.8975 1.56277e-17
8596.1016 1.34631e-17
8597.3057 1.58724e-17
8598.5098 1.57563e-17
8599.7139 1.48159e-17
8600.918 1.07942e-17
8602.1221 1.54757e-17
8603.3262 1.40246e-17
8604.5303 1.46308e-17
8605.7344 1.35042e-17
8606.9385 1.58616e-17
8608.1416 1.36764e-17
8609.3457 1.34364e-17
8610.5498 1.64826e-17
8611.7539 1.84217e-17
8612.958 1.76623e-17
8614.1621 1.4722e-17
8615.3662 1.53334e-17
8616.5703 1.44074e-17
8617.7744 1.78381e-17
8618.9775 1.54095e-17
8620.1816 1.29328e-17
8621.3857 1.48452e-17
8622.5898 1.7708e-17
8623.7939 1.32309e-17
8624.998 1.26342e-17
8626.2021 1.75833e-17
8627.4062 1.61994e-17
8628.6094 1.26559e-17
8629.8135 1.33871e-17
8631.0176 1.42443e-17
8632.2217 1.68198e-17
8633.4258 1.35262e-17
8634.6299 1.71291e-17
8635.834 1.57924e-17
8637.0371 1.64133e-17
8638.2412 1.46772e-17
8639.4453 1.88217e-17
8640.6494 1.37008e-17
8641.8535 1.8461e-17
8643.0566 1.72312e-17
8644.2607 1.65006e-17
8645.4648 1.72247e-17
8646.6689 1.47327e-17
8647.873 1.06861e-17
8649.0771 1.51592e-17
8650.2803 1.37641e-17
8651.4844 1.36318e-17
8652.6885 1.91088e-17
8653.8926 1.49291e-17
8655.0967 1.71563e-17
8656.2998 1.29239e-17
8657.5039 1.79108e-17
8658.708 1.52828e-17
8659.9121 1.50587e-17
8661.1152 1.58034e-17
8662.3193 1.23045e-17
8663.5234 1.45027e-17
8664.7275 1.09054e-17
8665.9316 1.35233e-17
8667.1348 1.54123e-17
8668.3389 1.7554e-17
8669.543 1.70157e-17
8670.7471 1.41922e-17
8671.9502 1.77319e-17
8673.1543 1.47316e-17
8674.3584 1.54122e-17
8675.5615 1.7501e-17
8676.7656 1.58822e-17
8677.9697 1.27993e-17
8679.1738 1.21376e-17
8680.377 1.48995e-17
8681.5811 1.69028e-17
8682.7852 1.53153e-17
8683.9883 1.59981e-17
8685.1924 1.52055e-17
8686.3965 1.58377e-17
8687.6006 1.87558e-17
8688.8037 1.79704e-17
8690.0078 1.44268e-17
8691.2119 1.51229e-17
8692.415 1.66804e-17
8693.6191 1.66633e-17
8694.8232 1.2386e-17
8696.0264 1.76433e-17
8697.2305 1.54709e-17
8698.4336 1.66641e-17
8699.6377 1.59513e-17
8700.8418 1.40161e-17
8702.0449 1.41497e-17
8703.249 1.81549e-17
8704.4531 1.54207e-17
8705.6562 1.9954e-17
8706.8604 1.45264e-17
8708.0635 1.57075e-17
8709.2676 1.62991e-17
8710.4717 1.39183e-17
8711.6748 1.24103e-17
8712.8789 1.14964e-17
8714.082 1.51603e-17
8715.2861 1.25092e-17
8716.4893 1.15767e-17
8717.6934 1.54343e-17
8718.8975 1.31367e-17
8720.1006 1.60959e-17
8721.3047 1.2623e-17
8722.5078 1.47598e-17
8723.7119 1.11649e-17
8724.915 1.32833e-17
8726.1191 1.32439e-17
8727.3223 1.54669e-17
8728.5264 1.49741e-17
8729.7295 1.80794e-17
8730.9336 1.29298e-17
8732.1367 1.27832e-17
8733.3408 1.22617e-17
8734.5439 1.73441e-17
8735.748 1.49579e-17
8736.9512 1.25779e-17
8738.1553 1.45057e-17
8739.3584 1.10198e-17
8740.5615 1.49704e-17
8741.7656 1.46989e-17
8742.9688 1.38364e-17
8744.1729 1.52705e-17
8745.376 1.42561e-17
8746.5801 1.44261e-17
8747.7832 1.54096e-17
8748.9863 1.23143e-17
8750.1904 1.18698e-17
8751.3936 1.60297e-17
8752.5977 1.58058e-17
8753.8008 1.46761e-17
8755.0039 1.51193e-17
8756.208 1.46145e-17
8757.4111 1.87004e-17
8758.6143 9.50337e-18
8759.8184 1.06168e-17
8761.0215 1.06179e-17
8762.2246 1.41975e-17
8763.4287 1.58007e-17
8764.6318 9.1464e-18
8765.835 1.71263e-17
8767.0391 5.42327e-18
8768.2422 1.82767e-17
8769.4453 1.7174e-17
8770.6484 1.45124e-17
8771.8525 1.82637e-17
8773.0557 1.43155e-17
8774.2588 2.13156e-17
8775.4619 1.66846e-17
8776.666 2.67791e-17
8777.8691 1.49134e-17
8779.0723 2.95639e-17
8780.2754 1.34223e-17
8781.4785 1.95444e-17
8782.6826 1.78292e-17
8783.8857 1.15761e-17
8785.0889 1.56172e-17
8786.292 1.84852e-17
8787.4951 1.68326e-17
8788.6982 1.5663e-17
8789.9023 2.16092e-17
8791.1055 1.24504e-17
8792.3086 1.12662e-17
8793.5117 1.54646e-17
8794.7148 1.81446e-17
8795.918 1.26151e-17
8797.1211 1.55559e-17
8798.3242 1.28138e-17
8799.5273 1.25474e-17
8800.7314 1.69192e-17
8801.9346 1.42856e-17
8803.1377 1.6629e-17
8804.3408 1.56193e-17
8805.5439 1.77851e-17
8806.7471 1.72669e-17
8807.9502 1.55782e-17
8809.1533 1.7913e-17
8810.3564 1.50945e-17
8811.5596 1.68052e-17
8812.7627 1.29681e-17
8813.9658 1.37416e-17
8815.1689 1.69687e-17
8816.3721 1.35818e-17
8817.5752 1.50547e-17
8818.7783 1.56373e-17
8819.9814 1.58398e-17
8821.1836 1.62598e-17
8822.3867 1.33062e-17
8823.5898 1.21329e-17
8824.793 1.33164e-17
8825.9961 9.07235e-18
8827.1992 4.87871e-18
8828.4023 1.67968e-17
8829.6055 1.8789e-17
8830.8076 1.83647e-17
8832.0107 1.5506e-17
8833.2139 1.15198e-17
8834.417 2.04365e-17
8835.6201 1.33891e-17
8836.8232 1.54393e-17
8838.0254 1.78419e-17
8839.2285 1.54652e-17
8840.4316 1.3972e-17
8841.6348 1.4389e-17
8842.8369 1.44688e-17
8844.04 1.36182e-17
8845.2432 1.58964e-17
8846.4463 1.59623e-17
8847.6484 1.17731e-17
8848.8516 1.7562e-17
8850.0547 1.2739e-17
8851.2568 9.85088e-18
8852.46 1.37379e-17
8853.6631 1.21977e-17
8854.8652 1.78027e-17
8856.0684 1.48084e-17
8857.2715 1.347e-17
8858.4736 1.39352e-17
8859.6768 1.34667e-17
8860.8799 1.42489e-17
8862.082 1.44719e-17
8863.2852 1.70584e-17
8864.4873 1.77407e-17
8865.6904 1.74741e-17
8866.8926 1.74115e-17
8868.0957 1.17161e-17
8869.2979 1.98322e-17
8870.501 1.52039e-17
8871.7031 1.48281e-17
8872.9062 1.0693e-17
8874.1084 1.59966e-17
8875.3115 1.56523e-17
8876.5137 1.47594e-17
8877.7168 1.44718e-17
8878.9189 1.60962e-17
8880.1221 1.41042e-17
8881.3242 1.62909e-17
8882.5273 8.49119e-18
8883.7295 3.02145e-17
8884.9316 2.70259e-17
8886.1348 1.37948e-17
8887.3369 9.89796e-18
8888.5391 6.24518e-18
8889.7422 1.40524e-17
8890.9443 6.82897e-18
8892.1465 1.34508e-17
8893.3496 1.26094e-17
8894.5518 1.58039e-17
8895.7539 1.60146e-17
8896.957 1.45973e-17
8898.1592 1.13218e-17
8899.3613 1.45779e-17
8900.5635 2.76909e-17
8901.7656 1.28466e-17
8902.9688 8.91171e-18
8904.1709 1.60192e-17
8905.373 1.67031e-17
8906.5752 1.70234e-17
8907.7773 1.637e-17
8908.9805 1.56489e-17
8910.1826 1.45316e-17
8911.3848 1.80202e-17
8912.5869 1.41116e-17
8913.7891 1.42147e-17
8914.9912 1.14911e-17
8916.1934 5.70969e-18
8917.3955 1.39972e-17
8918.5977 1.16182e-17
8919.7998 1.27648e-17
8921.002 1.24187e-20
8922.2041 1.08041e-17
8923.4062 9.34416e-18
8924.6084 1.33651e-17
8925.8105 1.30317e-17
8927.0127 1.57319e-17
8928.2148 1.24832e-17
8929.417 1.75598e-17
8930.6191 1.52534e-17
8931.8213 1.61224e-17
8933.0234 1.58101e-17
8934.2256 1.22541e-17
8935.4277 1.06741e-17
8936.6299 1.49552e-17
8937.832 1.74835e-17
8939.0332 1.32996e-17
8940.2354 1.51801e-17
8941.4375 2.31319e-17
8942.6396 1.19322e-17
8943.8418 1.73039e-17
8945.043 2.27036e-17
8946.2451 1.25823e-17
8947.4473 1.52779e-17
8948.6494 1.34136e-17
8949.8506 1.24064e-17
8951.0527 1.48339e-17
8952.2549 1.4517e-17
8953.4561 1.21593e-17
8954.6582 1.03839e-17
8955.8604 1.20902e-17
8957.0615 1.48047e-17
8958.2637 1.22404e-17
8959.4658 1.61095e-17
8960.667 1.25462e-17
8961.8691 1.58732e-17
8963.0703 8.46947e-18
8964.2725 1.27481e-17
8965.4746 1.75248e-17
8966.6758 1.26752e-17
8967.8779 1.36876e-17
8969.0791 1.51149e-17
8970.2812 1.24125e-17
8971.4824 1.10156e-17
8972.6846 1.44778e-17
8973.8857 1.37067e-17
8975.0869 1.48521e-17
8976.2891 1.49013e-17
8977.4902 1.4353e-17
8978.6924 1.28989e-17
8979.8936 1.32049e-17
8981.0947 1.38525e-17
8982.2969 1.24158e-17
8990.707 1.2677e-17
8991.9082 1.94659e-17
8993.1094 1.35508e-17
8994.3105 1.04823e-17
8995.5127 1.63757e-17
8996.7139 1.50621e-17
8997.915 1.83506e-17
8999.1162 1.62507e-17
9000.3174 1.51409e-17
9001.5186 5.44566e-18
9002.7207 1.12891e-17
9003.9219 1.62015e-17
9005.123 8.44971e-18
9006.3242 1.37985e-17
9007.5254 1.52232e-17
9008.7266 1.63675e-17
9009.9277 1.52531e-17
9011.1289 1.70591e-17
9012.3301 1.33536e-17
9013.5312 1.2413e-17
9014.7324 1.35456e-17
9015.9336 1.79844e-17
9017.1348 1.60877e-17
9018.3359 1.63414e-17
9019.5361 1.24052e-17
9020.7373 1.46635e-17
9021.9385 1.66655e-17
9023.1396 1.29491e-17
9024.3408 1.48449e-17
9025.542 1.64096e-17
9026.7432 1.74789e-17
9027.9434 1.18313e-17
9029.1445 1.59021e-17
9030.3457 1.56214e-17
9031.5469 1.74898e-17
9032.7471 1.23672e-17
9033.9482 1.65267e-17
9035.1494 1.56042e-17
9036.3496 2.12988e-17
9037.5508 1.42903e-17
9038.752 2.00134e-17
9039.9521 1.85455e-17
9041.1533 1.60285e-17
9042.3545 1.55943e-17
9043.5547 1.86465e-17
9044.7559 1.81504e-17
9045.9561 1.31096e-17
9047.1572 1.48116e-17
9048.3574 1.78975e-17
9049.5586 1.57008e-17
9050.7588 1.60061e-17
9051.96 1.47272e-17
9053.1602 1.18124e-17
9054.3613 1.15626e-17
9055.5615 1.95312e-17
9056.7627 1.90209e-17
9057.9629 1.55049e-17
9059.1631 1.59639e-17
9060.3643 1.93651e-17
9061.5645 1.4684e-17
9062.7646 1.63622e-17
9063.9658 1.26353e-17
9065.166 1.6247e-17
9066.3662 1.75022e-17
9067.5674 1.63026e-17
9068.7676 1.53098e-17
9069.9678 1.95708e-17
9071.168 1.77941e-17
9072.3682 1.56911e-17
9073.5693 1.67438e-17
9074.7695 1.52817e-17
9075.9697 1.95321e-17
9077.1699 1.84094e-17
9078.3701 1.89203e-17
9079.5703 1.69593e-17
9080.7705 1.56223e-17
9081.9707 1.65711e-17
9083.1709 1.61948e-17
9084.3711 2.01653e-17
9085.5713 1.80005e-17
9086.7715 1.45866e-17
9087.9717 1.80414e-17
9089.1719 1.27416e-17
9090.3721 2.04866e-17
9091.5723 1.58442e-17
9092.7725 1.79151e-17
9093.9727 1.65183e-17
9095.1729 1.61396e-17
9096.373 1.86683e-17
9097.5732 1.75312e-17
9098.7725 1.84984e-17
9099.9727 1.44123e-17
9101.1729 1.87193e-17
9102.373 1.89143e-17
9103.5732 1.50277e-17
9104.7725 1.49809e-17
9105.9727 1.70223e-17
9107.1729 1.90663e-17
9108.3721 1.59167e-17
9109.5723 1.87195e-17
9110.7725 1.58248e-17
9111.9717 1.76792e-17
9113.1719 1.3546e-17
9114.3721 2.02015e-17
9115.5713 1.8285e-17
9116.7715 1.54621e-17
9117.9707 1.74763e-17
9119.1709 1.78736e-17
9120.3701 1.69683e-17
9121.5703 1.5298e-17
9122.7695 1.8396e-17
9123.9697 1.91945e-17
9125.1689 1.62392e-17
9126.3691 1.76046e-17
9127.5684 1.70978e-17
9128.7676 1.90193e-17
9129.9678 1.59193e-17
9131.167 1.70144e-17
9132.3662 1.41521e-17
9133.5664 1.68038e-17
9134.7656 1.57999e-17
9135.9648 1.91196e-17
9137.165 1.57034e-17
9138.3643 1.7676e-17
9139.5635 1.64626e-17
9140.7627 1.79085e-17
9141.9619 1.64988e-17
9143.1621 1.71133e-17
9144.3613 1.98566e-17
9145.5605 1.71023e-17
9146.7598 1.52197e-17
9147.959 1.88707e-17
9149.1582 1.36267e-17
9150.3574 1.64076e-17
9151.5566 2.15668e-17
9152.7559 1.30157e-17
9153.9551 1.62093e-17
9155.1543 1.5845e-17
9156.3535 1.28584e-17
9157.5527 1.82497e-17
9158.752 1.45223e-17
9159.9512 1.68759e-17
9161.1504 1.81417e-17
9162.3496 1.76276e-17
9163.5488 2.00331e-17
9164.748 1.79725e-17
9165.9463 1.55814e-17
9167.1455 1.65229e-17
9168.3447 1.44623e-17
9169.5439 1.90502e-17
9170.7422 1.53186e-17
9171.9414 1.68852e-17
9173.1406 1.66375e-17
9174.3398 1.48149e-17
9175.5381 1.64981e-17
9176.7373 1.61576e-17
9177.9365 1.92778e-17
9179.1348 1.87389e-17
9180.334 1.64485e-17
9181.5322 1.68086e-17
9182.7314 1.6835e-17
9183.9297 2.03632e-17
9185.1289 2.09877e-17
9186.3271 1.5389e-17
9187.5264 1.7167e-17
9188.7246 1.89114e-17
9189.9238 1.5385e-17
9191.1221 1.92611e-17
9192.3213 1.87907e-17
9193.5195 1.60845e-17
9194.7178 1.45379e-17
9195.917 1.68609e-17
9197.1152 1.90234e-17
9198.3135 1.78433e-17
9199.5127 1.77844e-17
9200.7109 1.6518e-17
9201.9092 1.91323e-17
9203.1074 1.89481e-17
9204.3066 1.79565e-17
9205.5049 1.5402e-17
9206.7031 1.40201e-17
9207.9014 1.89209e-17
9209.0996 1.57965e-17
9210.2988 1.85196e-17
9211.4971 1.70204e-17
9212.6953 1.9326e-17
9213.8936 1.93772e-17
9215.0918 2.10934e-17
9216.29 1.84594e-17
9217.4883 1.78603e-17
9218.6865 1.78637e-17
9219.8848 1.62992e-17
9221.083 1.66326e-17
9222.2812 1.73377e-17
9223.4795 1.82159e-17
9224.6777 1.56948e-17
9225.875 1.7027e-17
9227.0732 1.40013e-17
9228.2715 2.10909e-17
9229.4697 1.43144e-17
9230.668 1.60136e-17
9231.8652 1.66914e-17
9233.0635 1.80477e-17
9234.2617 1.64845e-17
9235.46 1.83762e-17
9236.6572 1.62324e-17
9237.8555 1.62761e-17
9239.0537 1.72364e-17
9240.251 1.59651e-17
9241.4492 1.88508e-17
9242.6475 1.74824e-17
9243.8447 2.0024e-17
9245.043 1.69374e-17
9246.2402 1.92402e-17
9247.4385 1.81102e-17
9248.6357 1.53372e-17
9249.834 1.67409e-17
9251.0312 1.78179e-17
9252.2295 1.75036e-17
9253.4268 1.65058e-17
9254.624 1.79267e-17
9255.8223 1.71106e-17
9257.0195 1.42187e-17
9258.2178 1.87365e-17
9259.415 1.81773e-17
9260.6123 1.72893e-17
9261.8096 1.72472e-17
9263.0078 1.57964e-17
9264.2051 1.74087e-17
9265.4023 1.5936e-17
9266.5996 1.62537e-17
9267.7979 1.80267e-17
9268.9951 1.5643e-17
9270.1924 1.60041e-17
9271.3896 1.85154e-17
9272.5869 1.64929e-17
9273.7842 1.7009e-17
9274.9814 1.35476e-17
9276.1787 1.64122e-17
9277.376 1.59555e-17
9278.5732 1.83673e-17
9279.7705 1.5676e-17
9280.9678 1.68152e-17
9282.165 1.82063e-17
9283.3623 1.58138e-17
9284.5596 2.02951e-17
9285.7568 1.66055e-17
9286.9541 1.40294e-17
9288.1514 1.85905e-17
9289.3486 1.98465e-17
9290.5449 1.86728e-17
9291.7422 1.74128e-17
9292.9395 1.60119e-17
9294.1367 1.88058e-17
9295.334 1.45323e-17
9296.5303 1.53665e-17
9297.7275 2.02922e-17
9298.9248 1.5013e-17
9300.1211 1.83867e-17
9301.3184 1.33482e-17
9302.5146 1.38471e-17
9303.7119 1.86244e-17
9304.9092 2.42933e-17
9306.1055 2.04526e-17
9307.3027 1.28924e-18
9308.499 1.35705e-17
9309.6963 2.16834e-17
9310.8926 2.04949e-17
9312.0898 2.26361e-17
9313.2861 2.69796e-17
9314.4824 3.04096e-17
9315.6797 3.59215e-17
9316.876 1.7287e-17
9318.0732 1.91943e-17
9319.2695 1.95648e-17
9320.4658 1.77564e-17
9321.6631 2.52382e-17
9322.8594 1.80267e-17
9324.0557 1.12061e-17
9325.252 1.06922e-17
9326.4482 1.31793e-17
9327.6455 8.4944e-18
9328.8418 1.52905e-17
9330.0381 1.72722e-17
9331.2344 1.80279e-17
9332.4307 1.92786e-17
9333.627 1.31957e-17
9334.8232 2.06928e-17
9336.0195 1.95881e-17
9337.2168 1.81164e-17
9338.4131 2.13819e-17
9339.6094 2.40228e-17
9340.8057 1.65896e-17
9342.002 1.97691e-17
9343.1973 2.02505e-17
9344.3936 1.46638e-17
9345.5898 1.93371e-17
9346.7861 1.35366e-17
9347.9824 2.16044e-17
9349.1787 2.11489e-17
9350.375 1.55017e-17
9351.5703 1.50325e-17
9352.7666 1.84769e-17
9353.9629 1.82877e-17
9355.1592 1.64842e-17
9356.3545 1.76266e-17
9357.5508 1.41382e-17
9358.7471 1.48613e-17
9359.9424 1.909e-17
9361.1387 1.93665e-17
9362.335 1.54041e-17
9363.5303 1.81888e-17
9364.7266 1.807e-17
9365.9219 1.78034e-17
9367.1182 1.56323e-17
9368.3145 1.71189e-17
9369.5098 2.0377e-17
9370.7061 1.75286e-17
9371.9014 2.15949e-17
9373.0967 2.16352e-17
9374.293 3.54986e-17
9375.4883 2.39281e-17
9376.6846 1.36869e-17
9377.8799 1.19135e-17
9379.0752 1.85279e-18
9380.2715 7.09741e-18
9381.4668 2.0759e-17
9382.6621 2.28046e-17
9383.8574 1.81702e-17
9385.0537 2.12834e-17
9386.249 1.0127e-17
9387.4443 1.81251e-17
9388.6396 1.07583e-17
9389.8359 1.31327e-17
9391.0312 1.77492e-17
9392.2266 1.72302e-17
9393.4219 1.61341e-17
9394.6172 1.71211e-17
9395.8125 1.55546e-17
9397.0078 1.78169e-17
9398.2031 1.84502e-17
9399.3984 1.80028e-17
9400.5938 1.6795e-17
9401.7891 1.6295e-17
9402.9844 7.10542e-18
9404.1797 1.55643e-17
9405.375 1.2427e-17
9406.5703 1.40792e-17
9407.7656 1.57383e-17
9408.9609 1.49938e-17
9410.1553 1.42656e-17
9411.3506 1.59478e-17
9412.5459 1.19947e-17
9413.7412 1.83872e-17
9414.9365 1.73846e-17
9416.1309 1.63951e-17
9417.3262 1.11987e-17
9418.5215 1.58309e-17
9419.7158 1.49456e-17
9420.9111 1.28229e-17
9422.1064 2.27967e-17
9423.3008 1.94088e-17
9424.4961 1.76063e-17
9425.6914 1.59938e-17
9426.8857 1.76725e-17
9428.0811 1.32136e-17
9429.2754 1.26345e-17
9430.4707 1.55683e-17
9431.665 1.29831e-17
9432.8604 1.54829e-17
9434.0547 1.47389e-17
9435.25 1.4754e-17
9436.4443 2.73106e-17
9437.6387 1.69169e-17
9438.834 2.23105e-17
9440.0283 1.81671e-17
9441.2236 1.90015e-17
9442.418 3.39014e-18
9443.6123 7.06869e-18
9444.8066 1.73247e-17
9446.002 1.59037e-17
9447.1963 1.39537e-17
9448.3906 1.65346e-17
9449.585 1.09748e-17
9450.7803 1.4702e-17
9451.9746 1.59447e-17
9453.1689 1.68398e-17
9454.3633 1.11567e-17
9455.5576 1.27896e-17
9456.752 2.07129e-17
9457.9463 1.09147e-17
9459.1406 2.01849e-18
9460.3359 1.35055e-17
9461.5303 1.52772e-17
9462.7246 1.53439e-17
9463.9189 1.41751e-17
9465.1133 1.42044e-17
9466.3066 1.39085e-17
9467.501 1.53828e-17
9468.6953 1.47123e-17
9469.8896 1.49671e-17
9471.084 1.42509e-17
9472.2783 8.27819e-18
9473.4727 9.80922e-18
9474.667 2.89496e-17
9475.8613 1.42966e-17
9477.0547 -2.61804e-18
9478.249 2.586e-17
9479.4434 1.79017e-17
9480.6377 1.34083e-17
9481.8311 1.35892e-17
9483.0254 1.25685e-17
9484.2197 8.9627e-18
9485.4131 1.3432e-17
9486.6074 1.34503e-17
9487.8018 8.00735e-18
9488.9951 1.37324e-17
9490.1895 1.58767e-17
9491.3828 1.13542e-17
9492.5771 1.31884e-17
9493.7715 1.55152e-17
9494.9648 1.06951e-17
9496.1592 7.35059e-18
9497.3525 1.39529e-17
9498.5469 1.23204e-17
9499.7402 1.58762e-17
9500.9346 1.22879e-17
9502.1279 6.32898e-18
9503.3213 1.71936e-17
9504.5156 7.82637e-18
9505.709 5.84274e-18
9506.9033 8.4268e-18
9508.0967 8.1351e-18
9509.29 8.74275e-18
9510.4844 1.10927e-17
9511.6777 1.37034e-17
9512.8711 1.2351e-17
9514.0645 1.06339e-17
9515.2588 1.46414e-17
9516.4521 5.60934e-18
9517.6455 1.18435e-17
9518.8389 1.8367e-17
9520.0322 1.06406e-17
9521.2266 9.27703e-18
9522.4199 4.14008e-18
9523.6133 7.64697e-18
9524.8066 1.26584e-17
9526.0 1.42131e-17
9527.1934 1.35851e-17
9528.3867 1.17842e-17
9529.5801 8.83866e-18
9530.7734 1.12058e-17
9531.9668 8.85034e-18
9533.1602 6.37845e-18
9534.3535 1.25779e-17
9535.5469 1.01431e-17
9536.7402 7.6044e-18
9537.9336 1.25229e-17
9539.127 6.29737e-18
9540.3203 9.53302e-18
9541.5137 1.1592e-17
9542.707 7.43236e-18
9543.8994 1.39393e-17
9545.0928 1.33521e-17
9546.2861 7.39596e-18
9547.4795 1.03364e-17
9548.6729 1.43765e-17
9549.8662 1.21096e-17
9551.0586 1.11123e-17
9552.252 7.73661e-18
9553.4453 6.31069e-18
9554.6387 1.4181e-17
9555.8311 9.41718e-18
9557.0244 1.30678e-17
9558.2178 1.15391e-17
9559.4102 1.36242e-17
9560.6035 1.03429e-17
9561.7969 1.18087e-17
9562.9893 1.32424e-17
9564.1826 1.35676e-17
9565.375 1.03734e-17
9566.5684 9.16326e-18
9567.7607 1.1941e-18
9568.9541 8.11264e-18
9570.1475 1.83178e-18
9571.3398 7.84419e-18
9572.5332 7.00028e-18
9573.7256 9.57811e-18
9574.9189 8.99725e-18
9576.1113 9.80643e-18
9577.3037 7.43344e-18
9578.4971 8.79671e-18
9579.6895 1.07631e-17
9580.8828 1.06722e-17
9582.0752 8.05051e-18
9583.2676 9.42677e-18
9584.4609 1.12914e-17
9585.6533 1.15182e-17
9586.8467 6.74793e-18
9588.0391 1.3205e-17
9589.2314 1.11143e-17
9590.4238 1.21289e-17
9591.6172 9.73782e-18
9592.8096 1.30028e-17
9594.002 1.09946e-17
9595.1943 1.09036e-17
9596.3877 8.13978e-18
9597.5801 1.06138e-17
9598.7725 1.05676e-17
9599.9648 1.33553e-17
9601.1572 1.0518e-17
9602.3506 1.14765e-17
9603.543 7.34398e-18
9604.7354 7.73689e-18
9605.9277 1.3565e-17
9607.1201 8.12056e-18
9608.3125 1.01603e-17
9609.5049 1.71326e-17
9610.6973 7.30243e-18
9611.8896 1.00774e-17
9613.082 1.12088e-17
9614.2744 1.43865e-17
9615.4678 1.2028e-17
9616.6602 1.09527e-17
9617.8525 1.03215e-17
9619.0439 4.54327e-18
9620.2363 8.6674e-18
9621.4297 1.28231e-17
9622.6211 8.94748e-18
9623.8135 8.26528e-18
9625.0059 9.4009e-18
9626.1982 8.94213e-18
9627.3906 1.13695e-17
9628.583 9.04754e-18
9629.7754 1.22647e-17
9630.9678 1.15704e-17
9632.1602 1.31747e-17
9633.3525 1.6299e-17
9634.5439 1.07262e-17
9635.7363 1.05721e-17
9636.9287 1.38764e-17
9638.1211 1.16467e-17
9639.3135 1.58828e-17
9640.5049 9.06561e-18
9641.6973 1.18623e-17
9642.8896 1.52225e-17
9644.082 1.24207e-17
9645.2734 1.50664e-17
9646.4658 1.32441e-17
9647.6582 1.15025e-17
9648.8506 9.75832e-18
9650.042 1.25128e-17
9651.2344 1.15907e-17
9652.4268 1.18389e-17
9653.6182 1.36005e-17
9654.8105 8.97645e-18
9656.0029 1.4416e-17
9657.1943 1.39299e-17
9658.3867 1.24645e-17
9659.5791 9.92729e-18
9660.7705 1.42961e-17
9661.9629 1.64671e-17
9663.1553 1.05741e-17
9664.3467 1.16504e-17
9665.5391 1.49988e-17
9666.7305 1.50485e-17
9667.9229 1.90522e-17
9669.1143 1.26074e-17
9670.3066 1.02137e-17
9671.499 1.47028e-17
9672.6904 1.42558e-17
9673.8828 1.33189e-17
9675.0742 1.12386e-17
9676.2666 1.63039e-17
9677.458 1.21616e-17
9678.6504 1.72401e-17
9679.8418 2.04765e-17
9681.0342 1.30302e-17
9682.2256 1.9033e-17
9683.418 9.69621e-18
9684.6094 1.09923e-17
9685.8018 1.71959e-17
9686.9932 1.86593e-17
9688.1846 1.72534e-17
9689.377 1.72633e-17
9690.5684 1.11865e-17
9691.7607 1.18248e-17
9692.9521 9.39245e-18
9694.1445 1.80838e-17
9695.3359 1.80736e-17
9696.5273 2.02621e-17
9697.7197 1.80222e-17
9698.9111 1.62401e-17
9700.1035 2.36727e-17
9701.2949 7.31953e-18
9702.4863 1.57613e-17
9703.6787 1.42964e-17
9704.8701 1.29376e-17
9706.0615 1.5249e-17
9707.2539 1.3226e-17
9708.4453 1.30999e-17
9709.6367 1.15722e-17
9710.8291 2.05906e-17
9712.0205 1.68701e-17
9713.2119 1.62439e-17
9714.4043 1.39763e-17
9715.5957 1.28254e-17
9716.7871 2.32601e-17
9717.9795 2.03476e-17
9719.1709 1.53617e-17
9720.3623 2.10007e-17
9721.5547 2.17144e-17
9722.7461 1.02228e-17
9723.9375 1.886e-17
9725.1289 1.30997e-17
9726.3213 1.31369e-17
9727.5127 1.77606e-17
9728.7041 1.49561e-17
9729.8955 1.49302e-17
9731.0879 1.63647e-17
9732.2793 1.32341e-17
9733.4707 1.09e-17
9734.6631 1.52042e-17
9735.8545 1.42916e-17
9737.0459 6.62265e-18
9738.2373 1.03044e-17
9739.4287 9.6493e-18
9740.6211 1.64102e-17
9741.8125 1.55681e-17
9743.0039 1.42228e-17
9744.1953 1.83933e-17
9745.3877 1.46387e-17
9746.5791 1.62942e-17
9747.7705 1.53018e-17
9748.9619 1.46169e-17
9750.1543 1.74345e-17
9751.3457 1.51877e-17
9752.5371 1.48783e-17
9753.7285 1.36587e-17
9754.9199 1.45911e-17
9756.1123 1.38099e-17
9757.3037 1.56899e-17
9758.4951 1.57796e-17
9759.6865 1.37089e-17
9760.8789 1.47573e-17
9762.0703 1.79241e-17
9763.2617 1.47569e-17
9764.4531 1.52472e-17
9765.6445 1.78112e-17
9766.8369 1.46442e-17
9768.0283 1.70755e-17
9769.2197 1.72743e-17
9770.4111 1.90862e-17
9771.6035 1.72565e-17
9772.7949 1.50921e-17
9773.9863 1.37058e-17
9775.1777 1.66792e-17
9776.3691 1.75819e-17
9777.5615 1.63266e-17
9778.7529 1.62978e-17
9779.9443 1.82425e-17
9781.1357 1.61511e-17
9782.3281 1.64745e-17
9783.5195 1.77047e-17
9784.7109 1.65111e-17
9785.9023 9.75267e-18
9787.0947 2.70838e-17
9788.2861 1.548e-17
9789.4775 1.2694e-17
9790.6689 1.65714e-19
9791.8613 4.03124e-18
9793.0527 1.84716e-17
9794.2441 1.97164e-18
9795.4355 1.34572e-17
9796.6279 2.23914e-17
9797.8193 2.77963e-17
9799.0107 1.29664e-17
9800.2031 2.36679e-17
9801.3945 1.92405e-17
9802.5859 1.48619e-17
9803.7773 1.39437e-17
9804.9697 1.72995e-17
9806.1611 1.4329e-17
9807.3525 1.47127e-17
9808.5449 1.7253e-17
9809.7363 1.60156e-17
9810.9277 2.04821e-17
9812.1201 1.35858e-17
9813.3115 2.15342e-17
9814.5029 1.44361e-17
9815.6953 1.44304e-17
9816.8867 1.18899e-17
9818.0781 1.41303e-17
9819.2705 1.31667e-17
9820.4619 2.00912e-17
9821.6543 1.72248e-17
9822.8457 1.62124e-17
9824.0371 1.76921e-17
9825.2295 1.47514e-17
9826.4209 1.36439e-17
9827.6133 1.5421e-17
9828.8047 1.43866e-17
9829.9971 1.54725e-17
9831.1885 1.89591e-17
9832.3799 1.46732e-17
9833.5723 1.71718e-17
9834.7637 1.8405e-17
9835.9561 1.45649e-17
9837.1475 1.05408e-17
9838.3398 1.38655e-17
9839.5312 1.76521e-17
9840.7236 1.7571e-17
9841.915 1.55857e-17
9843.1074 1.35092e-17
9844.2988 1.31481e-17
9845.4912 1.00797e-17
9846.6826 8.5184e-18
9847.875 1.37898e-17
9849.0674 2.64293e-17
9850.2588 6.67578e-18
9851.4512 1.77676e-17
9852.6436 1.74091e-17
9853.835 1.70402e-17
9855.0273 1.5876e-17
9856.2188 1.42552e-17
9857.4111 1.73593e-17
9858.6035 1.58853e-17
9859.7949 1.82262e-17
9860.9873 1.88582e-17
9862.1797 1.33551e-17
9863.3721 1.15944e-17
9864.5635 1.70137e-17
9865.7559 1.6749e-17
9866.9482 1.66577e-17
9868.1406 7.33969e-18
9869.332 1.00289e-17
9870.5244 1.50658e-17
9871.7168 2.85978e-17
9872.9092 1.39622e-17
9874.1016 1.34176e-17
9875.293 1.27148e-17
9876.4854 1.54877e-17
9877.6777 1.41116e-17
9878.8701 1.48805e-17
9880.0625 1.83871e-17
9881.2549 1.36534e-17
9882.4473 1.80065e-17
9883.6396 1.50479e-17
9884.832 1.72993e-17
9886.0244 1.80501e-17
9887.2168 1.61234e-17
9888.4092 1.28423e-17
9889.6016 1.62592e-17
9890.7939 1.88027e-17
9891.9863 1.62285e-17
9893.1787 1.31152e-17
9894.3711 1.46121e-17
9895.5635 2.85833e-17
9896.7559 1.70686e-17
9897.9492 1.60692e-17
9899.1416 1.67811e-17
9900.334 2.01954e-17
9901.5264 1.22394e-17
9902.7188 1.41356e-17
9903.9121 1.53649e-17
9905.1045 1.76771e-17
9906.2969 1.60428e-17
9907.4902 1.54695e-17
9908.6826 1.60506e-17
9909.875 2.00258e-17
9911.0684 1.93784e-17
9912.2607 1.77701e-17
9913.4531 2.26607e-17
9914.6465 1.93191e-17
9915.8389 -3.82847e-18
9917.0322 5.60779e-18
9918.2246 1.33992e-17
9919.418 1.39638e-17
9920.6104 1.65968e-17
9921.8037 1.38815e-17
9922.9961 1.36462e-17
9924.1895 1.27811e-17
9925.3828 1.36161e-17
9926.5752 1.37622e-17
9927.7686 1.66929e-17
9928.9619 1.73589e-17
9930.1543 1.67024e-17
9931.3477 1.81988e-17
9932.541 1.70431e-17
9933.7344 1.94235e-17
9934.9268 1.26559e-17
9936.1201 1.87405e-17
9937.3135 2.41933e-17
9938.5068 1.31516e-17
9939.7002 2.17373e-17
9940.8936 2.87828e-17
9942.0869 8.34969e-18
9943.2803 1.81776e-17
9944.4736 -8.59775e-18
9945.667 6.79177e-18
9946.8604 3.7632e-17
9948.0537 1.25032e-17
9949.2471 1.39882e-17
9950.4404 1.57757e-17
9951.6338 1.63121e-17
9952.8271 1.78665e-17
9954.0215 6.65846e-18
9955.2148 2.53231e-17
9956.4082 1.07572e-17
9957.6016 2.41989e-17
9958.7959 1.07375e-17
9959.9893 1.44554e-17
9961.1826 1.53068e-17
9962.377 -3.67489e-18
9963.5703 1.53206e-18
9964.7646 1.75955e-18
9965.958 8.78689e-18
9967.1523 1.23625e-17
9968.3457 1.2798e-17
9969.54 1.18641e-17
9970.7334 1.15371e-17
9971.9277 5.37523e-18
9973.1221 8.69717e-18
9974.3154 7.39272e-18
9975.5098 1.46074e-17
9976.7041 1.32763e-17
9977.8984 1.76761e-17
9979.0928 1.46384e-17
9980.2861 1.71345e-17
9981.4805 1.52782e-17
9982.6748 1.67897e-17
9983.8691 1.2001e-17
9985.0635 1.47576e-17
9986.2578 1.13799e-17
9987.4521 1.70416e-17
9988.6465 1.29816e-17
9989.8408 1.53153e-17
9991.0361 1.21668e-17
9992.2305 1.45188e-17
9993.4248 1.73012e-17
9994.6191 1.59628e-17
9995.8145 1.54926e-17
9997.0088 2.53697e-17
9998.2031 8.40853e-18
9999.3984 1.11472e-17
10000.593 1.73748e-17
10001.788 1.33155e-17
10002.983 1.20856e-17
10004.177 1.11322e-17
10005.372 1.12683e-17
10006.567 7.00443e-18
10007.762 3.5081e-18
10008.957 5.98641e-18
10010.152 2.92283e-17
10011.347 2.43342e-17
10012.543 4.50628e-17
10013.738 -6.03832e-18
10014.933 3.05127e-17
10016.128 1.41331e-17
10017.323 7.72123e-18
10018.519 1.34907e-17
10019.714 1.00747e-17
10020.91 2.07444e-17
10022.105 1.442e-17
10023.3 1.40715e-17
10024.496 1.24642e-17
10025.692 2.39366e-17
10026.887 1.99861e-17
10028.083 9.65671e-18
10029.279 1.81685e-17
10030.474 1.26859e-17
10031.67 1.10336e-17
10032.866 1.2591e-17
10034.062 1.40503e-17
10035.258 1.51694e-17
10036.454 1.25548e-17
10037.65 8.5752e-18
10038.846 1.18924e-17
10040.042 6.46548e-18
10041.238 9.90857e-18
10042.434 1.58322e-17
10043.63 6.63642e-18
10044.826 1.3345e-17
10046.023 1.32085e-17
10047.219 1.33678e-17
10048.415 1.20516e-17
10049.612 1.29745e-17
10050.808 1.32994e-17
10052.005 1.43424e-17
10053.201 1.78032e-17
10054.398 1.04737e-17
10055.595 1.28516e-17
10056.791 1.85541e-17
10057.988 1.15258e-17
10059.185 9.80012e-18
10060.382 1.06156e-18
10061.579 1.77703e-17
10062.776 1.09397e-17
10063.973 1.52913e-17
10065.17 1.44248e-17
10066.367 1.30815e-17
10067.564 1.69859e-17
10068.761 1.11269e-17
10069.958 1.55231e-17
10071.156 6.22275e-18
10072.353 1.77024e-17
10073.55 7.25363e-18
10074.748 8.64421e-18
10075.945 9.37726e-18
10077.143 1.29653e-17
10078.341 9.29478e-18
10079.538 5.60079e-18
10080.736 5.94561e-18
10081.934 1.38694e-17
10083.131 9.19238e-18
10084.329 2.69894e-17
10085.527 1.94644e-17
10086.725 1.64328e-17
10087.923 1.60935e-17
10089.121 1.69582e-17
10090.32 1.15343e-17
10091.518 1.65331e-17
10092.716 9.69738e-18
10093.914 7.6234e-18
10095.113 7.01451e-18
10096.311 1.4692e-17
10097.51 1.26959e-17
10098.708 1.42555e-17
10099.907 1.71436e-17
10101.105 7.23672e-18
10102.304 1.6251e-17
10103.503 1.23178e-17
10104.702 8.13891e-19
10105.901 -1.72124e-18
10107.1 1.65589e-17
10108.299 1.36138e-17
10109.498 1.63368e-17
10110.697 1.70924e-17
10111.896 1.23092e-17
10113.095 8.99313e-18
10114.295 1.74878e-17
10115.494 1.39324e-17
10116.693 1.18773e-17
10117.893 1.50271e-17
10119.093 6.12145e-18
10120.292 2.22756e-17
10121.492 1.31377e-17
10122.692 1.0926e-17
10123.891 1.73404e-17
10125.091 6.38965e-18
10126.291 3.54317e-18
10127.491 1.73232e-17
10128.691 5.8833e-18
10129.891 1.45833e-17
10131.092 1.31354e-17
10132.292 1.0919e-17
10133.492 1.88971e-17
10134.693 1.26668e-17
10135.893 1.4945e-17
10137.094 4.03104e-18
10138.294 1.08032e-17
10139.495 4.1933e-18
10140.696 5.11999e-18
10141.897 1.35697e-17
10143.098 1.17424e-17
10144.298 1.07735e-17
10145.5 4.32964e-18
10146.701 1.30754e-17
10147.902 1.13987e-17
10149.103 8.7421e-18
10150.304 1.79524e-17
10151.506 1.58883e-17
10152.707 1.20675e-17
10153.909 1.30567e-17
10155.11 -1.11499e-18
10156.312 1.15189e-17
10157.514 -2.65851e-18
10158.716 6.40463e-18
10159.917 1.11365e-17
10161.119 7.32782e-18
10162.321 5.78054e-18
10163.524 1.69744e-17
10164.726 4.76289e-18
10165.928 5.34122e-18
10167.13 1.81344e-17
10168.333 1.56452e-17
10169.535 1.92852e-17
10170.738 2.95624e-17
10171.94 6.51476e-18
10173.143 -3.3316e-18
10174.346 8.76765e-18
10175.549 -2.65426e-18
10176.752 1.50675e-17
10177.955 9.21038e-18
10179.158 8.48369e-18
10180.361 7.49184e-18
10181.565 -7.18024e-18
10182.768 1.50331e-17
10183.971 8.94594e-18
10185.175 -7.96032e-18
10186.378 1.18403e-17
10187.582 -1.55991e-18
10188.786 2.07199e-17
10189.99 2.05161e-17
10191.194 2.10575e-17
10192.398 1.12981e-17
10193.602 6.46458e-18
10194.806 1.19323e-17
10196.01 8.21444e-18
10197.215 6.80811e-18
10198.419 3.9954e-18
10199.624 9.69301e-18
10200.828 1.09845e-17
10202.033 1.2176e-17
10203.238 7.62703e-18
10204.443 8.22986e-18
10205.648 7.4779e-18
10206.853 1.4145e-17
10208.058 1.13939e-17
10209.263 1.7607e-17
10210.468 2.35912e-17
10211.674 2.99083e-17
10212.879 2.2792e-17
10214.085 -8.38795e-18
10215.29 2.77487e-17
10216.496 4.16192e-18
10217.702 1.64167e-17
10218.908 1.66516e-17
10220.114 5.10674e-18
10221.32 1.04883e-17
10222.526 1.25794e-17
10223.733 1.13093e-17
10224.939 7.93331e-18
10226.146 2.26892e-17
10227.352 -5.51422e-18
10228.559 -1.91402e-17
10229.766 9.01887e-19
10230.973 1.31794e-18
10232.18 -7.39335e-18
10233.387 4.54114e-17
10234.594 1.62032e-18
10235.801 7.93825e-18
10237.009 3.05276e-18
10238.216 1.7496e-18
10239.424 3.66025e-18
10240.631 1.58159e-17
10241.839 1.04433e-17
10243.047 4.96347e-18
10244.255 6.35693e-18
10245.463 4.35931e-18
10246.671 7.82103e-18
10247.88 1.31986e-17
10249.088 8.85092e-18
10250.296 1.37462e-17
10251.505 1.0519e-17
10252.714 1.78953e-17
10253.922 1.42983e-17
10255.131 1.00531e-17
10256.34 2.67036e-18
10257.549 8.32587e-18
10258.759 1.06756e-17
10259.968 1.09589e-17
10261.177 3.46824e-18
10262.387 5.76299e-18
10263.597 6.71423e-18
10264.806 1.5693e-17
10266.016 1.3461e-17
10267.226 8.06693e-18
10268.436 1.39226e-17
10269.646 1.99508e-17
10270.857 7.59812e-18
10272.067 1.10683e-17
10273.278 1.75088e-18
10274.488 1.69042e-17
10275.699 1.11883e-17
10276.91 1.90522e-17
10278.121 -1.31195e-18
10279.332 1.47883e-17
10280.543 1.35137e-17
10281.754 1.00601e-17
10282.966 7.45733e-18
10284.177 8.46403e-18
10285.389 -5.20611e-18
10286.6 -8.93071e-18
10287.812 -1.57797e-17
10289.024 6.29215e-18
10290.236 2.39903e-17
10291.449 5.71e-19
10292.661 3.52956e-17
10293.873 9.51881e-18
10295.086 -3.44621e-18
10296.299 2.37977e-17
10297.511 2.71665e-18
10298.724 4.86659e-18
10299.937 -5.40873e-18
10301.151 -1.62487e-17
10302.364 1.59895e-18
10303.577 8.20735e-18
10304.791 1.29187e-17
