# Wavelength Flux
# STATUS = PUBLIC
# OBJECT = 2019bgu
# TELESCOPE = Keck1
# INSTRUMENT =
# DATE-OBS = 2019.0406
# MJD =
# EXPTIME =
# SLIT =
# DISPERSER =
# SOURCE = 2023ApJ...943...41C
# FILTER =
# FLUX_STANDARD =
# EXTINCTION_CORRECTED = False
# PHOTOMETRY_CALIBRATED =
# FLUX_UNITS = erg/s/cm^2/Angstroms
# QUALITY =
# MIN_WAVE =
# MAX_WAVE =
# COMMENT =
3076.5293 6.85201e-17
3078.4807 -1.12212e-17
3080.4324 -1.51318e-17
3082.3848 -1.61161e-18
3084.3379 -1.6262e-17
3086.2913 -2.78911e-17
3088.2456 -2.79295e-17
3090.2002 1.06202e-16
3092.1555 -6.38474e-17
3094.1116 -3.74083e-17
3096.0681 8.48828e-17
3098.0251 3.7181e-17
3099.9827 7.78991e-18
3101.9409 1.74865e-17
3103.8999 -3.75975e-17
3105.8591 1.02271e-17
3107.8191 1.82444e-17
3109.7798 -1.32307e-17
3111.741 3.03126e-17
3113.7026 -2.8649e-17
3115.665 -4.55001e-17
3117.6279 -4.36413e-18
3119.5913 8.83794e-18
3121.5554 1.8598e-17
3123.52 2.14308e-17
3125.4854 4.06775e-17
3127.4512 8.64834e-18
3129.4175 4.68343e-17
3131.3843 7.25982e-17
3133.3518 3.88066e-17
3135.3198 3.59924e-17
3137.2886 -1.82263e-18
3139.2578 3.87419e-17
3141.2275 5.18142e-17
3143.1978 3.62842e-17
3145.1687 4.61232e-17
3147.1401 3.40013e-17
3149.1123 1.36238e-17
3151.0847 2.30726e-17
3153.0579 3.4936e-17
3155.0317 2.41191e-17
3157.0061 3.23806e-17
3158.9807 1.98063e-17
3160.9563 4.17979e-17
3162.9321 2.62446e-17
3164.9087 1.80113e-17
3166.8857 9.43053e-18
3168.8633 1.13528e-17
3170.8416 1.69031e-17
3172.8203 2.54839e-17
3174.7998 2.71968e-17
3176.7795 -7.84227e-19
3178.76 2.72042e-17
3180.741 3.15863e-17
3182.7224 2.46808e-17
3184.7046 1.14287e-17
3186.6873 1.40922e-17
3188.6704 3.12288e-17
3190.6541 1.91206e-17
3192.6382 2.78464e-17
3194.6233 1.31553e-17
3196.6084 2.65503e-17
3198.5945 2.03556e-17
3200.5808 8.70886e-18
3202.5679 1.97443e-17
3204.5554 8.03567e-18
3206.5435 1.80069e-17
3208.5322 2.657e-17
3210.5215 2.27258e-17
3212.511 3.57371e-17
3214.5012 3.6063e-17
3216.4922 3.59719e-17
3218.4834 2.89375e-17
3220.4753 1.0615e-17
3222.4678 7.86006e-18
3224.4607 2.48158e-17
3226.4541 3.04603e-17
3228.4482 3.0648e-17
3230.4426 2.27838e-17
3232.4377 2.23103e-17
3234.4333 4.63146e-17
3236.4294 2.40909e-17
3238.4263 1.86638e-18
3240.4233 1.9833e-17
3242.4211 1.93662e-17
3244.4194 2.45505e-17
3246.4182 3.31658e-17
3248.4175 3.39006e-17
3250.4175 8.90597e-18
3252.4177 4.20454e-17
3254.4187 1.88992e-17
3256.4202 2.28335e-17
3258.4221 2.16705e-17
3260.4246 3.49253e-17
3262.4275 2.69623e-17
3264.4309 2.34826e-17
3266.4351 1.67126e-17
3268.4395 2.35733e-17
3270.4446 3.21979e-17
3272.4502 1.61546e-17
3274.4563 2.06226e-17
3276.4629 2.57032e-17
3278.47 1.90079e-17
3280.4778 1.83113e-17
3282.4858 1.91815e-17
3284.4944 3.72417e-17
3286.5037 3.93077e-18
3288.5134 1.29956e-17
3290.5237 3.16032e-17
3292.5342 8.34798e-18
3294.5454 2.0891e-17
3296.5574 2.63087e-17
3298.5696 1.49932e-17
3300.5823 3.45906e-17
3302.5955 1.39636e-17
3304.6094 2.61335e-17
3306.6235 2.27251e-17
3308.6382 2.47359e-17
3310.6536 1.98048e-17
3312.6694 1.86318e-17
3314.6858 3.12657e-17
3316.7024 2.02087e-17
3318.7197 4.41939e-17
3320.7375 4.33118e-17
3322.7559 3.23936e-17
3324.7747 2.61091e-17
3326.7937 3.00243e-17
3328.8137 3.20235e-17
3330.834 3.27826e-17
3332.8545 2.79873e-17
3334.876 2.24982e-17
3336.8977 3.54966e-17
3338.9199 2.24495e-17
3340.9426 2.64351e-17
3342.9658 1.86086e-17
3344.9895 3.59044e-17
3347.0139 3.96849e-17
3349.0386 3.11165e-17
3351.0637 2.71283e-17
3353.0894 2.54405e-17
3355.1155 2.97747e-17
3357.1421 2.69002e-17
3359.1692 2.93858e-17
3361.197 1.39655e-17
3363.2251 2.28411e-17
3365.2537 1.85052e-17
3367.2827 2.39548e-17
3369.3123 3.108e-17
3371.3423 2.70307e-17
3373.3728 1.43496e-17
3375.4038 3.11263e-17
3377.4353 2.21584e-17
3379.467 2.68727e-17
3381.4995 2.02553e-17
3383.5325 2.32487e-17
3385.5659 2.36613e-17
3387.5996 2.2426e-17
3389.6338 1.91296e-17
3391.6687 3.07284e-17
3393.7041 2.65105e-17
3395.7397 2.76984e-17
3397.7759 2.39678e-17
3399.8125 2.87547e-17
3401.8499 2.71727e-17
3403.8875 1.89704e-17
3405.9255 2.52627e-17
3407.9641 1.52809e-17
3410.0029 2.48022e-17
3412.0425 2.29006e-17
3414.0825 2.29496e-17
3416.1228 1.37613e-17
3418.1638 2.24324e-17
3420.2051 1.90113e-17
3422.2468 2.05561e-17
3424.2891 1.69511e-17
3426.3318 1.57033e-17
3428.375 2.25791e-17
3430.4187 2.29013e-17
3432.4626 2.03314e-17
3434.5073 1.74104e-17
3436.5522 2.37566e-17
3438.5979 1.77651e-17
3440.6438 2.23522e-17
3442.6902 2.72304e-17
3444.7368 1.99244e-17
3446.7842 2.31697e-17
3448.8318 2.19843e-17
3450.8801 2.77716e-17
3452.9287 1.5898e-17
3454.9778 1.99895e-17
3457.0273 2.87299e-17
3459.0774 2.18642e-17
3461.1277 2.68036e-17
3463.1787 2.36799e-17
3465.23 2.84437e-17
3467.2817 2.37978e-17
3469.334 2.13621e-17
3471.3867 2.33608e-17
3473.4397 2.64506e-17
3475.4932 1.41991e-17
3477.5471 2.42039e-17
3479.6016 2.72733e-17
3481.6565 2.94807e-17
3483.7119 2.53371e-17
3485.7676 2.59983e-17
3487.8237 2.9101e-17
3489.8804 2.8004e-17
3491.9375 2.46261e-17
3493.9949 2.68861e-17
3496.0527 3.44725e-17
3498.1111 3.0394e-17
3500.1699 3.28277e-17
3502.2292 2.90632e-17
3504.2888 2.77492e-17
3506.3489 2.53782e-17
3508.4094 3.6169e-17
3510.4705 3.00565e-17
3512.5317 3.1322e-17
3514.5935 3.33588e-17
3516.6558 2.75977e-17
3518.7185 3.13019e-17
3520.7815 3.40212e-17
3522.8452 3.52051e-17
3524.9089 3.69789e-17
3526.9734 3.40178e-17
3529.0381 2.91077e-17
3531.1033 3.00691e-17
3533.1689 3.85841e-17
3535.2351 3.5846e-17
3537.3015 2.99859e-17
3539.3684 3.82007e-17
3541.4358 3.47532e-17
3543.5034 3.70446e-17
3545.5715 4.18958e-17
3547.6401 3.33033e-17
3549.709 4.30424e-17
3551.7783 3.63733e-17
3553.8481 3.72864e-17
3555.9185 4.02285e-17
3557.989 3.16578e-17
3560.0601 3.54111e-17
3562.1316 4.47817e-17
3564.2034 3.79548e-17
3566.2756 4.02791e-17
3568.3484 3.63181e-17
3570.4214 4.15406e-17
3572.4951 4.06496e-17
3574.5688 3.72104e-17
3576.6433 3.17857e-17
3578.718 3.85975e-17
3580.793 3.60111e-17
3582.8684 3.52242e-17
3584.9446 3.96186e-17
3587.0208 3.71414e-17
3589.0974 3.47491e-17
3591.1746 3.69361e-17
3593.2522 4.50611e-17
3595.3301 3.71819e-17
3597.4084 4.2456e-17
3599.4873 3.9984e-17
3601.5664 3.86411e-17
3603.6458 3.98257e-17
3605.7256 3.95787e-17
3607.8059 4.27121e-17
3609.8867 4.32927e-17
3611.9678 4.65982e-17
3614.0493 4.35058e-17
3616.1311 3.82652e-17
3618.2134 4.45848e-17
3620.2961 3.69535e-17
3622.3792 4.51809e-17
3624.4626 4.77296e-17
3626.5464 3.48828e-17
3628.6306 3.95456e-17
3630.7153 4.29879e-17
3632.8003 4.4934e-17
3634.8857 4.2695e-17
3636.9714 4.45226e-17
3639.0576 4.04086e-17
3641.144 4.81688e-17
3643.2312 3.90786e-17
3645.3184 3.9974e-17
3647.406 4.52766e-17
3649.4941 4.89443e-17
3651.5825 4.34662e-17
3653.6714 4.03036e-17
3655.7605 4.25343e-17
3657.8501 4.85873e-17
3659.9402 3.79625e-17
3662.0305 4.3845e-17
3664.1211 4.31626e-17
3666.2122 3.90138e-17
3668.3037 4.54981e-17
3670.3955 3.53542e-17
3672.4878 3.90837e-17
3674.5801 4.16344e-17
3676.6731 4.49004e-17
3678.7666 4.43571e-17
3680.8601 3.82903e-17
3682.9541 3.98491e-17
3685.0486 4.01314e-17
3687.1433 3.57027e-17
3689.2385 3.72613e-17
3691.334 4.34371e-17
3693.4299 4.41807e-17
3695.5261 4.46803e-17
3697.6228 4.18413e-17
3699.7197 3.89255e-17
3701.8171 3.57801e-17
3703.9148 4.59927e-17
3706.0129 3.68544e-17
3708.1113 3.74053e-17
3710.2102 4.44626e-17
3712.3091 4.07652e-17
3714.4087 3.94298e-17
3716.5085 3.77742e-17
3718.6089 3.89908e-17
3720.7095 4.20849e-17
3722.8103 4.0659e-17
3724.9116 4.60965e-17
3727.0132 3.86197e-17
3729.1152 4.46916e-17
3731.2175 3.88675e-17
3733.3203 4.50336e-17
3735.4231 3.48916e-17
3737.5266 3.40533e-17
3739.6304 3.86896e-17
3741.7344 3.13331e-17
3743.8389 3.8008e-17
3745.9436 3.85593e-17
3748.0488 4.20796e-17
3750.1543 3.83689e-17
3752.26 3.49445e-17
3754.3662 3.9248e-17
3756.4729 3.79177e-17
3758.5796 3.77145e-17
3760.6868 3.95733e-17
3762.7944 4.66734e-17
3764.9021 3.84171e-17
3767.0105 4.34682e-17
3769.1189 3.96713e-17
3771.2278 4.06032e-17
3773.3372 3.90763e-17
3775.4468 4.18282e-17
3777.5566 3.4008e-17
3779.667 3.96227e-17
3781.7776 3.67723e-17
3783.8884 3.98604e-17
3785.9995 4.36599e-17
3788.1111 3.9037e-17
3790.2231 3.71531e-17
3792.3354 3.7813e-17
3794.448 4.14035e-17
3796.5608 3.97185e-17
3798.6741 3.79657e-17
3800.7876 4.59926e-17
3802.9016 3.70819e-17
3805.0159 4.49426e-17
3807.1304 4.03407e-17
3809.2451 4.47143e-17
3811.3604 4.05579e-17
3813.4761 3.83594e-17
3815.5918 4.41341e-17
3817.708 3.75633e-17
3819.8245 3.99666e-17
3821.9414 4.11745e-17
3824.0583 4.87243e-17
3826.1758 3.86797e-17
3828.2937 4.33779e-17
3830.4119 4.21568e-17
3832.5303 4.71537e-17
3834.6489 4.18514e-17
3836.7681 3.94115e-17
3838.8875 4.58892e-17
3841.0071 4.11731e-17
3843.1272 4.63239e-17
3845.2473 4.50678e-17
3847.3679 4.01812e-17
3849.489 4.24347e-17
3851.6101 4.34083e-17
3853.7317 3.75425e-17
3855.8538 4.49646e-17
3857.9758 4.28989e-17
3860.0984 3.83038e-17
3862.2212 3.97987e-17
3864.3442 4.27277e-17
3866.4678 4.03501e-17
3868.5913 4.24728e-17
3870.7156 4.43173e-17
3872.8398 4.20598e-17
3874.9644 4.23042e-17
3877.0894 4.15762e-17
3879.2146 3.55923e-17
3881.3401 4.0836e-17
3883.4661 4.19467e-17
3885.5923 3.87868e-17
3887.7188 4.83923e-17
3889.8455 4.7109e-17
3891.9724 4.62429e-17
3894.0999 4.58946e-17
3896.2275 4.37901e-17
3898.3555 3.99765e-17
3900.4836 4.16645e-17
3902.6123 3.97117e-17
3904.7412 4.32902e-17
3906.8701 4.11705e-17
3908.9998 4.46199e-17
3911.1294 4.89597e-17
3913.2595 4.38385e-17
3915.3896 4.37866e-17
3917.5203 4.57253e-17
3919.6511 4.44088e-17
3921.7825 4.72309e-17
3923.9138 4.46944e-17
3926.0457 4.71768e-17
3928.1775 4.47883e-17
3930.3098 4.63972e-17
3932.4426 3.97126e-17
3934.5754 4.52953e-17
3936.7085 4.29243e-17
3938.842 4.75085e-17
3940.9758 4.626e-17
3943.1099 4.71471e-17
3945.2441 4.83569e-17
3947.3789 4.61205e-17
3949.5137 4.62043e-17
3951.6487 4.7005e-17
3953.7842 4.64643e-17
3955.9199 4.68099e-17
3958.0559 4.88889e-17
3960.1924 5.08378e-17
3962.3289 4.91641e-17
3964.4656 4.97454e-17
3966.6028 4.29774e-17
3968.74 4.68446e-17
3970.8777 5.04999e-17
3973.0156 4.78587e-17
3975.1538 5.14622e-17
3977.2925 5.03702e-17
3979.4312 4.52996e-17
3981.5701 4.88231e-17
3983.7095 5.10652e-17
3985.8489 5.11259e-17
3987.9888 4.56227e-17
3990.1289 4.7236e-17
3992.2693 4.81716e-17
3994.4099 4.65918e-17
3996.5508 5.46418e-17
3998.6919 5.22471e-17
4000.8333 4.96704e-17
4002.9751 4.84594e-17
4005.1169 4.87952e-17
4007.259 5.18299e-17
4009.4016 4.8027e-17
4011.5442 5.03693e-17
4013.6873 4.5752e-17
4015.8306 4.82209e-17
4017.9741 4.99753e-17
4020.1179 5.07186e-17
4022.262 5.50437e-17
4024.406 5.33195e-17
4026.5508 5.35178e-17
4028.6956 5.45998e-17
4030.8406 5.43075e-17
4032.9858 5.28916e-17
4035.1313 5.63479e-17
4037.2771 5.18392e-17
4039.4233 5.27308e-17
4041.5696 5.41455e-17
4043.7163 5.69732e-17
4045.863 5.45066e-17
4048.01 6.00949e-17
4050.1575 5.56742e-17
4052.3049 5.58143e-17
4054.4529 5.33395e-17
4056.6008 6.08144e-17
4058.7493 5.51717e-17
4060.8977 5.48063e-17
4063.0464 5.49008e-17
4065.1956 5.99778e-17
4067.345 5.78655e-17
4069.4944 5.8495e-17
4071.6443 5.46479e-17
4073.7942 5.692e-17
4075.9446 5.613e-17
4078.095 5.50217e-17
4080.2458 5.79277e-17
4082.3967 6.16883e-17
4084.5481 6.15871e-17
4086.6995 5.59564e-17
4088.8511 5.95364e-17
4091.0032 6.14034e-17
4093.1553 5.64438e-17
4095.3076 5.63033e-17
4097.4604 5.94594e-17
4099.6133 5.63251e-17
4101.7661 5.76415e-17
4103.9199 5.95689e-17
4106.0732 5.80639e-17
4108.2271 6.06371e-17
4110.3809 5.17648e-17
4112.5352 5.64158e-17
4114.6899 6.04073e-17
4116.8447 5.84763e-17
4118.9995 5.86485e-17
4121.1548 5.95763e-17
4123.3101 5.93902e-17
4125.4658 6.2329e-17
4127.6216 5.84768e-17
4129.7778 6.20135e-17
4131.9341 6.11051e-17
4134.0908 5.6978e-17
4136.2476 6.4686e-17
4138.4043 5.37684e-17
4140.5615 6.01776e-17
4142.7192 5.98536e-17
4144.877 6.12209e-17
4147.0347 6.07614e-17
4149.1929 5.86819e-17
4151.3511 6.06884e-17
4153.5098 6.08376e-17
4155.6685 6.25381e-17
4157.8276 5.55322e-17
4159.9868 5.58391e-17
4162.146 5.61849e-17
4164.3057 5.89515e-17
4166.4653 5.52921e-17
4168.6255 6.09784e-17
4170.7856 6.12988e-17
4172.9463 5.6889e-17
4175.1069 5.91748e-17
4177.2676 5.54527e-17
4179.4292 5.95994e-17
4181.5903 5.87115e-17
4183.752 6.00426e-17
4185.9136 5.53036e-17
4188.0757 6.15326e-17
4190.2378 5.61198e-17
4192.3999 5.73064e-17
4194.5625 6.51371e-17
4196.7256 6.26342e-17
4198.8882 5.74423e-17
4201.0518 5.74753e-17
4203.2148 5.58338e-17
4205.3784 6.20378e-17
4207.5425 5.91629e-17
4209.7065 6.49153e-17
4211.8706 5.63552e-17
4214.0352 6.63374e-17
4216.1997 6.14804e-17
4218.3643 6.24649e-17
4220.5293 6.0286e-17
4222.6948 5.87025e-17
4224.8599 6.44374e-17
4227.0259 5.95296e-17
4229.1914 5.99076e-17
4231.3574 5.93776e-17
4233.5239 5.97212e-17
4235.6899 5.82882e-17
4237.8564 5.99155e-17
4240.0234 5.88109e-17
4242.1904 5.81159e-17
4244.3574 6.13428e-17
4246.5249 5.72021e-17
4248.6924 5.57329e-17
4250.8604 5.59649e-17
4253.0283 5.92801e-17
4255.1963 5.90916e-17
4257.3643 5.84555e-17
4259.5332 6.10351e-17
4261.7017 5.61817e-17
4263.8706 5.96639e-17
4266.0396 5.87659e-17
4268.209 5.34442e-17
4270.3784 5.92773e-17
4272.5479 5.68382e-17
4274.7178 5.83814e-17
4276.8877 6.23923e-17
4279.0576 6.04643e-17
4281.228 5.87697e-17
4283.3989 5.21626e-17
4285.5693 5.50493e-17
4287.7402 5.28484e-17
4289.9116 4.98414e-17
4292.0825 5.074e-17
4294.2539 4.97523e-17
4296.4258 5.25947e-17
4298.5972 4.97498e-17
4300.7695 4.85088e-17
4302.9414 5.15462e-17
4305.1138 4.91757e-17
4307.2861 5.11913e-17
4309.459 5.4399e-17
4311.6318 4.91867e-17
4313.8047 5.17065e-17
4315.978 5.54117e-17
4318.1514 5.56598e-17
4320.3247 5.21294e-17
4322.4985 5.31096e-17
4324.6724 5.39009e-17
4326.8467 4.72964e-17
4329.0205 5.17898e-17
4331.1953 5.23563e-17
4333.3696 5.46485e-17
4335.5444 5.1726e-17
4337.7192 5.46598e-17
4339.894 5.46551e-17
4342.0693 5.15334e-17
4344.2446 5.23447e-17
4346.4204 5.60602e-17
4348.5962 5.5182e-17
4350.772 5.53047e-17
4352.9482 5.38455e-17
4355.124 5.28107e-17
4357.3003 5.23844e-17
4359.4771 5.03817e-17
4361.6538 5.34639e-17
4363.8306 5.63206e-17
4366.0073 5.48964e-17
4368.1846 5.61752e-17
4370.3618 6.22515e-17
4372.5396 5.43518e-17
4374.7173 5.66407e-17
4376.895 6.03364e-17
4379.0728 5.95237e-17
4381.251 5.79797e-17
4383.4292 6.05702e-17
4385.6074 5.75139e-17
4387.7861 6.31704e-17
4389.9648 5.70387e-17
4392.1436 6.00862e-17
4394.3228 5.48418e-17
4396.502 5.73713e-17
4398.6812 6.12513e-17
4400.8608 5.84369e-17
4403.0405 5.64751e-17
4405.2202 5.91234e-17
4407.3999 5.90222e-17
4409.5801 5.92525e-17
4411.7603 6.1037e-17
4413.9404 5.93595e-17
4416.1211 6.39538e-17
4418.3018 6.02002e-17
4420.4824 6.36018e-17
4422.6636 6.3781e-17
4424.8447 6.51724e-17
4427.0259 6.8872e-17
4429.207 6.53732e-17
4431.3887 6.18497e-17
4433.5703 6.74212e-17
4435.752 6.75572e-17
4437.9341 6.54319e-17
4440.1162 6.36625e-17
4442.2983 6.20887e-17
4444.4805 6.73332e-17
4446.6631 6.68063e-17
4448.8457 6.26701e-17
4451.0288 6.37115e-17
4453.2114 6.61057e-17
4455.3945 7.08913e-17
4457.5776 6.88756e-17
4459.7612 7.16722e-17
4461.9443 6.57079e-17
4464.1279 6.61244e-17
4466.312 6.97552e-17
4468.4956 6.92067e-17
4470.6797 7.05297e-17
4472.8638 6.5081e-17
4475.0479 6.28585e-17
4477.2324 7.01141e-17
4479.417 7.52315e-17
4481.6016 7.25708e-17
4483.7861 7.38368e-17
4485.9712 7.22341e-17
4488.1562 6.87585e-17
4490.3413 6.70359e-17
4492.5269 7.03116e-17
4494.7119 7.10846e-17
4496.8975 7.26214e-17
4499.0835 7.37404e-17
4501.269 6.8199e-17
4503.4551 7.17884e-17
4505.6411 6.90702e-17
4507.8271 6.74912e-17
4510.0132 6.59348e-17
4512.1997 6.55615e-17
4514.3862 6.33191e-17
4516.5732 6.90474e-17
4518.7598 6.37715e-17
4520.9468 6.89317e-17
4523.1338 6.59531e-17
4525.3208 6.70322e-17
4527.5078 6.57117e-17
4529.6953 6.45981e-17
4531.8828 6.96052e-17
4534.0703 6.69858e-17
4536.2583 6.50864e-17
4538.4458 6.91636e-17
4540.6338 6.34209e-17
4542.8218 6.5512e-17
4545.0103 6.45461e-17
4547.1982 6.54506e-17
4549.3867 6.5865e-17
4551.5752 5.82723e-17
4553.7637 6.15481e-17
4555.9526 6.01526e-17
4558.1416 6.75811e-17
4560.3306 6.31561e-17
4562.5195 6.12645e-17
4564.7085 6.30604e-17
4566.8979 6.8877e-17
4569.0874 6.97784e-17
4571.2769 6.33882e-17
4573.4663 6.50282e-17
4575.6562 6.32699e-17
4577.8462 6.09906e-17
4580.0361 6.4626e-17
4582.2261 6.58743e-17
4584.416 6.38828e-17
4586.6064 6.357e-17
4588.7964 6.5743e-17
4590.9873 6.45127e-17
4593.1777 6.39451e-17
4595.3682 6.3582e-17
4597.5591 6.2551e-17
4599.75 6.0754e-17
4601.9409 6.32283e-17
4604.1318 5.70202e-17
4606.3232 6.36775e-17
4608.5142 5.81135e-17
4610.7056 5.80449e-17
4612.897 6.37975e-17
4615.0889 6.09172e-17
4617.2803 5.79611e-17
4619.4722 6.16412e-17
4621.6641 6.68912e-17
4623.856 6.34537e-17
4626.0479 6.11821e-17
4628.2402 6.50078e-17
4630.4321 6.2361e-17
4632.6245 6.3481e-17
4634.8169 6.02662e-17
4637.0093 6.34247e-17
4639.2021 6.11043e-17
4641.395 5.80576e-17
4643.5874 6.32599e-17
4645.7803 6.06133e-17
4647.9736 6.20581e-17
4650.1665 6.57322e-17
4652.3594 5.72293e-17
4654.5527 6.37945e-17
4656.7461 6.58667e-17
4658.9395 6.55186e-17
4661.1333 6.53139e-17
4663.3267 5.83452e-17
4665.5205 5.69004e-17
4667.7139 6.20621e-17
4669.9077 6.05509e-17
4672.1021 5.81984e-17
4674.2959 5.91628e-17
4676.4902 6.35408e-17
4678.6841 6.51692e-17
4680.8784 5.8998e-17
4683.0728 5.96792e-17
4685.2671 6.1005e-17
4687.4619 6.25426e-17
4689.6562 6.16912e-17
4691.8511 6.20415e-17
4694.0459 5.64238e-17
4696.2407 6.30672e-17
4698.4355 6.06871e-17
4700.6304 5.97961e-17
4702.8257 6.28011e-17
4705.0205 6.03984e-17
4707.2158 6.39624e-17
4709.4111 6.25353e-17
4711.6064 6.12129e-17
4713.8018 6.16969e-17
4715.9976 5.82956e-17
4718.1934 6.02208e-17
4720.3887 6.23956e-17
4722.5845 6.03603e-17
4724.7803 6.71969e-17
4726.9761 5.97594e-17
4729.1724 6.16934e-17
4731.3682 6.5935e-17
4733.5645 6.16093e-17
4735.7607 6.27031e-17
4737.957 6.28661e-17
4740.1533 6.45068e-17
4742.3496 5.91913e-17
4744.5459 6.45436e-17
4746.7427 6.07749e-17
4748.9395 6.54459e-17
4751.1357 6.52591e-17
4753.3325 6.00023e-17
4755.5293 6.39797e-17
4757.7266 5.85553e-17
4759.9233 6.40802e-17
4762.1201 6.08632e-17
4764.3174 6.43056e-17
4766.5146 6.15161e-17
4768.7119 5.88297e-17
4770.9092 6.09295e-17
4773.1064 6.10735e-17
4775.3037 6.1255e-17
4777.501 6.38852e-17
4779.6987 6.04314e-17
4781.8965 6.32458e-17
4784.0942 5.9363e-17
4786.2915 6.2053e-17
4788.4893 5.86431e-17
4790.6875 6.04446e-17
4792.8853 6.22566e-17
4795.083 6.33488e-17
4797.2812 5.96152e-17
4799.479 5.80463e-17
4801.6772 5.89066e-17
4803.8755 6.2529e-17
4806.0737 5.80327e-17
4808.272 6.05012e-17
4810.4702 5.96379e-17
4812.6689 5.96352e-17
4814.8672 6.1458e-17
4817.0659 5.86523e-17
4819.2642 6.02105e-17
4821.4629 6.47829e-17
4823.6616 5.95467e-17
4825.8604 6.13846e-17
4828.0591 5.75568e-17
4830.2583 6.27663e-17
4832.457 6.28928e-17
4834.6558 6.51353e-17
4836.855 6.1384e-17
4839.0537 6.25966e-17
4841.2529 5.99794e-17
4843.4521 6.38506e-17
4845.6514 6.20145e-17
4847.8506 6.41095e-17
4850.0498 5.96915e-17
4852.2495 5.69652e-17
4854.4487 6.15806e-17
4856.6479 6.01218e-17
4858.8477 6.08977e-17
4861.0469 6.02013e-17
4863.2466 5.94523e-17
4865.4463 5.71643e-17
4867.646 6.28827e-17
4869.8457 6.20123e-17
4872.0454 6.13593e-17
4874.2451 5.82527e-17
4876.4453 5.96964e-17
4878.645 6.06573e-17
4880.8447 6.10797e-17
4883.0449 6.35575e-17
4885.2451 5.86395e-17
4887.4448 5.84699e-17
4889.645 5.66255e-17
4891.8452 6.11395e-17
4894.0454 5.75683e-17
4896.2456 5.84145e-17
4898.4458 5.7247e-17
4900.646 5.49436e-17
4902.8467 6.05842e-17
4905.0469 6.00737e-17
4907.2471 5.3692e-17
4909.4478 5.76743e-17
4911.6484 5.35887e-17
4913.8486 5.56276e-17
4916.0493 5.14665e-17
4918.25 5.27119e-17
4920.4507 5.70531e-17
4922.6514 5.27754e-17
4924.8521 5.5081e-17
4927.0527 5.23373e-17
4929.2534 5.4191e-17
4931.4541 5.42356e-17
4933.6548 5.55671e-17
4935.856 5.24735e-17
4938.0566 5.08109e-17
4940.2578 5.31633e-17
4942.4585 5.22508e-17
4944.6597 5.26515e-17
4946.8608 5.31333e-17
4949.062 5.0571e-17
4951.2627 5.16979e-17
4953.4639 4.94298e-17
4955.665 4.98121e-17
4957.8662 5.16106e-17
4960.0674 5.09121e-17
4962.269 4.96262e-17
4964.4702 5.03284e-17
4966.6714 5.3409e-17
4968.8726 5.12882e-17
4971.0742 5.16995e-17
4973.2754 4.6448e-17
4975.4766 5.15961e-17
4977.6782 5.3438e-17
4979.8799 4.99117e-17
4982.0811 4.79924e-17
4984.2827 5.1732e-17
4986.4844 4.95378e-17
4988.6855 5.39864e-17
4990.8872 5.14256e-17
4993.0889 4.96374e-17
4995.2905 4.83413e-17
4997.4922 4.98616e-17
4999.6938 4.65358e-17
5001.8955 5.11303e-17
5004.0972 5.16358e-17
5006.2988 5.23382e-17
5008.5005 5.29427e-17
5010.7026 5.18209e-17
5012.9043 4.9695e-17
5015.106 4.97714e-17
5017.3081 5.41898e-17
5019.5098 5.12654e-17
5021.7114 5.02415e-17
5023.9136 5.5477e-17
5026.1152 5.06256e-17
5028.3174 5.36733e-17
5030.519 5.47528e-17
5032.7212 5.42394e-17
5034.9233 5.33044e-17
5037.125 5.41643e-17
5039.3271 5.74882e-17
5041.5293 5.53518e-17
5043.731 5.17209e-17
5045.9331 5.70368e-17
5048.1353 5.6381e-17
5050.3374 5.37258e-17
5052.5396 6.16944e-17
5054.7417 6.08095e-17
5056.9438 5.30983e-17
5059.146 5.60392e-17
5061.3477 5.52914e-17
5063.5503 5.85788e-17
5065.7524 5.59952e-17
5067.9546 5.70428e-17
5070.1567 5.78866e-17
5072.3589 5.67873e-17
5074.561 6.04272e-17
5076.7632 6.06692e-17
5078.9653 6.03626e-17
5081.1675 5.79271e-17
5083.3701 6.00858e-17
5085.5723 6.36732e-17
5087.7744 6.15752e-17
5089.9766 6.37098e-17
5092.1792 6.19344e-17
5094.3813 6.04435e-17
5096.5835 6.07834e-17
5098.7861 6.2432e-17
5100.9883 6.43105e-17
5103.1904 6.54835e-17
5105.3926 6.44614e-17
5107.5952 6.68213e-17
5109.7974 6.368e-17
5112.0 6.37759e-17
5114.2021 6.38989e-17
5116.4043 6.58663e-17
5118.6069 6.8308e-17
5120.8091 6.36052e-17
5123.0117 6.4883e-17
5125.2139 6.94529e-17
5127.416 6.76127e-17
5129.6187 6.66671e-17
5131.8208 6.80489e-17
5134.0234 6.86032e-17
5136.2256 6.69271e-17
5138.4282 6.84188e-17
5140.6304 7.28858e-17
5142.833 7.21656e-17
5145.0352 7.43585e-17
5147.2373 7.31498e-17
5149.4399 7.33165e-17
5151.6421 7.11426e-17
5153.8447 6.84743e-17
5156.0469 7.48821e-17
5158.2495 7.40647e-17
5160.4517 7.08993e-17
5162.6543 6.79127e-17
5164.8564 7.32125e-17
5167.0586 7.2574e-17
5169.2612 7.20564e-17
5171.4634 7.26964e-17
5173.666 7.21065e-17
5175.8682 6.99321e-17
5178.0703 7.39721e-17
5180.2729 7.26962e-17
5182.4751 7.06393e-17
5184.6777 7.09453e-17
5186.8799 7.35116e-17
5189.082 7.2121e-17
5191.2847 7.61397e-17
5193.4868 7.85358e-17
5195.689 7.67563e-17
5197.8911 7.93196e-17
5200.0938 7.26932e-17
5202.2959 7.39294e-17
5204.498 7.69631e-17
5206.7002 8.13847e-17
5208.9028 7.50266e-17
5211.105 7.46048e-17
5213.3071 7.70011e-17
5215.5093 7.47802e-17
5217.7114 7.39475e-17
5219.9136 7.83755e-17
5222.1162 7.66149e-17
5224.3184 7.80007e-17
5226.5205 7.92889e-17
5228.7227 7.4588e-17
5230.9248 7.93022e-17
5233.127 7.26474e-17
5235.3291 7.6115e-17
5237.5312 7.59497e-17
5239.7334 7.53735e-17
5241.9351 7.62743e-17
5244.1372 7.47862e-17
5246.3394 7.4456e-17
5248.5415 7.98067e-17
5250.7437 7.82299e-17
5252.9458 7.21977e-17
5255.1475 7.85168e-17
5257.3496 7.55484e-17
5259.5518 7.1904e-17
5261.7534 7.50644e-17
5263.9556 7.55104e-17
5266.1577 7.49863e-17
5268.3594 7.99234e-17
5270.5615 7.77375e-17
5272.7632 7.18947e-17
5274.9653 7.03555e-17
5277.167 7.23603e-17
5279.3691 7.22162e-17
5281.5708 7.02017e-17
5283.7725 7.42569e-17
5285.9741 7.30127e-17
5288.1763 7.11972e-17
5290.3779 7.67901e-17
5292.5796 7.13885e-17
5294.7812 7.44974e-17
5296.9829 7.2873e-17
5299.1846 6.98495e-17
5301.3867 7.11355e-17
5303.5879 7.26676e-17
5305.79 7.45931e-17
5307.9912 7.30154e-17
5310.1929 7.26207e-17
5312.3945 6.87514e-17
5314.5962 7.42623e-17
5316.7979 6.82363e-17
5318.999 6.84864e-17
5321.2007 7.13438e-17
5323.4023 7.2709e-17
5325.6035 6.74749e-17
5327.8052 6.87487e-17
5330.0063 6.74005e-17
5332.208 7.09278e-17
5334.4092 6.69554e-17
5336.6108 6.89958e-17
5338.812 6.81253e-17
5341.0132 6.82981e-17
5343.2144 6.6837e-17
5345.416 6.84623e-17
5347.6172 6.83381e-17
5349.8184 6.63709e-17
5352.0195 6.40652e-17
5354.2207 6.57707e-17
5356.4219 6.94907e-17
5358.6226 6.48775e-17
5360.8237 6.39024e-17
5363.0249 6.36425e-17
5365.2261 6.61653e-17
5367.4272 6.33882e-17
5369.6279 6.40821e-17
5371.8291 6.4367e-17
5374.0298 6.39676e-17
5376.231 6.60143e-17
5378.4316 6.35238e-17
5380.6328 5.88846e-17
5382.8335 6.12065e-17
5385.0342 6.13624e-17
5387.2349 6.11937e-17
5389.436 6.34454e-17
5391.6367 6.47594e-17
5393.8374 6.23427e-17
5396.0381 5.96644e-17
5398.2388 6.19229e-17
5400.439 5.94139e-17
5402.6396 5.65951e-17
5404.8403 6.00541e-17
5407.041 6.49795e-17
5409.2412 6.0531e-17
5411.4419 5.60478e-17
5413.6421 5.88944e-17
5415.8428 5.83476e-17
5418.043 6.04318e-17
5420.2437 5.32528e-17
5422.4438 6.00917e-17
5424.644 5.83806e-17
5426.8442 5.70645e-17
5429.0444 5.80223e-17
5431.2446 6.33083e-17
5433.4448 5.64246e-17
5435.645 5.74037e-17
5437.8452 6.29745e-17
5440.0454 5.98266e-17
5442.2456 5.91614e-17
5444.4453 5.80951e-17
5446.6455 5.79239e-17
5448.8452 6.07658e-17
5451.0454 6.47231e-17
5453.2451 5.82275e-17
5455.4453 5.55408e-17
5457.645 5.89417e-17
5459.8447 6.00193e-17
5462.0444 5.53578e-17
5464.2441 5.99476e-17
5466.4438 5.56429e-17
5468.6436 5.32704e-17
5470.8433 5.67687e-17
5473.043 5.96956e-17
5475.2422 5.64354e-17
5477.4419 6.04537e-17
5479.6416 5.79299e-17
5481.8408 5.55742e-17
5484.0405 5.94203e-17
5486.2397 6.01034e-17
5488.439 5.89636e-17
5490.6382 5.65048e-17
5492.8379 5.7301e-17
5495.0371 6.01055e-17
5497.2363 5.47832e-17
5499.4351 5.77285e-17
5501.6343 5.36236e-17
5503.8335 5.5132e-17
5506.0327 5.93189e-17
5508.2319 5.66907e-17
5510.4307 5.71878e-17
5512.6299 5.45309e-17
5514.8286 5.09496e-17
5517.0278 5.75032e-17
5519.2266 5.64464e-17
5521.4253 6.00662e-17
5523.624 5.81676e-17
5525.8228 6.07098e-17
5528.0215 5.75988e-17
5530.2202 5.99642e-17
5532.4189 6.19113e-17
5534.6172 5.93068e-17
5536.8159 5.8983e-17
5539.0146 5.56788e-17
5541.2129 6.24002e-17
5543.4116 6.14028e-17
5545.6099 4.99919e-17
5547.8081 5.69464e-17
5550.0068 5.49198e-17
5552.2051 5.40646e-17
5554.4033 5.69624e-17
5556.6016 5.80554e-17
5558.7998 6.12996e-17
5560.9976 5.99527e-17
5563.1958 6.02546e-17
5565.394 5.45628e-17
5567.5918 6.06881e-17
5569.79 5.58695e-17
5571.9878 5.78365e-17
5574.186 6.62313e-17
5576.3838 6.51978e-17
5578.5815 5.01322e-17
5580.7793 6.18117e-17
5582.9771 5.9003e-17
5585.1748 5.83227e-17
5587.3726 6.20245e-17
5589.5703 5.69343e-17
5591.7676 5.77639e-17
5593.9653 4.99669e-17
5596.1631 5.70175e-17
5598.3604 6.08662e-17
5600.5576 6.33867e-17
5602.7554 6.1764e-17
5604.9526 5.62802e-17
5607.1499 6.36813e-17
5609.3472 5.53128e-17
5611.5444 5.3051e-17
5613.7417 6.00966e-17
5615.939 5.2629e-17
5618.1357 4.95717e-17
5620.333 5.57201e-17
5622.5298 5.25289e-17
5624.7271 5.49785e-17
5626.9238 5.02273e-17
5629.1211 5.18647e-17
5631.3179 5.19038e-17
5633.5146 5.01991e-17
5635.7114 5.69389e-17
5637.9082 6.04499e-17
5640.105 5.00107e-17
5642.3013 5.67885e-17
5644.498 5.96209e-17
5646.6948 4.93244e-17
5648.8911 5.56126e-17
5651.0879 4.79374e-17
5653.2842 5.41338e-17
5655.4805 5.44891e-17
5657.6768 5.27984e-17
5659.8735 5.87983e-17
5662.0698 5.39622e-17
5664.2661 5.46049e-17
5664.4165 5.18796e-17
5665.5601 5.75959e-17
5666.7036 5.01411e-17
5667.8472 5.28038e-17
5668.9907 4.16825e-17
5670.1348 5.62882e-17
5671.2783 4.54044e-17
5672.4224 5.65796e-17
5673.5664 5.80622e-17
5674.71 6.00005e-17
5675.854 4.85832e-17
5676.9985 5.13687e-17
5678.1426 4.8579e-17
5679.2866 4.8245e-17
5680.4307 5.62097e-17
5681.5752 5.20614e-17
5682.7192 5.4617e-17
5683.8638 5.03082e-17
5685.0083 5.69003e-17
5686.1528 5.22363e-17
5687.2969 5.41924e-17
5688.4414 5.32693e-17
5689.5864 4.72508e-17
5690.731 5.99022e-17
5691.8755 6.05843e-17
5693.0205 5.63006e-17
5694.165 5.32494e-17
5695.3101 4.71324e-17
5696.4551 5.55467e-17
5697.6001 5.74143e-17
5698.7451 5.246e-17
5699.8901 5.93084e-17
5701.0352 5.54096e-17
5702.1802 4.92549e-17
5703.3252 4.84463e-17
5704.4707 4.91345e-17
5705.6157 5.31676e-17
5706.7612 5.79356e-17
5707.9067 5.83567e-17
5709.0518 5.57503e-17
5710.1973 5.78582e-17
5711.3428 5.46623e-17
5712.4888 5.73509e-17
5713.6343 5.92626e-17
5714.7798 5.38931e-17
5715.9258 5.72142e-17
5717.0713 5.2723e-17
5718.2173 5.4516e-17
5719.3633 5.80342e-17
5720.5088 5.38168e-17
5721.6548 5.29839e-17
5722.8008 5.22639e-17
5723.9468 5.32886e-17
5725.0933 5.2849e-17
5726.2393 5.16898e-17
5727.3857 5.26922e-17
5728.5317 5.61083e-17
5729.6782 4.94247e-17
5730.8242 5.48096e-17
5731.9707 5.87955e-17
5733.1172 5.3117e-17
5734.2637 5.5709e-17
5735.4102 5.41703e-17
5736.5566 4.99933e-17
5737.7036 5.0076e-17
5738.8501 5.09471e-17
5739.9966 5.65487e-17
5741.1436 4.66263e-17
5742.2905 4.99181e-17
5743.437 5.25691e-17
5744.584 5.64227e-17
5745.731 4.66981e-17
5746.8779 5.94877e-17
5748.0254 6.03756e-17
5749.1724 6.14313e-17
5750.3193 5.42923e-17
5751.4668 5.41918e-17
5752.6138 5.13621e-17
5753.7612 4.91406e-17
5754.9082 5.70281e-17
5756.0557 5.78787e-17
5757.2031 4.91149e-17
5758.3506 5.25133e-17
5759.498 5.78085e-17
5760.646 5.06142e-17
5761.7935 6.03548e-17
5762.9409 5.69551e-17
5764.0889 5.63269e-17
5765.2363 5.08387e-17
5766.3843 5.33941e-17
5767.5322 5.73727e-17
5768.6802 5.39146e-17
5769.8281 5.49634e-17
5770.9761 5.21425e-17
5772.124 5.36075e-17
5773.272 5.29942e-17
5774.4204 5.51255e-17
5775.5684 5.71956e-17
5776.7168 5.35077e-17
5777.8647 5.55838e-17
5779.0132 4.82779e-17
5780.1616 5.17702e-17
5781.3101 5.34198e-17
5782.4585 5.50985e-17
5783.6069 4.87149e-17
5784.7554 5.18691e-17
5785.9038 5.54336e-17
5787.0527 5.87902e-17
5788.2012 5.61141e-17
5789.3501 5.32446e-17
5790.4985 5.52164e-17
5791.6475 5.61354e-17
5792.7964 6.19341e-17
5793.9453 5.0984e-17
5795.0942 5.25776e-17
5796.2432 5.64941e-17
5797.3921 5.7168e-17
5798.5415 6.01227e-17
5799.6904 5.34778e-17
5800.8398 5.78636e-17
5801.9888 5.90476e-17
5803.1382 5.16345e-17
5804.2876 5.77467e-17
5805.4365 5.54048e-17
5806.5859 5.95123e-17
5807.7358 5.79171e-17
5808.8853 5.52114e-17
5810.0347 4.90941e-17
5811.1841 5.28784e-17
5812.334 5.90975e-17
5813.4834 5.32062e-17
5814.6333 5.84971e-17
5815.7827 5.632e-17
5816.9326 5.5816e-17
5818.0825 5.84117e-17
5819.2324 5.33128e-17
5820.3823 5.41815e-17
5821.5322 5.24031e-17
5822.6826 5.37178e-17
5823.8325 5.72703e-17
5824.9824 5.72856e-17
5826.1328 5.50336e-17
5827.2832 5.39603e-17
5828.4331 4.68389e-17
5829.5835 5.48742e-17
5830.7339 5.98412e-17
5831.8843 5.74682e-17
5833.0347 5.84288e-17
5834.1851 5.52236e-17
5835.3354 6.03639e-17
5836.4863 6.19063e-17
5837.6367 5.69522e-17
5838.7876 5.72828e-17
5839.938 5.42257e-17
5841.0889 5.23672e-17
5842.2397 5.59098e-17
5843.3906 5.87107e-17
5844.5415 5.87827e-17
5845.6924 5.49083e-17
5846.8433 5.74575e-17
5847.9941 5.60758e-17
5849.145 5.46731e-17
5850.2964 6.68509e-17
5851.4473 5.49783e-17
5852.5986 5.91661e-17
5853.75 5.40567e-17
5854.9009 5.6836e-17
5856.0522 5.96091e-17
5857.2036 5.39322e-17
5858.355 5.42809e-17
5859.5068 5.74946e-17
5860.6582 5.62465e-17
5861.8096 6.03101e-17
5862.9609 5.98746e-17
5864.1128 5.22237e-17
5865.2642 5.84657e-17
5866.416 5.20429e-17
5867.5679 6.16776e-17
5868.7197 5.73299e-17
5869.8716 5.42223e-17
5871.0234 5.71731e-17
5872.1753 6.09918e-17
5873.3271 5.9127e-17
5874.479 5.48105e-17
5875.6313 5.9247e-17
5876.7832 6.41676e-17
5877.9355 5.9467e-17
5879.0874 5.88289e-17
5880.2397 6.2413e-17
5881.3921 5.62825e-17
5882.5444 6.0528e-17
5883.6968 5.64816e-17
5884.8491 6.36191e-17
5886.0015 6.15869e-17
5887.1538 6.23386e-17
5888.3066 5.08322e-17
5889.459 5.64264e-17
5890.6118 5.53009e-17
5891.7642 6.4214e-17
5892.917 5.58599e-17
5894.0698 6.33099e-17
5895.2227 5.41743e-17
5896.3755 6.23227e-17
5897.5283 5.31719e-17
5898.6812 5.77184e-17
5899.834 6.03001e-17
5900.9868 6.39965e-17
5902.1401 6.08599e-17
5903.293 6.23579e-17
5904.4463 6.03665e-17
5905.5996 6.06921e-17
5906.7524 5.93056e-17
5907.9058 6.52511e-17
5909.0591 5.95784e-17
5910.2124 6.06249e-17
5911.3657 5.73072e-17
5912.519 6.02278e-17
5913.6729 6.34936e-17
5914.8262 6.12609e-17
5915.9795 5.82047e-17
5917.1333 6.13653e-17
5918.2871 6.03106e-17
5919.4404 6.16661e-17
5920.5942 5.93376e-17
5921.748 5.68531e-17
5922.9019 5.71026e-17
5924.0557 5.97861e-17
5925.2095 5.75136e-17
5926.3633 6.49231e-17
5927.5176 6.10352e-17
5928.6714 6.11593e-17
5929.8252 6.09948e-17
5930.9795 5.64458e-17
5932.1338 6.53101e-17
5933.2876 6.89901e-17
5934.4419 6.58461e-17
5935.5962 6.64604e-17
5936.7505 5.73629e-17
5937.9048 6.12921e-17
5939.0591 5.56448e-17
5940.2134 5.77195e-17
5941.3682 6.64508e-17
5942.5225 6.07706e-17
5943.6772 6.82701e-17
5944.8315 6.02521e-17
5945.9863 6.21517e-17
5947.1411 6.7875e-17
5948.2959 6.57977e-17
5949.4502 6.46415e-17
5950.605 6.18946e-17
5951.7598 6.11197e-17
5952.915 6.03154e-17
5954.0698 6.46126e-17
5955.2246 6.26185e-17
5956.3799 7.39861e-17
5957.5347 7.11631e-17
5958.6899 6.32844e-17
5959.8452 7.0372e-17
5961.0 6.75745e-17
5962.1553 6.47775e-17
5963.3105 6.14063e-17
5964.4658 6.11504e-17
5965.6211 6.97779e-17
5966.7764 6.92628e-17
5967.9321 6.01971e-17
5969.0874 5.84665e-17
5970.2427 6.57175e-17
5971.3984 6.75147e-17
5972.5537 6.73923e-17
5973.7095 6.55711e-17
5974.8652 6.32668e-17
5976.021 6.55055e-17
5977.1768 6.30174e-17
5978.3325 6.72217e-17
5979.4883 6.02011e-17
5980.644 6.81866e-17
5981.7998 6.65999e-17
5982.9561 6.74708e-17
5984.1118 6.8162e-17
5985.2681 6.42309e-17
5986.4238 6.73444e-17
5987.5801 6.4274e-17
5988.7363 6.69107e-17
5989.8921 6.40779e-17
5991.0483 6.41467e-17
5992.2046 6.2647e-17
5993.3613 6.61602e-17
5994.5176 6.28368e-17
5995.6738 6.35598e-17
5996.8301 6.79239e-17
5997.9868 6.5252e-17
5999.1431 6.52849e-17
6000.2998 6.74341e-17
6001.4565 6.48981e-17
6002.6128 7.2613e-17
6003.7695 6.44649e-17
6004.9263 6.74403e-17
6006.083 6.33098e-17
6007.2397 6.70112e-17
6008.3965 6.41713e-17
6009.5537 6.76648e-17
6010.7104 6.57349e-17
6011.8672 6.73782e-17
6013.0244 6.36824e-17
6014.1812 6.58729e-17
6015.3384 6.41438e-17
6016.4956 6.39994e-17
6017.6528 6.66468e-17
6018.8096 6.53529e-17
6019.9668 6.625e-17
6021.124 6.33421e-17
6022.2817 6.24827e-17
6023.439 6.41221e-17
6024.5962 6.04145e-17
6025.7539 6.32213e-17
6026.9111 6.9571e-17
6028.0684 6.33826e-17
6029.2261 6.53302e-17
6030.3838 6.38277e-17
6031.5415 7.11456e-17
6032.6992 6.44391e-17
6033.8569 6.15929e-17
6035.0142 6.75473e-17
6036.1724 5.73746e-17
6037.3301 6.48445e-17
6038.4878 6.36414e-17
6039.646 6.42235e-17
6040.8037 6.73715e-17
6041.9619 6.22189e-17
6043.1196 7.01505e-17
6044.2778 6.57682e-17
6045.436 6.83649e-17
6046.5938 6.95282e-17
6047.752 6.7393e-17
6048.9102 6.12551e-17
6050.0684 6.64012e-17
6051.2266 6.41902e-17
6052.3853 6.52825e-17
6053.5435 6.52709e-17
6054.7017 6.52711e-17
6055.8604 6.65774e-17
6057.019 6.47192e-17
6058.1772 6.64691e-17
6059.3359 6.6283e-17
6060.4946 7.01598e-17
6061.6533 6.68335e-17
6062.812 6.65795e-17
6063.9707 6.81178e-17
6065.1294 6.6596e-17
6066.2881 6.54018e-17
6067.4468 6.35077e-17
6068.606 6.37566e-17
6069.7646 7.53225e-17
6070.9238 6.38611e-17
6072.0825 6.90576e-17
6073.2417 6.48547e-17
6074.4009 6.08586e-17
6075.5596 6.64843e-17
6076.7188 6.44738e-17
6077.8779 6.99362e-17
6079.0371 6.44711e-17
6080.1968 6.67073e-17
6081.356 6.38183e-17
6082.5151 6.61271e-17
6083.6748 6.12957e-17
6084.834 6.97813e-17
6085.9932 6.03413e-17
6087.1528 6.78475e-17
6088.3125 6.01365e-17
6089.4722 6.04998e-17
6090.6318 6.86911e-17
6091.7915 6.56792e-17
6092.9507 6.10509e-17
6094.1108 6.39008e-17
6095.2705 6.78261e-17
6096.4302 6.75607e-17
6097.5898 6.31495e-17
6098.75 6.41474e-17
6099.9097 6.74872e-17
6101.0698 6.35811e-17
6102.23 6.09776e-17
6103.3896 6.2701e-17
6104.5498 6.25174e-17
6105.71 6.14215e-17
6106.8701 6.07191e-17
6108.0303 6.89322e-17
6109.1904 6.31404e-17
6110.3506 6.28572e-17
6111.5112 6.58025e-17
6112.6714 6.51942e-17
6113.8315 6.44157e-17
6114.9922 6.2618e-17
6116.1523 6.37053e-17
6117.313 6.34327e-17
6118.4736 6.19832e-17
6119.6343 6.60367e-17
6120.7949 6.24731e-17
6121.9551 6.40678e-17
6123.1162 6.52958e-17
6124.2769 6.60031e-17
6125.4375 6.83514e-17
6126.5981 6.56515e-17
6127.7593 6.77293e-17
6128.9199 6.66979e-17
6130.0806 6.15164e-17
6131.2417 6.36217e-17
6132.4028 5.97687e-17
6133.5635 6.6964e-17
6134.7246 6.48714e-17
6135.8857 6.4027e-17
6137.0469 6.71912e-17
6138.208 6.66593e-17
6139.3691 6.12141e-17
6140.5308 6.38531e-17
6141.6919 6.43927e-17
6142.853 6.00548e-17
6144.0146 6.4649e-17
6145.1758 6.52371e-17
6146.3374 6.34804e-17
6147.499 6.35958e-17
6148.6602 6.22915e-17
6149.8218 6.76064e-17
6150.9834 6.37209e-17
6152.145 6.42492e-17
6153.3066 6.48177e-17
6154.4683 6.51023e-17
6155.6299 6.55608e-17
6156.792 6.80449e-17
6157.9536 6.91388e-17
6159.1152 6.07873e-17
6160.2773 6.20688e-17
6161.439 6.40255e-17
6162.6011 6.11189e-17
6163.7632 6.14466e-17
6164.9253 6.33121e-17
6166.0874 6.73382e-17
6167.2495 6.41249e-17
6168.4116 6.25443e-17
6169.5737 6.38667e-17
6170.7358 5.75811e-17
6171.8979 6.0063e-17
6173.0601 6.22355e-17
6174.2227 6.48035e-17
6175.3848 6.57935e-17
6176.5474 6.36478e-17
6177.71 6.77435e-17
6178.8721 6.24755e-17
6180.0347 6.3843e-17
6181.1973 6.73706e-17
6182.3599 6.66063e-17
6183.5225 5.99393e-17
6184.6851 6.09184e-17
6185.8477 6.37017e-17
6187.0107 6.18598e-17
6188.1733 5.98847e-17
6189.3359 6.15831e-17
6190.499 6.16735e-17
6191.6616 6.055e-17
6192.8247 6.30792e-17
6193.9878 6.85302e-17
6195.1504 5.73346e-17
6196.3135 6.12973e-17
6197.4766 6.23535e-17
6198.6396 5.82655e-17
6199.8027 6.34801e-17
6200.9658 6.55876e-17
6202.1294 5.54149e-17
6203.2925 6.30879e-17
6204.4556 6.30385e-17
6205.6191 6.31755e-17
6206.7822 6.0233e-17
6207.9458 6.00643e-17
6209.1094 6.69286e-17
6210.2725 5.75145e-17
6211.436 5.89817e-17
6212.5996 5.86214e-17
6213.7632 6.29158e-17
6214.9268 5.56204e-17
6216.0903 6.63304e-17
6217.2539 6.63473e-17
6218.418 6.43236e-17
6219.5815 6.21453e-17
6220.7451 6.36706e-17
6221.9092 6.50626e-17
6223.0732 5.7513e-17
6224.2368 6.33081e-17
6225.4009 6.0451e-17
6226.5649 6.21316e-17
6227.729 6.49284e-17
6228.8926 5.94235e-17
6230.0571 5.90764e-17
6231.2212 5.96497e-17
6232.3853 5.92083e-17
6233.5493 6.46149e-17
6234.7134 6.19669e-17
6235.8779 5.76865e-17
6237.042 6.10149e-17
6238.2065 6.53528e-17
6239.3706 6.02842e-17
6240.5352 5.7798e-17
6241.6997 5.57924e-17
6242.8638 6.26589e-17
6244.0283 6.45728e-17
6245.1929 6.07834e-17
6246.3574 6.50551e-17
6247.522 5.88958e-17
6248.687 6.3925e-17
6249.8516 6.5145e-17
6251.0161 6.33476e-17
6252.1812 6.00978e-17
6253.3457 5.66463e-17
6254.5107 5.72932e-17
6255.6753 6.03772e-17
6256.8403 6.1568e-17
6258.0054 5.398e-17
6259.1704 5.3505e-17
6260.3354 6.26911e-17
6261.5005 6.35552e-17
6262.6655 5.81779e-17
6263.8306 6.11019e-17
6264.9956 6.44268e-17
6266.1606 5.72744e-17
6267.3262 6.27857e-17
6268.4912 6.20869e-17
6269.6567 5.99738e-17
6270.8218 5.7901e-17
6271.9873 5.78004e-17
6273.1528 5.75098e-17
6274.3179 5.66062e-17
6275.4834 5.76332e-17
6276.6489 5.79008e-17
6277.8145 5.64828e-17
6278.98 5.67063e-17
6280.1455 5.8228e-17
6281.3115 5.3773e-17
6282.4771 6.17358e-17
6283.6426 6.66542e-17
6284.8086 5.63985e-17
6285.9741 6.23527e-17
6287.1401 5.47382e-17
6288.3062 6.15635e-17
6289.4717 5.89086e-17
6290.6377 5.85787e-17
6291.8037 5.86899e-17
6292.9697 6.23703e-17
6294.1357 5.87787e-17
6295.3018 5.94096e-17
6296.4678 6.12804e-17
6297.6338 5.88635e-17
6298.8003 5.91733e-17
6299.9663 5.66207e-17
6301.1328 6.55456e-17
6302.2988 5.5394e-17
6303.4653 5.77651e-17
6304.6318 5.4346e-17
6305.7979 6.08451e-17
6306.9644 6.02569e-17
6308.1309 6.45301e-17
6309.2974 5.78682e-17
6310.4639 5.90867e-17
6311.6304 5.54417e-17
6312.7969 5.76357e-17
6313.9634 5.60323e-17
6315.1304 5.51683e-17
6316.2969 5.47339e-17
6317.4639 5.72354e-17
6318.6304 5.68125e-17
6319.7974 5.4974e-17
6320.9639 5.66569e-17
6322.1309 5.32378e-17
6323.2979 5.81344e-17
6324.4648 5.82254e-17
6325.6318 5.85156e-17
6326.7988 5.58427e-17
6327.9658 5.86988e-17
6329.1328 5.21847e-17
6330.2998 5.55445e-17
6331.4673 5.28952e-17
6332.6343 5.86733e-17
6333.8013 6.09518e-17
6334.9688 5.93619e-17
6336.1362 5.10974e-17
6337.3032 5.39712e-17
6338.4707 6.09967e-17
6339.6382 5.64149e-17
6340.8057 5.56177e-17
6341.9731 5.70408e-17
6343.1406 5.70237e-17
6344.3081 5.61883e-17
6345.4756 5.54529e-17
6346.6431 5.87622e-17
6347.811 5.79211e-17
6348.9785 5.73077e-17
6350.146 5.39712e-17
6351.314 5.13239e-17
6352.4814 5.5785e-17
6353.6494 5.65811e-17
6354.8174 5.48359e-17
6355.9849 5.80016e-17
6357.1528 6.06633e-17
6358.3208 5.51789e-17
6359.4888 5.6075e-17
6360.6572 5.29594e-17
6361.8252 5.66747e-17
6362.9932 6.30761e-17
6364.1611 5.64851e-17
6365.3291 5.74982e-17
6366.4976 5.03184e-17
6367.6655 4.72253e-17
6368.834 5.92977e-17
6370.0024 5.63365e-17
6371.1704 5.84148e-17
6372.3389 5.48046e-17
6373.5073 5.43437e-17
6374.6758 5.77537e-17
6375.8442 5.16091e-17
6377.0127 5.72868e-17
6378.1812 5.2507e-17
6379.3496 5.18513e-17
6380.5181 5.46622e-17
6381.687 5.02744e-17
6382.8555 5.27984e-17
6384.0244 5.48194e-17
6385.1929 5.44237e-17
6386.3618 5.13207e-17
6387.5308 5.70693e-17
6388.6992 5.32419e-17
6389.8682 5.62974e-17
6391.0371 5.09617e-17
6392.2061 5.21054e-17
6393.375 5.41282e-17
6394.5439 5.23067e-17
6395.7129 5.27811e-17
6396.8823 5.12656e-17
6398.0513 5.55712e-17
6399.2202 5.37264e-17
6400.3896 5.77859e-17
6401.5586 5.34088e-17
6402.728 5.08077e-17
6403.897 5.65357e-17
6405.0664 5.40276e-17
6406.2358 4.99525e-17
6407.4053 5.31914e-17
6408.5747 5.19572e-17
6409.7441 5.25597e-17
6410.9136 5.377e-17
6412.083 5.40262e-17
6413.2524 4.98204e-17
6414.4219 5.04186e-17
6415.5918 5.64879e-17
6416.7612 4.96008e-17
6417.9312 5.77191e-17
6419.1006 5.70927e-17
6420.2705 5.51703e-17
6421.4404 5.22812e-17
6422.6099 5.67882e-17
6423.7798 5.29418e-17
6424.9497 5.34906e-17
6426.1196 4.84492e-17
6427.2896 4.85331e-17
6428.4595 5.29768e-17
6429.6294 5.21896e-17
6430.7993 5.45614e-17
6431.9697 5.53852e-17
6433.1396 4.84167e-17
6434.3101 5.15184e-17
6435.48 5.22938e-17
6436.6504 5.07115e-17
6437.8203 5.71587e-17
6438.9907 5.24941e-17
6440.1611 5.01055e-17
6441.3315 5.17468e-17
6442.5015 4.98241e-17
6443.6719 5.27493e-17
6444.8428 4.99013e-17
6446.0132 5.25368e-17
6447.1836 5.27012e-17
6448.354 4.99835e-17
6449.5249 5.0215e-17
6450.6953 5.32241e-17
6451.8657 4.86826e-17
6453.0366 5.30924e-17
6454.2075 4.86289e-17
6455.3779 5.26656e-17
6456.5488 4.83038e-17
6457.7197 5.1733e-17
6458.8906 4.82708e-17
6460.0615 5.11513e-17
6461.2324 4.96325e-17
6462.4033 4.91878e-17
6463.5742 5.02966e-17
6464.7451 4.86307e-17
6465.916 4.97778e-17
6467.0874 4.75364e-17
6468.2583 5.71027e-17
6469.4292 5.60694e-17
6470.6006 5.01634e-17
6471.7715 4.61352e-17
6472.9429 5.13619e-17
6474.1143 5.00155e-17
6475.2856 5.14788e-17
6476.457 5.05193e-17
6477.6284 5.21719e-17
6478.7998 5.2364e-17
6479.9712 5.16519e-17
6481.1426 5.19581e-17
6482.314 4.96423e-17
6483.4854 4.3716e-17
6484.6572 5.29174e-17
6485.8286 5.34235e-17
6487.0005 4.7641e-17
6488.1719 4.99185e-17
6489.3438 5.12706e-17
6490.5151 4.99486e-17
6491.687 4.68881e-17
6492.8589 4.90696e-17
6494.0308 4.77319e-17
6495.2026 4.81825e-17
6496.3745 4.45567e-17
6497.5464 4.88555e-17
6498.7183 4.44921e-17
6499.8901 4.59662e-17
6501.0625 4.89605e-17
6502.2344 4.6903e-17
6503.4062 4.77974e-17
6504.5786 4.7417e-17
6505.7505 4.74924e-17
6506.9229 4.44349e-17
6508.0952 4.84195e-17
6509.2671 4.74768e-17
6510.4395 4.7958e-17
6511.6118 4.51422e-17
6512.7842 4.06659e-17
6513.9565 4.64347e-17
6515.1289 4.62551e-17
6516.3013 5.0048e-17
6517.4741 5.01119e-17
6518.6465 4.49679e-17
6519.8188 4.73421e-17
6520.9917 4.46208e-17
6522.1641 4.95265e-17
6523.3369 4.88865e-17
6524.5093 4.86904e-17
6525.6821 4.63647e-17
6526.855 4.74358e-17
6528.0278 4.25369e-17
6529.2002 4.34529e-17
6530.373 4.77284e-17
6531.5459 4.55663e-17
6532.7188 4.21986e-17
6533.8916 4.51499e-17
6535.0649 4.59606e-17
6536.2378 4.15443e-17
6537.4106 4.18809e-17
6538.584 4.40472e-17
6539.7568 4.77073e-17
6540.9302 4.36283e-17
6542.103 4.29989e-17
6543.2764 4.71589e-17
6544.4497 5.26872e-17
6545.6226 4.37709e-17
6546.7959 4.73916e-17
6547.9692 4.15012e-17
6549.1426 4.50301e-17
6550.3159 4.70247e-17
6551.4893 4.10727e-17
6552.6631 4.78e-17
6553.8364 4.86249e-17
6555.0098 4.37781e-17
6556.1836 4.29029e-17
6557.3569 4.52099e-17
6558.5303 4.43884e-17
6559.7041 4.66528e-17
6560.8779 4.27086e-17
6562.0513 4.26885e-17
6563.2251 4.25391e-17
6564.3989 4.78074e-17
6565.5728 4.15272e-17
6566.7466 4.3833e-17
6567.9204 4.71389e-17
6569.0942 4.06961e-17
6570.2681 4.01001e-17
6571.4419 4.90804e-17
6572.6162 4.40254e-17
6573.79 4.31422e-17
6574.9644 4.41527e-17
6576.1382 4.71765e-17
6577.3125 4.2787e-17
6578.4863 4.50408e-17
6579.6606 4.73754e-17
6580.835 4.35138e-17
6582.0088 4.04463e-17
6583.1831 4.27122e-17
6584.3574 3.86445e-17
6585.5317 4.9577e-17
6586.7065 4.50478e-17
6587.8804 4.39906e-17
6589.0552 4.63888e-17
6590.2295 4.155e-17
6591.4038 4.34304e-17
6592.5786 4.35065e-17
6593.7529 4.38444e-17
6594.9277 4.45191e-17
6596.1021 3.84776e-17
6597.2769 4.50203e-17
6598.4517 4.40139e-17
6599.626 4.19104e-17
6600.8008 4.35141e-17
6601.9756 4.69291e-17
6603.1504 4.21182e-17
6604.3252 4.36834e-17
6605.5 4.436e-17
6606.6753 4.49877e-17
6607.8501 3.9892e-17
6609.0249 4.19932e-17
6610.1997 4.11472e-17
6611.375 4.11588e-17
6612.5498 4.01646e-17
6613.7251 4.4573e-17
6614.8999 4.38903e-17
6616.0752 4.26031e-17
6617.2505 4.41187e-17
6618.4258 4.50044e-17
6619.6011 4.46029e-17
6620.7759 4.53107e-17
6621.9512 4.3078e-17
6623.127 4.33692e-17
6624.3022 4.25094e-17
6625.4775 4.3565e-17
6626.6528 4.30363e-17
6627.8286 4.17929e-17
6629.0039 4.24847e-17
6630.1792 4.20485e-17
6631.355 4.60827e-17
6632.5303 3.87988e-17
6633.7061 4.10904e-17
6634.8818 4.16508e-17
6636.0576 4.63808e-17
6637.2329 4.41562e-17
6638.4087 4.46013e-17
6639.5845 4.3052e-17
6640.7603 4.02029e-17
6641.936 4.3886e-17
6643.1118 4.45994e-17
6644.2881 4.19489e-17
6645.4639 3.76576e-17
6646.6396 4.35294e-17
6647.8159 4.54198e-17
6648.9917 4.47474e-17
6650.168 4.29097e-17
6651.3438 4.00805e-17
6652.52 4.25217e-17
6653.6958 4.4602e-17
6654.8721 4.10434e-17
6656.0483 4.3115e-17
6657.2246 4.39342e-17
6658.4009 4.29823e-17
6659.5771 4.24516e-17
6660.7534 4.32014e-17
6661.9297 4.22768e-17
6663.106 4.46696e-17
6664.2827 4.40642e-17
6665.459 4.49691e-17
6666.6357 4.12459e-17
6667.812 4.17247e-17
6668.9883 4.08254e-17
6670.165 4.26159e-17
6671.3418 4.50798e-17
6672.5181 4.61135e-17
6673.6948 4.57874e-17
6674.8716 3.9803e-17
6676.0483 4.23864e-17
6677.2251 4.03865e-17
6678.4019 4.14219e-17
6679.5786 4.36422e-17
6680.7554 4.09254e-17
6681.9321 4.26735e-17
6683.1094 4.36354e-17
6684.2861 4.34139e-17
6685.4629 4.36696e-17
6686.6401 4.40123e-17
6687.8169 3.99561e-17
6688.9941 4.50759e-17
6690.1714 4.31299e-17
6691.3481 4.44002e-17
6692.5254 4.35614e-17
6693.7026 4.65701e-17
6694.8799 3.69303e-17
6696.0571 4.34824e-17
6697.2344 4.27762e-17
6698.4116 4.19333e-17
6699.5889 4.97633e-17
6700.7661 4.37588e-17
6701.9434 4.21139e-17
6703.1211 4.3074e-17
6704.2983 4.28593e-17
6705.4761 4.85527e-17
6706.6533 4.55903e-17
6707.8311 4.62594e-17
6709.0083 4.61563e-17
6710.186 4.36182e-17
6711.3638 4.32854e-17
6712.5415 4.52316e-17
6713.7192 3.97615e-17
6714.897 4.33934e-17
6716.0747 3.84659e-17
6717.2524 3.96824e-17
6718.4302 4.56679e-17
6719.6079 4.51727e-17
6720.7856 4.44602e-17
6721.9639 3.97814e-17
6723.1416 4.3131e-17
6724.3193 4.19365e-17
6725.4976 4.40373e-17
6726.6753 4.34092e-17
6727.8535 4.85966e-17
6729.0317 4.45122e-17
6730.2095 4.80074e-17
6731.3877 4.04936e-17
6732.5659 4.33199e-17
6733.7441 4.37848e-17
6734.9224 4.413e-17
6736.1006 4.67451e-17
6737.2788 4.19013e-17
6738.4575 4.10882e-17
6739.6357 4.34318e-17
6740.814 4.49795e-17
6741.9922 4.17267e-17
6743.1709 4.33496e-17
6744.3491 4.26198e-17
6745.5278 3.7978e-17
6746.7065 4.10019e-17
6747.8848 4.45729e-17
6749.0635 4.21401e-17
6750.2422 4.09694e-17
6751.4204 4.09389e-17
6752.5991 4.06194e-17
6753.7778 4.19432e-17
6754.9565 4.35595e-17
6756.1357 4.2315e-17
6757.3145 4.34984e-17
6758.4932 4.22629e-17
6759.6719 3.81347e-17
6760.8506 4.16609e-17
6762.0298 4.43406e-17
6763.2085 4.04381e-17
6764.3877 3.92784e-17
6765.5664 4.08697e-17
6766.7456 4.08213e-17
6767.9248 4.04026e-17
6769.1035 4.28895e-17
6770.2827 4.14427e-17
6771.4619 4.18844e-17
6772.6411 3.80611e-17
6773.8203 3.94235e-17
6774.9995 4.10445e-17
6776.1787 4.24459e-17
6777.3579 3.50153e-17
6778.5376 3.68826e-17
6779.7168 3.89831e-17
6780.896 3.99803e-17
6782.0757 3.96091e-17
6783.2549 4.13322e-17
6784.4346 4.24048e-17
6785.6138 4.36688e-17
6786.7935 4.12525e-17
6787.9731 4.08158e-17
6789.1528 4.04881e-17
6790.332 4.0985e-17
6791.5117 4.17192e-17
6792.6914 4.21927e-17
6793.8711 4.35026e-17
6795.0508 4.55667e-17
6796.2305 4.34195e-17
6797.4102 3.96862e-17
6798.5903 3.71417e-17
6799.77 4.37949e-17
6800.9497 4.16414e-17
6802.1299 4.17726e-17
6803.3096 3.93235e-17
6804.4897 4.39785e-17
6805.6699 4.22078e-17
6806.8496 4.15196e-17
6808.0298 4.58373e-17
6809.21 3.92822e-17
6810.3901 4.08322e-17
6811.5703 4.17223e-17
6812.75 3.93849e-17
6813.9302 4.30882e-17
6815.1108 4.35751e-17
6816.291 4.21662e-17
6817.4712 4.20876e-17
6818.6514 4.33121e-17
6819.832 3.55668e-17
6821.0122 3.90502e-17
6822.1924 3.98411e-17
6823.373 3.85715e-17
6824.5532 4.05459e-17
6825.7339 3.80484e-17
6826.9146 4.19547e-17
6828.0947 3.89927e-17
6829.2754 3.68187e-17
6830.4561 4.13054e-17
6831.6367 4.07935e-17
6832.8174 4.10716e-17
6833.998 3.78261e-17
6835.1787 4.10068e-17
6836.3594 4.11324e-17
6837.54 3.95544e-17
6838.7212 4.02247e-17
6839.9019 4.16767e-17
6841.0825 4.37753e-17
6842.2637 3.42893e-17
6843.4443 3.85131e-17
6844.6255 4.0532e-17
6845.8066 4.23814e-17
6846.9873 3.99023e-17
6848.1685 4.12939e-17
6849.3496 3.97446e-17
6850.5303 4.25251e-17
6851.7114 3.85257e-17
6852.8926 3.96182e-17
6854.0737 4.3826e-17
6855.2549 4.03586e-17
6856.4365 3.95586e-17
6857.6177 4.09856e-17
6858.7988 3.75694e-17
6859.98 3.96152e-17
6861.1616 3.90725e-17
6862.3428 3.9701e-17
6863.5244 4.07117e-17
6864.7056 4.219e-17
6865.8872 4.25223e-17
6867.0684 4.51374e-17
6868.25 4.22735e-17
6869.4316 4.19933e-17
6870.6133 4.10861e-17
6871.7949 3.98082e-17
6872.9766 3.95553e-17
6874.1582 3.81198e-17
6875.3398 4.06556e-17
6876.5215 3.87205e-17
6877.7031 3.87611e-17
6878.8848 4.27192e-17
6880.0669 3.73377e-17
6881.2485 3.97923e-17
6882.4302 4.18258e-17
6883.6123 4.13328e-17
6884.7939 4.4064e-17
6885.9761 4.17265e-17
6887.1582 4.2989e-17
6888.3398 3.92618e-17
6889.522 4.73226e-17
6890.7041 4.13215e-17
6891.8862 4.04768e-17
6893.0684 4.40435e-17
6894.2505 3.82997e-17
6895.4326 4.05574e-17
6896.6147 3.70961e-17
6897.7969 4.25143e-17
6898.979 4.32618e-17
6900.1616 3.87006e-17
6901.3438 3.9288e-17
6902.5259 4.2838e-17
6903.7085 3.7742e-17
6904.8906 4.1814e-17
6906.0732 4.33495e-17
6907.2554 4.37961e-17
6908.438 4.2313e-17
6909.6206 4.13574e-17
6910.8032 4.44428e-17
6911.9854 4.16884e-17
6913.168 4.28149e-17
6914.3506 4.11552e-17
6915.5332 3.86942e-17
6916.7158 4.06326e-17
6917.8989 4.51424e-17
6919.0815 3.97857e-17
6920.2642 4.10789e-17
6921.4468 3.87489e-17
6922.6299 4.46601e-17
6923.8125 3.90157e-17
6924.9951 4.18032e-17
6926.1782 4.07014e-17
6927.3613 4.44122e-17
6928.5439 4.66737e-17
6929.7271 4.8222e-17
6930.9102 4.58939e-17
6932.0928 4.32014e-17
6933.2759 4.13892e-17
6934.459 4.33702e-17
6935.6421 4.09113e-17
6936.8252 4.38409e-17
6938.0083 4.18751e-17
6939.1914 4.40005e-17
6940.375 4.10205e-17
6941.5581 3.96655e-17
6942.7412 4.09409e-17
6943.9248 4.70384e-17
6945.1079 3.85346e-17
6946.2915 3.97787e-17
6947.4746 4.09633e-17
6948.6582 3.95925e-17
6949.8413 4.06243e-17
6951.0249 4.45786e-17
6952.2085 4.16425e-17
6953.3921 3.97092e-17
6954.5752 3.76006e-17
6955.7588 4.1509e-17
6956.9424 4.26759e-17
6958.126 4.32809e-17
6959.3096 3.95494e-17
6960.4937 3.97429e-17
6961.6772 4.11349e-17
6962.8608 4.02654e-17
6964.0444 4.0756e-17
6968.7798 3.97425e-17
6969.9639 4.01764e-17
6971.1475 4.28049e-17
6972.3315 3.94656e-17
6973.5156 4.02447e-17
6974.6997 4.20887e-17
6975.8838 3.92974e-17
6977.0679 4.26602e-17
6978.2515 4.19938e-17
6979.436 4.17143e-17
6980.6201 3.89291e-17
6981.8042 4.39935e-17
6982.9883 4.27649e-17
6984.1724 3.74294e-17
6985.3569 4.36912e-17
6986.541 4.06864e-17
6987.7251 4.0952e-17
6988.9097 4.48787e-17
6990.0942 3.85226e-17
6991.2783 3.99714e-17
6992.4629 4.08143e-17
6993.647 3.95506e-17
6994.8315 4.08249e-17
6996.0161 3.90695e-17
6997.2007 3.99258e-17
6998.3853 3.96438e-17
6999.5698 4.19796e-17
7000.7544 3.78702e-17
7001.939 3.72079e-17
7003.1235 3.84896e-17
7004.3081 4.16328e-17
7005.4927 3.86724e-17
7006.6777 4.313e-17
7007.8623 3.87165e-17
7009.0469 4.19158e-17
7010.2319 4.16575e-17
7011.4165 3.87719e-17
7012.6016 4.02147e-17
7013.7866 3.78511e-17
7014.9712 3.79098e-17
7016.1562 4.38852e-17
7017.3413 3.96899e-17
7018.5264 3.95189e-17
7019.7114 4.00152e-17
7020.896 3.81945e-17
7022.0815 3.83457e-17
7023.2666 3.81196e-17
7024.4517 4.22093e-17
7025.6367 3.94295e-17
7026.8218 3.94917e-17
7028.0068 4.08576e-17
7029.1924 3.83107e-17
7030.3774 3.58093e-17
7031.5625 3.82419e-17
7032.748 3.81452e-17
7033.9331 4.1903e-17
7035.1187 3.68443e-17
7036.3042 3.93448e-17
7037.4893 4.07065e-17
7038.6748 4.20416e-17
7039.8604 3.90337e-17
7041.0459 3.99334e-17
7042.2314 3.98863e-17
7043.417 3.63913e-17
7044.6025 3.7065e-17
7045.7881 3.79364e-17
7046.9736 3.6862e-17
7048.1592 3.64373e-17
7049.3447 3.7841e-17
7050.5308 3.9236e-17
7051.7163 3.89176e-17
7052.9019 3.60904e-17
7054.0879 4.10383e-17
7055.2734 3.77186e-17
7056.4595 3.34557e-17
7057.6455 3.20962e-17
7058.8311 3.5657e-17
7060.0171 3.31141e-17
7061.2031 3.50921e-17
7062.3887 3.85675e-17
7063.5747 3.66568e-17
7064.7607 3.61446e-17
7065.9468 3.32036e-17
7067.1328 3.54398e-17
7068.3188 3.69003e-17
7069.5049 3.40496e-17
7070.6914 3.74047e-17
7071.8774 3.85281e-17
7073.0635 3.31001e-17
7074.25 3.80689e-17
7075.436 3.70015e-17
7076.6221 3.42815e-17
7077.8086 3.64915e-17
7078.9951 3.47742e-17
7080.1812 3.94453e-17
7081.3677 3.82734e-17
7082.5542 3.6183e-17
7083.7402 3.55426e-17
7084.9268 3.89803e-17
7086.1133 3.88821e-17
7087.2998 3.6431e-17
7088.4863 3.76017e-17
7089.6729 4.03854e-17
7090.8594 3.54734e-17
7092.0459 3.75298e-17
7093.2324 3.63366e-17
7094.4194 3.74497e-17
7095.606 3.65335e-17
7096.7925 3.72157e-17
7097.9795 3.34549e-17
7099.166 3.48503e-17
7100.353 3.65003e-17
7101.5396 3.71376e-17
7102.7266 3.52476e-17
7103.9131 3.72657e-17
7105.1001 4.04273e-17
7106.2871 3.9481e-17
7107.4741 3.29679e-17
7108.6611 3.73378e-17
7109.8477 3.90794e-17
7111.0347 3.67263e-17
7112.2217 4.01748e-17
7113.4092 3.5083e-17
7114.5962 3.65176e-17
7115.7832 3.85363e-17
7116.9702 3.83779e-17
7118.1572 4.03885e-17
7119.3447 3.93636e-17
7120.5317 3.38995e-17
7121.7192 3.91803e-17
7122.9062 3.43042e-17
7124.0933 3.72294e-17
7125.2808 4.01148e-17
7126.4683 3.69263e-17
7127.6553 3.974e-17
7128.8428 3.73632e-17
7130.0303 3.56601e-17
7131.2178 3.81999e-17
7132.4053 4.11114e-17
7133.5928 3.72917e-17
7134.7803 3.77743e-17
7135.9678 3.66277e-17
7137.1553 3.89363e-17
7138.3428 3.74973e-17
7139.5303 3.89221e-17
7140.7178 3.93386e-17
7141.9058 3.57527e-17
7143.0933 3.8786e-17
7144.2808 3.8592e-17
7145.4688 3.52163e-17
7146.6562 3.79007e-17
7147.8442 3.66102e-17
7149.0322 4.19582e-17
7150.2197 4.24117e-17
7151.4077 4.10529e-17
7152.5957 3.93352e-17
7153.7832 3.64297e-17
7154.9712 3.77387e-17
7156.1592 4.19394e-17
7157.3472 3.97864e-17
7158.5352 3.8892e-17
7159.7231 3.63163e-17
7160.9111 4.02399e-17
7162.0996 4.29168e-17
7163.2876 4.08836e-17
7164.4756 3.78389e-17
7165.6636 3.85532e-17
7166.8521 4.16258e-17
7168.04 4.24187e-17
7169.2285 3.73978e-17
7170.4165 4.2756e-17
7171.605 3.62846e-17
7172.793 3.78909e-17
7173.9814 4.08484e-17
7175.1699 3.98437e-17
7176.3579 4.16304e-17
7177.5464 4.24725e-17
7178.7349 4.24635e-17
7179.9233 4.26421e-17
7181.1118 3.94554e-17
7182.3003 4.26339e-17
7183.4888 4.05821e-17
7184.6772 4.08093e-17
7185.8657 3.97436e-17
7187.0542 4.54072e-17
7188.2432 3.66608e-17
7189.4316 3.91944e-17
7190.6201 4.37163e-17
7191.8091 4.43256e-17
7192.9976 4.18483e-17
7194.1865 3.89938e-17
7195.375 4.2458e-17
7196.564 4.55655e-17
7197.7529 4.30213e-17
7198.9414 4.17993e-17
7200.1304 4.22557e-17
7201.3193 4.24147e-17
7202.5083 4.40539e-17
7203.6968 4.52578e-17
7204.8857 4.21349e-17
7206.0747 4.38695e-17
7207.2637 4.00799e-17
7208.4531 4.34688e-17
7209.6421 4.27439e-17
7210.8311 4.1342e-17
7212.02 4.22671e-17
7213.209 4.1571e-17
7214.3984 4.17801e-17
7215.5874 4.234e-17
7216.7764 4.18122e-17
7217.9658 4.24273e-17
7219.1553 4.1348e-17
7220.3442 4.45547e-17
7221.5337 3.8401e-17
7222.7227 4.66751e-17
7223.9121 4.27421e-17
7225.1016 4.55137e-17
7226.291 4.24214e-17
7227.4805 4.36382e-17
7228.6699 4.16309e-17
7229.8589 4.39789e-17
7231.0488 4.61251e-17
7232.2383 4.34387e-17
7233.4277 4.66331e-17
7234.6172 3.94852e-17
7235.8066 3.87618e-17
7236.9961 4.26388e-17
7238.186 4.27652e-17
7239.3755 4.44764e-17
7240.5649 4.19874e-17
7241.7549 4.15322e-17
7242.9443 4.17095e-17
7244.1343 4.16561e-17
7245.3242 3.90602e-17
7246.5137 4.0797e-17
7247.7036 4.52334e-17
7248.8931 3.82528e-17
7250.083 4.23065e-17
7251.2729 4.10802e-17
7252.4629 4.12641e-17
7253.6528 3.79704e-17
7254.8428 4.13886e-17
7256.0327 4.42484e-17
7257.2227 4.48106e-17
7258.4126 4.11821e-17
7259.6025 4.41132e-17
7260.7925 4.17356e-17
7261.9829 4.24634e-17
7263.1729 4.50252e-17
7264.3628 4.68473e-17
7265.5532 4.54736e-17
7266.7432 4.33254e-17
7267.9336 4.87832e-17
7269.1235 4.55924e-17
7270.314 4.31507e-17
7271.5044 4.23974e-17
7272.6943 4.05347e-17
7273.8848 4.43706e-17
7275.0752 4.04221e-17
7276.2656 4.25339e-17
7277.4556 4.68066e-17
7278.646 4.44682e-17
7279.8364 4.4011e-17
7281.0269 4.31732e-17
7282.2173 4.16618e-17
7283.4077 4.42393e-17
7284.5986 3.91809e-17
7285.7891 4.36996e-17
7286.9795 4.29508e-17
7288.1699 4.66295e-17
7289.3608 4.3295e-17
7290.5513 4.31818e-17
7291.7417 4.49175e-17
7292.9326 4.40907e-17
7294.1235 4.85758e-17
7295.314 4.67107e-17
7296.5049 4.73242e-17
7297.6953 4.36216e-17
7298.8862 4.49091e-17
7300.0771 4.58155e-17
7301.2681 4.36802e-17
7302.4585 4.59166e-17
7303.6494 4.64871e-17
7304.8403 4.62342e-17
7306.0312 4.42458e-17
7307.2222 4.49854e-17
7308.4131 4.70107e-17
7309.604 4.50888e-17
7310.7954 4.75144e-17
7311.9863 4.49809e-17
7313.1772 4.5381e-17
7314.3682 4.14859e-17
7315.5596 4.57931e-17
7316.7505 4.5994e-17
7317.9419 4.77233e-17
7319.1328 4.55049e-17
7320.3242 4.39292e-17
7321.5151 4.08785e-17
7322.7065 4.49653e-17
7323.8975 4.75436e-17
7325.0889 4.50063e-17
7326.2803 4.6776e-17
7327.4717 4.66131e-17
7328.6631 4.40725e-17
7329.8545 4.47596e-17
7331.0454 4.3505e-17
7332.2368 4.38745e-17
7333.4287 4.7004e-17
7334.6201 4.53352e-17
7335.8115 4.42172e-17
7337.0029 4.60869e-17
7338.1943 4.56868e-17
7339.3857 4.76902e-17
7340.5776 4.79664e-17
7341.769 4.21191e-17
7342.9604 4.40012e-17
7344.1523 4.62761e-17
7345.3438 4.59741e-17
7346.5356 4.38738e-17
7347.7271 4.81384e-17
7348.9189 4.68782e-17
7350.1108 4.30857e-17
7351.3022 4.54217e-17
7352.4941 4.36881e-17
7353.686 4.37323e-17
7354.8779 4.20036e-17
7356.0698 4.50052e-17
7357.2617 4.68884e-17
7358.4536 4.71859e-17
7359.6455 4.62982e-17
7360.8374 4.4783e-17
7362.0293 4.55999e-17
7363.2212 4.42446e-17
7364.4131 4.81131e-17
7365.605 4.48915e-17
7366.7969 4.42215e-17
7367.9893 4.49853e-17
7369.1812 4.43186e-17
7370.3735 4.27533e-17
7371.5654 4.30263e-17
7372.7578 4.81319e-17
7373.9497 4.91018e-17
7375.1421 4.42698e-17
7376.334 4.38079e-17
7377.5264 4.41891e-17
7378.7188 4.83309e-17
7379.9111 4.33133e-17
7381.103 4.42268e-17
7382.2954 4.69178e-17
7383.4878 4.69506e-17
7384.6802 4.4969e-17
7385.8726 4.84776e-17
7387.0649 4.52559e-17
7388.2573 4.52364e-17
7389.4497 4.54401e-17
7390.6421 4.67291e-17
7391.835 4.41179e-17
7393.0273 4.37212e-17
7394.2197 4.48145e-17
7395.4121 4.70675e-17
7396.605 4.83324e-17
7397.7974 4.70113e-17
7398.9902 4.49563e-17
7400.1826 4.53879e-17
7401.3755 4.07214e-17
7402.5679 4.408e-17
7403.7607 4.01258e-17
7404.9536 4.29084e-17
7406.146 4.71599e-17
7407.3389 4.55212e-17
7408.5317 4.47567e-17
7409.7246 4.53243e-17
7410.9175 4.38437e-17
7412.1099 4.36758e-17
7413.3032 4.0592e-17
7414.4961 4.45861e-17
7415.689 4.38804e-17
7416.8818 4.42276e-17
7418.0747 4.18196e-17
7419.2676 4.542e-17
7420.4604 4.64993e-17
7421.6538 4.0919e-17
7422.8467 4.4562e-17
7424.0396 4.68467e-17
7425.2329 4.53998e-17
7426.4258 4.3473e-17
7427.6191 4.39297e-17
7428.812 4.51379e-17
7430.0054 4.43105e-17
7431.1982 4.24111e-17
7432.3916 4.57371e-17
7433.5845 3.8815e-17
7434.7778 4.54008e-17
7435.9712 4.09722e-17
7437.1646 4.54649e-17
7438.3579 4.44384e-17
7439.5513 4.02123e-17
7440.7446 4.09929e-17
7441.938 4.58804e-17
7443.1313 4.54475e-17
7444.3247 4.58281e-17
7445.5181 4.51193e-17
7446.7114 4.61073e-17
7447.9048 4.33496e-17
7449.0981 4.25053e-17
7450.292 4.35022e-17
7451.4854 4.68685e-17
7452.6787 4.29771e-17
7453.8726 4.42283e-17
7455.0659 4.10338e-17
7456.2598 4.43684e-17
7457.4531 4.45647e-17
7458.647 4.36687e-17
7459.8403 4.38288e-17
7461.0342 4.1611e-17
7462.228 4.45278e-17
7463.4214 4.03149e-17
7464.6152 4.31812e-17
7465.8091 4.29316e-17
7467.0029 4.62159e-17
7468.1968 4.46315e-17
7469.3906 4.50435e-17
7470.5845 4.48673e-17
7471.7783 4.43268e-17
7472.9722 3.99648e-17
7474.166 4.78991e-17
7475.3599 4.31379e-17
7476.5537 4.38882e-17
7477.7476 4.04573e-17
7478.9419 4.37793e-17
7480.1357 4.09888e-17
7481.3296 3.99539e-17
7482.5239 4.29502e-17
7483.7178 4.36396e-17
7484.9116 4.24447e-17
7486.106 4.36644e-17
7487.2998 4.52034e-17
7488.4941 3.94682e-17
7489.6885 4.60346e-17
7490.8823 4.50978e-17
7492.0767 4.37832e-17
7493.271 4.14654e-17
7494.4653 4.51355e-17
7495.6592 4.20125e-17
7496.8535 4.2911e-17
7498.0479 4.61417e-17
7499.2422 4.61061e-17
7500.4365 4.34056e-17
7501.6309 4.59584e-17
7502.8252 4.02216e-17
7504.0195 4.33686e-17
7505.2139 4.35659e-17
7506.4087 4.22525e-17
7507.603 4.35642e-17
7508.7974 4.16695e-17
7509.9917 4.15452e-17
7511.1865 4.6882e-17
7512.3809 4.1077e-17
7513.5752 4.22843e-17
7514.77 4.05312e-17
7515.9644 4.31586e-17
7517.1592 4.30482e-17
7518.3535 4.14767e-17
7519.5483 4.02804e-17
7520.7432 4.43603e-17
7521.9375 4.53361e-17
7523.1323 3.52789e-17
7524.3271 3.8596e-17
7525.522 3.91621e-17
7526.7168 4.6292e-17
7527.9111 4.77636e-17
7529.106 4.61186e-17
7530.3008 5.02915e-17
7531.4956 5.20408e-17
7532.6904 4.79438e-17
7533.8853 4.39772e-17
7535.0801 4.69301e-17
7536.2754 4.27358e-17
7537.4702 4.33782e-17
7538.665 4.15647e-17
7539.8599 4.11474e-17
7541.0552 4.50466e-17
7542.25 4.02367e-17
7543.4448 4.38797e-17
7544.6401 4.03499e-17
7545.835 4.5509e-17
7547.0303 4.13192e-17
7548.2251 4.28462e-17
7549.4204 3.99266e-17
7550.6157 4.05723e-17
7551.8105 4.33255e-17
7553.0059 4.23688e-17
7554.2007 4.21597e-17
7555.396 4.08088e-17
7556.5913 4.29463e-17
7557.7866 4.1169e-17
7558.9819 4.02869e-17
7560.1772 4.38871e-17
7561.3726 4.29722e-17
7562.5679 4.45569e-17
7563.7632 3.90594e-17
7564.9585 3.93973e-17
7566.1538 4.13196e-17
7567.3491 4.29189e-17
7568.5444 4.27776e-17
7569.7397 4.16987e-17
7570.9355 4.10361e-17
7572.1309 4.02596e-17
7573.3262 3.90916e-17
7574.522 4.24362e-17
7575.7173 4.22585e-17
7576.9126 4.07557e-17
7578.1084 4.50681e-17
7579.3037 4.0632e-17
7580.4995 3.87331e-17
7581.6953 4.25274e-17
7582.8906 3.91523e-17
7584.0864 3.96924e-17
7585.2822 4.01945e-17
7586.4775 4.27874e-17
7587.6733 4.2186e-17
7588.8691 4.0498e-17
7590.0649 4.37256e-17
7591.2607 4.07466e-17
7592.4565 4.31165e-17
7593.6523 3.95096e-17
7594.8477 3.79396e-17
7596.0435 3.90845e-17
7597.2393 4.12544e-17
7598.4355 3.95366e-17
7599.6313 3.29805e-17
7600.8271 3.917e-17
7602.0229 4.00456e-17
7603.2188 3.99163e-17
7604.415 3.91703e-17
7605.6108 3.56948e-17
7606.8066 3.3327e-17
7608.0029 3.17291e-17
7609.1987 3.75125e-17
7610.395 3.49399e-17
7611.5908 3.1502e-17
7612.7871 3.43105e-17
7613.9829 3.62142e-17
7615.1792 3.38747e-17
7616.375 3.7801e-17
7617.5713 3.57141e-17
7618.7676 3.8085e-17
7619.9634 3.60209e-17
7621.1597 3.93666e-17
7622.356 4.23766e-17
7623.5522 4.12909e-17
7624.7485 3.9984e-17
7625.9448 4.10296e-17
7627.1411 3.59265e-17
7628.3374 3.59778e-17
7629.5337 3.52363e-17
7630.73 3.28827e-17
7631.9263 3.96578e-17
7633.1226 3.5883e-17
7634.3188 3.63794e-17
7635.5156 3.87685e-17
7636.7119 3.76738e-17
7637.9082 3.5032e-17
7639.1045 3.53352e-17
7640.3013 3.5242e-17
7641.4976 3.85819e-17
7642.6938 3.74512e-17
7643.8906 3.61027e-17
7645.0869 3.8793e-17
7646.2837 3.37507e-17
7647.48 3.7597e-17
7648.6768 3.95464e-17
7649.8735 3.78935e-17
7651.0698 3.86622e-17
7652.2666 4.07496e-17
7653.4634 3.72701e-17
7654.6597 3.70586e-17
7655.8564 3.6909e-17
7657.0532 3.75809e-17
7658.25 3.57119e-17
7659.4468 3.7983e-17
7660.6436 3.93252e-17
7661.8403 3.82655e-17
7663.0371 3.80605e-17
7664.2339 3.79575e-17
7665.4307 3.94597e-17
7666.6274 3.68633e-17
7667.8242 3.75248e-17
7669.021 3.92764e-17
7670.2178 3.83728e-17
7671.415 3.67437e-17
7672.6118 3.92774e-17
7673.8086 3.75997e-17
7675.0054 3.58193e-17
7676.2026 3.90696e-17
7677.3994 3.86279e-17
7678.5967 3.59969e-17
7679.7935 3.61141e-17
7680.9907 4.01945e-17
7682.1875 3.77735e-17
7683.3848 3.65775e-17
7684.582 3.75475e-17
7685.7788 3.5727e-17
7686.9761 3.52862e-17
7688.1733 3.88405e-17
7689.3701 3.89224e-17
7690.5674 3.97826e-17
7691.7646 3.57383e-17
7692.9619 3.98511e-17
7694.1587 3.8821e-17
7695.356 3.39225e-17
7696.5532 3.5181e-17
7697.7505 3.796e-17
7698.9478 3.33962e-17
7700.145 3.61833e-17
7701.3423 3.97595e-17
7702.54 3.67291e-17
7703.7373 3.58329e-17
7704.9346 3.67259e-17
7706.1318 3.68859e-17
7707.3291 3.87555e-17
7708.5264 3.88222e-17
7709.7241 3.82714e-17
7710.9214 3.57389e-17
7712.1191 3.87229e-17
7713.3164 3.87659e-17
7714.5137 3.48207e-17
7715.7114 3.42431e-17
7716.9087 3.72181e-17
7718.1064 3.82529e-17
7719.3037 3.43625e-17
7720.5015 3.64048e-17
7721.6987 3.38516e-17
7722.8965 3.69849e-17
7724.0942 3.70231e-17
7725.2915 3.53175e-17
7726.4893 3.59367e-17
7727.687 3.35881e-17
7736.0708 3.87184e-17
7737.2686 3.65895e-17
7738.4663 3.73491e-17
7739.6641 3.71745e-17
7740.8623 3.41359e-17
7742.0601 3.51724e-17
7743.2578 3.55639e-17
7744.4556 3.37819e-17
7745.6533 3.45043e-17
7746.8516 3.65525e-17
7748.0493 3.88397e-17
7749.2471 3.27283e-17
7750.4453 3.25947e-17
7751.6431 3.29942e-17
7752.8413 3.77063e-17
7754.0391 3.40193e-17
7755.2368 3.42926e-17
7756.4351 3.47271e-17
7757.6333 3.49271e-17
7758.8311 3.53578e-17
7760.0293 3.14068e-17
7761.2271 3.5609e-17
7762.4253 3.14936e-17
7763.6235 3.44551e-17
7764.8213 3.75292e-17
7766.0195 3.45068e-17
7767.2178 3.42828e-17
7768.416 3.34312e-17
7769.6143 3.48126e-17
7770.8125 3.25102e-17
7772.0107 3.40283e-17
7773.2085 3.10913e-17
7774.4067 3.49818e-17
7775.605 3.73437e-17
7776.8032 3.29764e-17
7778.0015 3.51067e-17
7779.2002 3.34167e-17
7780.3984 3.41522e-17
7781.5967 3.24955e-17
7782.7949 3.19975e-17
7783.9932 3.36117e-17
7785.1919 3.35896e-17
7786.3901 3.23897e-17
7787.5884 3.34761e-17
7788.7866 2.98357e-17
7789.9854 3.39374e-17
7791.1836 3.69513e-17
7792.3823 3.60797e-17
7793.5806 2.98792e-17
7794.7793 2.72795e-17
7795.9775 3.33101e-17
7797.1763 3.44885e-17
7798.3745 3.71069e-17
7799.5732 3.21254e-17
7800.7715 3.23429e-17
7801.9702 3.42675e-17
7803.1689 3.19513e-17
7804.3672 3.67124e-17
7805.5659 3.55026e-17
7806.7646 3.27988e-17
7807.9634 3.08005e-17
7809.1621 3.36876e-17
7810.3604 3.44955e-17
7811.5591 3.26664e-17
7812.7578 3.44303e-17
7813.9565 3.42681e-17
7815.1553 3.46866e-17
7816.354 2.79636e-17
7817.5527 2.91369e-17
7818.7515 3.59931e-17
7819.9502 3.51446e-17
7821.1489 2.91352e-17
7822.3477 3.47222e-17
7823.5469 2.98781e-17
7824.7456 3.34451e-17
7825.9443 3.33663e-17
7827.1431 3.15334e-17
7828.3423 3.16785e-17
7829.541 2.99403e-17
7830.7397 3.47053e-17
7831.939 3.11213e-17
7833.1377 3.10756e-17
7834.3364 3.00757e-17
7835.5356 3.06048e-17
7836.7344 3.31245e-17
7837.9336 2.85791e-17
7839.1323 2.97704e-17
7840.3315 3.32604e-17
7841.5303 3.55271e-17
7842.7295 3.37447e-17
7843.9287 3.30874e-17
7845.1274 3.05868e-17
7846.3267 3.23806e-17
7847.5259 3.42044e-17
7848.7251 3.09566e-17
7849.9238 3.12322e-17
7851.123 3.35363e-17
7852.3223 2.84771e-17
7853.5215 3.35663e-17
7854.7207 3.17318e-17
7855.9199 3.23598e-17
7857.1191 3.24738e-17
7858.3179 3.53391e-17
7859.5171 3.28854e-17
7860.7163 2.82475e-17
7861.916 3.20467e-17
7863.1152 3.01531e-17
7864.3145 2.86555e-17
7865.5137 3.30507e-17
7866.7129 3.30368e-17
7867.9121 3.3853e-17
7869.1113 3.14787e-17
7870.311 2.94185e-17
7871.5103 3.16102e-17
7872.7095 3.11305e-17
7873.9087 2.94373e-17
7875.1084 3.34429e-17
7876.3076 3.20171e-17
7877.5068 3.30444e-17
7878.7065 2.97112e-17
7879.9058 2.79606e-17
7881.1055 3.25987e-17
7882.3047 3.14483e-17
7883.5044 3.39732e-17
7884.7036 2.94135e-17
7885.9033 3.31179e-17
7887.1025 3.13676e-17
7888.3022 3.22438e-17
7889.502 3.07458e-17
7890.7012 3.02739e-17
7891.9009 2.98967e-17
7893.1006 3.56551e-17
7894.3003 3.11461e-17
7895.4995 3.08146e-17
7896.6992 3.17112e-17
7897.8989 3.09603e-17
7899.0986 3.22652e-17
7900.2983 2.95282e-17
7901.4976 3.21917e-17
7902.6973 3.31861e-17
7903.897 3.38496e-17
7905.0967 3.21445e-17
7906.2964 3.2436e-17
7907.4961 3.35666e-17
7908.6958 2.88239e-17
7909.8955 2.53683e-17
7911.0957 3.34389e-17
7912.2954 3.41729e-17
7913.4951 3.03768e-17
7914.6948 3.00258e-17
7915.8945 3.14685e-17
7917.0942 3.16333e-17
7918.2944 3.04999e-17
7919.4941 2.96467e-17
7920.6938 3.12691e-17
7921.894 2.93727e-17
7923.0938 3.21156e-17
7924.2935 3.22792e-17
7925.4937 3.30919e-17
7926.6934 3.24151e-17
7927.8931 3.046e-17
7929.0933 3.02903e-17
7930.293 3.3192e-17
7931.4932 3.33589e-17
7932.6929 3.36147e-17
7933.8931 3.26781e-17
7935.0933 3.15606e-17
7936.293 3.046e-17
7937.4932 2.99425e-17
7938.6929 3.39105e-17
7939.8931 2.93682e-17
7941.0933 3.25809e-17
7942.293 3.20288e-17
7943.4932 2.90202e-17
7944.6934 3.17297e-17
7945.8936 3.66471e-17
7947.0938 3.28086e-17
7948.2935 3.19277e-17
7949.4937 3.15416e-17
7950.6938 2.90085e-17
7951.894 2.75077e-17
7953.0942 3.11218e-17
7954.2944 3.48675e-17
7955.4946 3.15349e-17
7956.6948 2.85296e-17
7957.895 3.4099e-17
7959.0952 3.08882e-17
7960.2954 3.21915e-17
7961.4956 3.01096e-17
7962.6958 3.37902e-17
7963.8965 3.19078e-17
7965.0967 2.61264e-17
7966.2969 3.35812e-17
7967.4971 3.44938e-17
7968.6973 3.01143e-17
7969.8975 3.40466e-17
7971.0981 3.2609e-17
7972.2983 3.34459e-17
7973.499 3.39628e-17
7974.6992 3.35498e-17
7975.8994 3.25528e-17
7977.1001 3.17757e-17
7978.3003 3.58577e-17
7979.5005 3.07325e-17
7980.7012 3.10406e-17
7981.9014 3.00691e-17
7983.1021 3.15975e-17
7984.3022 3.12171e-17
7985.5029 3.40239e-17
7986.7031 3.21215e-17
7987.9038 3.50528e-17
7989.1045 3.13224e-17
7990.3047 3.05181e-17
7991.5054 3.45132e-17
7992.7061 3.37036e-17
7993.9062 3.4335e-17
7995.1069 3.43749e-17
7996.3076 3.17274e-17
7997.5078 3.12415e-17
7998.7085 3.16119e-17
7999.9092 3.09097e-17
8001.1099 3.25198e-17
8002.3105 3.26382e-17
8003.5112 3.30797e-17
8004.7119 3.16005e-17
8005.9121 2.99767e-17
8007.1128 2.86638e-17
8008.3135 3.57668e-17
8009.5142 3.08458e-17
8010.7148 3.03678e-17
8011.9155 3.27084e-17
8013.1162 3.36716e-17
8014.3169 2.91693e-17
8015.5176 3.04429e-17
8016.7183 3.06921e-17
8017.9194 2.97418e-17
8019.1201 3.06709e-17
8020.3208 3.40163e-17
8021.5215 3.28271e-17
8022.7222 3.38071e-17
8023.9233 3.62115e-17
8025.124 3.28899e-17
8026.3247 3.10098e-17
8027.5254 2.99362e-17
8028.7261 3.30541e-17
8029.9272 3.30156e-17
8031.1279 3.3149e-17
8032.3291 3.18532e-17
8033.5298 3.34852e-17
8034.7305 3.40265e-17
8035.9316 3.29922e-17
8037.1323 3.03025e-17
8038.3335 3.33376e-17
8039.5342 3.09734e-17
8040.7354 3.19342e-17
8041.936 3.12378e-17
8043.1372 3.21278e-17
8044.3379 3.04007e-17
8045.5391 3.24592e-17
8046.7397 3.30626e-17
8047.9409 3.32838e-17
8049.1421 2.94759e-17
8050.3428 2.86039e-17
8051.5439 3.06074e-17
8052.7451 3.38235e-17
8053.9458 3.60392e-17
8055.147 3.25986e-17
8056.3481 3.03816e-17
8057.5493 3.01324e-17
8058.75 3.02555e-17
8059.9512 3.04934e-17
8061.1523 3.3361e-17
8062.3535 3.28491e-17
8063.5547 2.96042e-17
8064.7559 3.01083e-17
8065.957 3.36866e-17
8067.1577 3.32817e-17
8068.3589 3.12093e-17
8069.5601 3.3463e-17
8070.7612 2.96797e-17
8071.9624 3.30737e-17
8073.1636 3.25886e-17
8074.3647 3.04474e-17
8075.5659 3.40783e-17
8076.7671 3.11939e-17
8077.9683 3.15991e-17
8079.1699 3.22502e-17
8080.3711 3.2566e-17
8081.5723 3.42665e-17
8082.7734 3.23028e-17
8083.9746 3.10711e-17
8085.1758 3.21759e-17
8086.3774 3.22109e-17
8087.5786 3.17233e-17
8088.7798 3.22773e-17
8089.981 2.99575e-17
8091.1826 3.07684e-17
8092.3838 2.97782e-17
8093.585 3.44196e-17
8094.7866 3.04504e-17
8095.9878 3.21921e-17
8097.189 3.17779e-17
8098.3906 3.06024e-17
8099.5918 3.31969e-17
8100.793 3.34916e-17
8101.9946 3.22607e-17
8103.1958 3.238e-17
8104.3975 2.91673e-17
8105.5986 3.02644e-17
8106.8003 2.9349e-17
8108.0015 3.41881e-17
8109.2031 3.35352e-17
8110.4048 3.18962e-17
8111.606 3.28322e-17
8112.8076 3.0185e-17
8114.0088 3.01567e-17
8115.2104 3.31124e-17
8116.4121 3.09931e-17
8117.6133 3.11033e-17
8118.8149 3.18631e-17
8120.0166 3.6336e-17
8121.2178 3.25272e-17
8122.4194 3.03005e-17
8123.6211 2.99429e-17
8124.8223 3.33266e-17
8126.0239 3.3592e-17
8127.2256 3.47316e-17
8128.4272 3.24351e-17
8129.6289 3.27776e-17
8130.8306 3.20809e-17
8132.0322 3.158e-17
8133.2334 3.18531e-17
8134.4351 3.30807e-17
8135.6367 3.21885e-17
8136.8384 3.40009e-17
8138.04 3.34882e-17
8139.2417 3.3355e-17
8140.4434 3.46883e-17
8141.645 3.45628e-17
8142.8467 3.42943e-17
8144.0483 3.38054e-17
8145.25 3.179e-17
8146.4517 3.06113e-17
8147.6533 3.39608e-17
8148.855 3.0672e-17
8150.0566 3.16595e-17
8151.2583 3.32557e-17
8152.46 3.11735e-17
8153.6621 3.28284e-17
8154.8638 3.4871e-17
8156.0654 3.21924e-17
8157.2671 3.5831e-17
8158.4688 2.94419e-17
8159.6709 3.12824e-17
8160.8726 3.29553e-17
8162.0742 3.26256e-17
8163.2759 2.96729e-17
8164.478 3.25584e-17
8165.6797 3.13666e-17
8166.8813 3.13624e-17
8168.083 3.26171e-17
8169.2852 3.39138e-17
8170.4868 3.1309e-17
8171.6885 3.07481e-17
8172.8906 3.25051e-17
8174.0923 3.12317e-17
8175.2944 3.38611e-17
8176.4961 3.18562e-17
8177.6982 3.49277e-17
8178.8999 3.22259e-17
8180.1016 3.37745e-17
8181.3037 3.2167e-17
8182.5054 3.09967e-17
8183.7075 3.20367e-17
8184.9092 3.01367e-17
8186.1113 3.20977e-17
8187.313 3.27474e-17
8188.5151 3.30977e-17
8189.7173 3.40362e-17
8190.9189 3.37619e-17
8192.1211 3.17061e-17
8193.3232 3.30308e-17
8194.5244 3.39285e-17
8195.7266 3.3025e-17
8196.9287 3.25315e-17
8198.1309 3.26855e-17
8199.333 3.74912e-17
8200.5352 3.16946e-17
8201.7373 3.44402e-17
8202.9385 3.30329e-17
8204.1406 3.11413e-17
8205.3428 3.15618e-17
8206.5449 3.3029e-17
8207.7471 3.32235e-17
8208.9492 3.13136e-17
8210.1514 3.07439e-17
8211.3535 3.2084e-17
8212.5557 3.35186e-17
8213.7568 3.59969e-17
8214.959 3.68178e-17
8216.1611 3.60248e-17
8217.3633 3.41627e-17
8218.5654 3.32061e-17
8219.7676 3.36671e-17
8220.9697 3.05691e-17
8222.1719 3.07849e-17
8223.374 2.90292e-17
8224.5762 3.29798e-17
8225.7783 3.25649e-17
8226.9805 2.98971e-17
8228.1826 2.9986e-17
8229.3848 2.94042e-17
8230.5869 3.17266e-17
8231.7891 3.20338e-17
8232.9912 2.94452e-17
8234.1934 3.21225e-17
8235.3955 3.20513e-17
8236.5977 3.35586e-17
8237.7998 3.53479e-17
8239.002 3.41632e-17
8240.2041 3.34388e-17
8241.4062 3.13589e-17
8242.6094 3.38761e-17
8243.8115 3.28683e-17
8245.0137 3.15684e-17
8246.2158 3.13302e-17
8247.418 3.1858e-17
8248.6201 3.49324e-17
8249.8223 3.46216e-17
8251.0244 3.11163e-17
8252.2266 3.33007e-17
8253.4287 3.29586e-17
8254.6309 3.14443e-17
8255.834 3.05911e-17
8257.0361 3.2226e-17
8258.2383 3.5128e-17
8259.4404 3.39669e-17
8260.6426 3.16406e-17
8261.8447 3.28697e-17
8263.0479 3.68113e-17
8264.25 3.45209e-17
8265.4521 3.11737e-17
8266.6543 3.10288e-17
8267.8564 3.43458e-17
8269.0586 3.44969e-17
8270.2617 3.3721e-17
8271.4639 3.21527e-17
8272.666 3.35204e-17
8273.8682 3.2414e-17
8275.0703 3.19101e-17
8276.2734 3.15748e-17
8277.4756 3.44115e-17
8278.6777 3.35219e-17
8279.8799 3.09573e-17
8281.083 3.43747e-17
8282.2852 3.26125e-17
8283.4873 3.32769e-17
8284.6895 3.17658e-17
8285.8926 3.51453e-17
8287.0947 3.25628e-17
8288.2969 3.46507e-17
8289.499 3.08253e-17
8290.7021 3.29533e-17
8291.9043 2.97322e-17
8293.1064 3.3252e-17
8294.3096 3.52167e-17
8295.5117 3.61945e-17
8296.7139 3.57974e-17
8297.917 3.81052e-17
8299.1191 3.18085e-17
8300.3213 3.24368e-17
8301.5244 3.71049e-17
8302.7266 3.69037e-17
8303.9287 3.09799e-17
8305.1318 3.44268e-17
8306.334 3.17836e-17
8307.5361 3.21694e-17
8308.7393 3.24766e-17
8309.9414 3.15597e-17
8311.1436 3.09961e-17
8312.3467 3.27248e-17
8313.5488 3.2337e-17
8314.752 3.15721e-17
8315.9541 3.43697e-17
8317.1562 3.07555e-17
8318.3594 3.56889e-17
8319.5615 3.15146e-17
8320.7637 3.36038e-17
8321.9668 3.53118e-17
8323.1689 3.09501e-17
8324.3721 2.96286e-17
8325.5742 3.28865e-17
8326.7773 3.41227e-17
8327.9795 3.59814e-17
8329.1816 3.21355e-17
8330.3848 3.44093e-17
8331.5869 3.05111e-17
8332.79 3.42733e-17
8333.9922 3.20575e-17
8335.1953 3.58228e-17
8336.3975 3.31838e-17
8337.6006 3.28237e-17
8338.8027 3.61031e-17
8340.0049 3.61534e-17
8341.208 2.99669e-17
8342.4102 3.43276e-17
8343.6133 2.96639e-17
8344.8154 3.31798e-17
8346.0186 3.40428e-17
8347.2207 3.09857e-17
8348.4238 3.01677e-17
8349.626 3.36364e-17
8350.8291 3.70391e-17
8352.0312 3.11021e-17
8353.2344 3.45327e-17
8354.4365 3.2486e-17
8355.6396 3.44612e-17
8356.8418 3.38147e-17
8358.0449 2.95067e-17
8359.2471 3.51281e-17
8360.4502 3.41484e-17
8361.6523 3.45848e-17
8362.8555 3.26122e-17
8364.0586 3.10993e-17
8365.2607 3.28216e-17
8366.4639 3.2091e-17
8367.666 3.21909e-17
8368.8691 3.17494e-17
8370.0713 3.13167e-17
8371.2744 3.15814e-17
8372.4766 3.0258e-17
8373.6797 3.50171e-17
8374.8828 3.23235e-17
8376.085 3.32154e-17
8377.2881 3.30001e-17
8378.4902 3.16097e-17
8379.6934 3.3247e-17
8380.8965 3.19025e-17
8382.0986 3.27957e-17
8383.3018 3.05602e-17
8384.5039 2.8363e-17
8385.707 3.25983e-17
8386.9102 3.32654e-17
8388.1123 2.96913e-17
8389.3154 2.78305e-17
8390.5176 2.9548e-17
8391.7207 3.1721e-17
8392.9238 3.36313e-17
8394.126 2.91411e-17
8395.3291 3.32834e-17
8396.5312 3.53833e-17
8397.7344 3.03252e-17
8398.9375 3.33678e-17
8400.1396 2.75008e-17
8401.3428 3.9323e-17
8402.5459 3.09858e-17
8403.748 2.86538e-17
8404.9512 2.81694e-17
8406.1533 3.08766e-17
8407.3564 3.21324e-17
8408.5596 3.0048e-17
8409.7617 2.95791e-17
8410.9648 3.17398e-17
8412.168 3.28782e-17
8413.3701 3.05747e-17
8414.5732 2.98129e-17
8415.7764 3.37213e-17
8416.9785 3.18633e-17
8418.1816 3.47396e-17
8419.3848 3.31527e-17
8420.5869 3.07463e-17
8421.79 3.16134e-17
8422.9932 2.79339e-17
8424.1963 3.16872e-17
8425.3984 3.28551e-17
8426.6016 2.92186e-17
8427.8047 3.33664e-17
8429.0068 3.54122e-17
8430.21 2.70173e-17
8431.4131 3.24996e-17
8432.6152 3.13397e-17
8433.8184 2.87171e-17
8435.0215 2.72869e-17
8436.2246 2.9088e-17
8437.4268 2.89477e-17
8438.6299 3.07276e-17
8439.833 3.08972e-17
8441.0352 2.94109e-17
8442.2383 2.82348e-17
8443.4414 2.82697e-17
8444.6445 2.76074e-17
8445.8467 2.7361e-17
8447.0498 2.89084e-17
8448.2529 2.99938e-17
8449.4551 2.95534e-17
8450.6582 2.98978e-17
8451.8613 2.71667e-17
8453.0645 2.67625e-17
8454.2666 2.79578e-17
8455.4697 2.61212e-17
8456.6729 2.52376e-17
8457.876 2.59341e-17
8459.0781 3.03986e-17
8460.2812 2.86815e-17
8461.4844 3.09102e-17
8462.6875 2.82608e-17
8463.8896 2.79268e-17
8465.0928 3.23042e-17
8466.2959 2.39393e-17
8467.499 3.18101e-17
8468.7012 2.87805e-17
8469.9043 2.44686e-17
8471.1074 2.4728e-17
8472.3105 2.56771e-17
8473.5127 3.20803e-17
8474.7158 2.92945e-17
8475.9189 2.84303e-17
8477.1221 2.64792e-17
8478.3242 2.54652e-17
8479.5273 2.76499e-17
8480.7305 2.61299e-17
8481.9336 2.90092e-17
8483.1367 2.79785e-17
8484.3389 2.72804e-17
8485.542 2.87134e-17
8486.7451 2.54232e-17
8487.9482 2.55297e-17
8489.1504 2.41808e-17
8490.3535 2.53452e-17
8491.5566 2.96417e-17
8492.7598 2.26863e-17
8493.9619 2.43025e-17
8495.165 2.14211e-17
8496.3682 2.51496e-17
8497.5713 2.43026e-17
8498.7744 2.45605e-17
8499.9766 2.87566e-17
8501.1797 2.36334e-17
8502.3828 2.91656e-17
8503.5859 2.65452e-17
8504.7891 2.33496e-17
8505.9912 2.48366e-17
8507.1943 2.68866e-17
8508.3975 2.23799e-17
8509.6006 2.62695e-17
8510.8037 2.5484e-17
8512.0059 2.71037e-17
8513.209 2.63808e-17
8514.4121 2.48383e-17
8515.6152 2.28401e-17
8516.8184 2.55958e-17
8518.0205 2.34251e-17
8519.2236 2.43051e-17
8520.4268 2.39879e-17
8521.6299 2.25142e-17
8522.832 2.42608e-17
8524.0352 2.38158e-17
8525.2383 2.7455e-17
8526.4414 2.19503e-17
8527.6445 2.35288e-17
8528.8477 2.23018e-17
8530.0498 2.41344e-17
8531.2529 2.44898e-17
8532.4561 2.57472e-17
8533.6592 2.08428e-17
8534.8613 2.13896e-17
8536.0645 2.42181e-17
8537.2676 2.22649e-17
8538.4707 2.42041e-17
8539.6738 2.2353e-17
8540.877 2.43862e-17
8542.0791 2.03705e-17
8543.2822 2.37219e-17
8544.4854 2.33759e-17
8545.6885 2.03829e-17
8546.8916 2.23044e-17
8548.0938 2.31203e-17
8549.2969 2.1334e-17
8550.5 2.42802e-17
8551.7031 2.05535e-17
8552.9062 2.14357e-17
8554.1084 2.22579e-17
8555.3115 2.27179e-17
8556.5146 2.13483e-17
8557.7178 2.20968e-17
8558.9209 2.32556e-17
8560.123 2.02235e-17
8561.3262 2.3107e-17
8562.5293 2.23914e-17
8563.7324 2.29914e-17
8564.9355 2.33885e-17
8566.1377 2.21468e-17
8567.3408 2.2788e-17
8568.5439 2.34722e-17
8569.7471 2.49065e-17
8570.9492 2.26205e-17
8572.1523 2.58634e-17
8573.3555 2.2831e-17
8574.5586 2.24695e-17
8575.7617 2.39485e-17
8576.9648 2.25009e-17
8578.167 2.23385e-17
8579.3701 2.34506e-17
8580.5732 2.30201e-17
8581.7764 2.16983e-17
8582.9785 2.19033e-17
8584.1816 2.16508e-17
8585.3848 2.32903e-17
8586.5879 2.11231e-17
8587.791 2.25636e-17
8588.9932 2.26318e-17
8590.1963 2.51066e-17
8591.3994 2.36232e-17
8592.6025 2.33552e-17
8593.8057 2.13447e-17
8595.0078 2.21833e-17
8596.2109 2.19155e-17
8597.4141 2.42207e-17
8598.6172 2.39005e-17
8599.8193 2.28964e-17
8601.0225 2.0262e-17
8602.2256 2.24127e-17
8603.4287 2.21774e-17
8604.6318 2.36188e-17
8605.834 2.18219e-17
8607.0371 2.25329e-17
8608.2402 2.25304e-17
8609.4434 2.21444e-17
8610.6455 2.08813e-17
8611.8486 2.23182e-17
8613.0518 2.08655e-17
8614.2549 2.46851e-17
8615.457 2.39121e-17
8616.6602 2.30448e-17
8617.8633 2.11393e-17
8619.0664 2.54305e-17
8620.2695 2.34769e-17
8621.4717 2.60334e-17
8622.6748 2.17179e-17
8623.8779 2.23466e-17
8625.0811 2.2537e-17
8626.2832 2.59645e-17
8627.4863 2.10945e-17
8628.6895 2.18315e-17
8629.8926 2.25947e-17
8631.0947 2.57377e-17
8632.2979 2.24427e-17
8633.501 2.36662e-17
8634.7031 2.60324e-17
8635.9062 2.43024e-17
8637.1094 2.30322e-17
8638.3125 2.15597e-17
8639.5146 2.32722e-17
8640.7178 2.21261e-17
8641.9209 2.22565e-17
8643.124 2.36491e-17
8644.3262 2.32732e-17
8645.5293 2.25698e-17
8646.7324 2.53002e-17
8647.9355 2.28673e-17
8649.1377 2.19864e-17
8650.3408 2.33161e-17
8651.5439 2.11552e-17
8652.7461 2.46436e-17
8653.9492 2.20666e-17
8655.1523 2.07614e-17
8656.3555 2.15559e-17
8657.5576 2.69535e-17
8658.7607 2.54348e-17
8659.9639 2.46106e-17
8661.166 2.07347e-17
8662.3691 2.58371e-17
8663.5723 2.52923e-17
8664.7744 2.17916e-17
8665.9775 2.64016e-17
8667.1807 2.4688e-17
8668.3828 2.43815e-17
8669.5859 2.63845e-17
8670.7891 2.22068e-17
8671.9922 2.26823e-17
8673.1943 2.6164e-17
8674.3975 2.39689e-17
8675.6006 2.41227e-17
8676.8027 2.4854e-17
8678.0059 2.22746e-17
8679.209 2.49826e-17
8680.4111 2.64858e-17
8681.6143 2.67e-17
8682.8174 2.49326e-17
8684.0195 2.29662e-17
8685.2227 2.25217e-17
8686.4248 2.16773e-17
8687.6279 2.76549e-17
8688.8311 2.24628e-17
8690.0332 2.60435e-17
8691.2363 2.38299e-17
8692.4395 2.44801e-17
8693.6416 2.52596e-17
8694.8447 2.47618e-17
8696.0479 2.61354e-17
8697.25 2.87147e-17
8698.4531 2.40827e-17
8699.6553 2.33653e-17
8700.8584 2.81738e-17
8702.0615 2.5731e-17
8703.2637 2.56226e-17
8704.4668 2.57329e-17
8705.6689 2.75165e-17
8706.8721 2.46875e-17
8708.0752 2.50553e-17
8709.2773 2.43197e-17
8710.4805 2.73475e-17
8711.6826 2.40368e-17
8712.8857 2.40534e-17
8714.0889 2.72866e-17
8715.291 2.68059e-17
8716.4941 2.63453e-17
8717.6963 2.72123e-17
8718.8994 2.41109e-17
8720.1016 2.7502e-17
8721.3047 2.52469e-17
8722.5068 2.72291e-17
8723.71 2.62019e-17
8724.9131 2.705e-17
8726.1152 2.62774e-17
8727.3184 2.55246e-17
8728.5205 2.7095e-17
8729.7236 2.75393e-17
8730.9258 2.59383e-17
8732.1289 2.57495e-17
8733.3311 2.73879e-17
8734.5342 2.6973e-17
8735.7363 2.88648e-17
8736.9395 2.65425e-17
8738.1426 2.31174e-17
8739.3447 2.56286e-17
8740.5479 2.74289e-17
8741.75 2.3879e-17
8742.9531 2.78393e-17
8744.1553 2.75628e-17
8745.3574 2.47041e-17
8746.5605 2.76704e-17
8747.7637 2.67464e-17
8748.9658 2.52198e-17
8750.168 2.79144e-17
8751.3711 2.64131e-17
8752.5732 3.07105e-17
8753.7764 2.84554e-17
8754.9785 2.67547e-17
8756.1816 2.84283e-17
8757.3838 2.42251e-17
8758.5869 2.87366e-17
8759.7891 2.89062e-17
8760.9922 3.32196e-17
8762.1943 3.43512e-17
8763.3965 1.8791e-17
8764.5996 2.76687e-17
8765.8018 2.6929e-17
8767.0049 2.77864e-17
8768.207 3.05981e-17
8769.4102 2.7205e-17
8770.6123 2.98884e-17
8771.8145 2.44816e-17
8773.0176 2.62588e-17
8774.2197 2.60951e-17
8775.4229 2.22165e-17
8776.625 2.68796e-17
8777.8271 2.74546e-17
8779.0303 2.60588e-17
8780.2324 2.2275e-17
8781.4355 2.35445e-17
8782.6377 2.60969e-17
8783.8398 2.72567e-17
8785.043 2.80305e-17
8786.2451 2.93879e-17
8787.4473 2.78934e-17
8788.6504 2.77759e-17
8789.8525 2.55774e-17
8791.0547 2.90342e-17
8792.2578 2.61425e-17
8793.46 2.95692e-17
8794.6621 3.37334e-17
8795.8652 3.00764e-17
8797.0674 3.15128e-17
8798.2695 2.75702e-17
8799.4727 2.99514e-17
8800.6748 2.73426e-17
8801.877 2.6157e-17
8803.0801 2.7678e-17
8804.2822 3.09911e-17
8805.4844 2.90371e-17
8806.6865 3.09127e-17
8807.8896 2.8941e-17
8809.0918 3.03646e-17
8810.2939 2.89927e-17
8811.4961 3.03565e-17
8812.6992 2.83682e-17
8813.9014 3.25073e-17
8815.1035 3.10276e-17
8816.3057 3.17961e-17
8817.5088 2.94518e-17
8818.7109 3.15459e-17
8819.9131 3.04906e-17
8821.1152 2.91404e-17
8822.3184 3.21122e-17
8823.5205 2.44443e-17
8824.7227 2.55594e-17
8825.9248 4.05306e-17
8827.127 3.01796e-17
8828.3301 3.52955e-17
8829.5322 3.67465e-17
8830.7344 2.66933e-17
8831.9365 3.16553e-17
8833.1387 3.2275e-17
8834.3408 3.07534e-17
8835.5439 2.78225e-17
8836.7461 3.33338e-17
8837.9482 3.55849e-17
8839.1504 2.81734e-17
8840.3525 3.32897e-17
8841.5547 3.09199e-17
8842.7568 3.2211e-17
8843.96 2.99671e-17
8845.1621 3.28632e-17
8846.3643 3.09301e-17
8847.5664 3.38869e-17
8848.7686 3.25329e-17
8849.9707 2.97495e-17
8851.1729 3.26284e-17
8852.375 3.18714e-17
8853.5771 3.08545e-17
8854.7793 3.21987e-17
8855.9814 3.20328e-17
8857.1846 3.25898e-17
8858.3867 3.31482e-17
8859.5889 3.42752e-17
8860.791 3.42733e-17
8861.9932 3.32318e-17
8863.1953 3.2668e-17
8864.3975 3.31737e-17
8865.5996 3.32602e-17
8866.8018 3.76702e-17
8868.0039 3.37742e-17
8869.2061 5.07471e-17
8870.4082 3.46211e-17
8871.6104 3.02346e-17
8872.8125 3.45145e-17
8874.0146 3.29555e-17
8875.2168 3.35008e-17
8876.4189 3.29356e-17
8877.6211 3.30457e-17
8878.8232 3.31996e-17
8880.0254 3.06473e-17
8881.2275 3.39873e-17
8882.4297 3.46354e-17
8883.6309 3.26201e-17
8884.833 3.46068e-17
8886.0352 3.12797e-17
8887.2373 3.78403e-17
8888.4395 2.57225e-17
8889.6416 3.32144e-17
8890.8438 3.13624e-17
8892.0459 3.33685e-17
8893.248 3.34425e-17
8894.4502 3.24915e-17
8895.6514 3.28121e-17
8896.8535 3.55574e-17
8898.0557 3.37371e-17
8899.2578 3.41845e-17
8900.46 3.64891e-17
8901.6621 3.17414e-17
8902.8643 3.5737e-17
8904.0654 3.52774e-17
8905.2676 3.5052e-17
8906.4697 3.51121e-17
8907.6719 3.14994e-17
8908.874 2.98008e-17
8910.0762 3.44219e-17
8911.2773 3.28002e-17
8912.4795 3.46344e-17
8913.6816 3.43588e-17
8914.8838 3.0761e-17
8916.085 3.42954e-17
8917.2871 3.57303e-17
8918.4893 3.78803e-17
8919.6914 3.56702e-17
8920.8926 2.76525e-17
8922.0947 4.20934e-17
8923.2969 3.19223e-17
8924.499 3.06663e-17
8925.7002 3.22259e-17
8926.9023 3.51461e-17
8928.1045 3.29023e-17
8929.3057 3.04968e-17
8930.5078 3.03741e-17
8931.71 3.42956e-17
8932.9111 3.37417e-17
8934.1133 3.27926e-17
8935.3154 3.60068e-17
8936.5166 3.52084e-17
8937.7188 3.27704e-17
8938.9209 3.30441e-17
8940.1221 3.51533e-17
8941.3242 3.25618e-17
8942.5264 3.71331e-17
8943.7275 3.38412e-17
8944.9297 3.48003e-17
8946.1309 3.54796e-17
8947.333 3.38665e-17
8948.5342 3.44342e-17
8949.7363 3.25943e-17
8950.9385 3.4521e-17
8952.1396 3.3268e-17
8953.3418 3.21198e-17
8954.543 3.26689e-17
8955.7451 3.20858e-17
8956.9463 3.36527e-17
8958.1484 3.81823e-17
8959.3496 3.23635e-17
8960.5518 2.90077e-17
8961.7529 3.72541e-17
8962.9551 3.01343e-17
8964.1562 3.04443e-17
8965.3584 3.30092e-17
8966.5596 3.62736e-17
8967.7617 3.16068e-17
8968.9629 3.38663e-17
8970.165 3.44763e-17
8971.3662 3.19339e-17
8972.5684 3.31442e-17
8973.7695 3.33253e-17
8974.9707 3.14732e-17
8976.1729 3.36555e-17
8977.374 3.37689e-17
8978.5762 3.51957e-17
8979.7773 3.52175e-17
8980.9785 3.31224e-17
8982.1807 3.18588e-17
8983.3818 3.31451e-17
8984.583 3.3646e-17
8985.7852 3.63304e-17
8986.9863 3.20568e-17
8988.1885 3.31734e-17
8989.3896 3.37214e-17
8990.5908 3.57336e-17
8991.792 3.18574e-17
8992.9941 3.0975e-17
8994.1953 3.23895e-17
8995.3965 3.30718e-17
8996.5986 2.91447e-17
8997.7998 3.41292e-17
8999.001 3.88978e-17
9000.2021 4.19224e-17
9001.4043 3.37294e-17
9002.6055 3.17614e-17
9003.8066 2.82176e-17
9005.0078 3.31864e-17
9006.21 2.94468e-17
9007.4111 3.28047e-17
9008.6123 3.1118e-17
9009.8135 3.32398e-17
9011.0146 3.12937e-17
9012.2158 3.31788e-17
9013.418 3.25292e-17
9014.6191 3.19876e-17
9015.8203 3.2779e-17
9017.0215 3.35113e-17
9018.2227 3.26511e-17
9019.4238 3.31282e-17
9020.626 3.32116e-17
9021.8271 3.54261e-17
9023.0283 3.37836e-17
9024.2295 2.99525e-17
9025.4307 3.43001e-17
9026.6318 3.31425e-17
9027.833 3.13528e-17
9029.0342 3.22997e-17
9030.2354 3.15212e-17
9031.4365 3.38495e-17
9032.6377 3.1873e-17
9033.8389 3.0778e-17
9035.04 3.44021e-17
9036.2412 3.11829e-17
9037.4424 3.25531e-17
9038.6436 2.91422e-17
9039.8447 3.19792e-17
9041.0459 3.07016e-17
9042.2471 3.22789e-17
9043.4482 3.10562e-17
9044.6494 3.16276e-17
9045.8506 3.02818e-17
9047.0518 3.04478e-17
9048.2529 3.29635e-17
9049.4541 3.09642e-17
9050.6553 3.22085e-17
9051.8564 3.16585e-17
9053.0576 3.10175e-17
9054.2578 3.11918e-17
9055.459 3.17286e-17
9056.6602 3.29806e-17
9057.8613 3.00057e-17
9059.0625 3.01647e-17
9060.2637 2.97524e-17
9061.4648 3.17904e-17
9062.665 2.77674e-17
9063.8662 3.23894e-17
9065.0674 2.93952e-17
9066.2686 3.24262e-17
9067.4697 3.24322e-17
9068.6699 3.05917e-17
9069.8711 3.08154e-17
9071.0723 2.78846e-17
9072.2734 3.21623e-17
9073.4736 3.02236e-17
9074.6748 2.7516e-17
9075.876 2.72293e-17
9077.0771 3.01078e-17
9078.2773 3.057e-17
9079.4785 3.21499e-17
9080.6797 3.17007e-17
9081.8799 3.23572e-17
9083.0811 3.02945e-17
9084.2822 2.93999e-17
9085.4824 2.83784e-17
9086.6836 2.89905e-17
9087.8848 2.8918e-17
9089.085 3.10119e-17
9090.2861 3.1798e-17
9091.4863 2.94944e-17
9092.6875 2.92215e-17
9093.8887 2.71984e-17
9095.0889 2.63696e-17
9096.29 2.61586e-17
9097.4902 3.09244e-17
9098.6914 2.88704e-17
9099.8916 2.95763e-17
9101.0928 2.66871e-17
9102.293 2.63653e-17
9103.4941 3.00573e-17
9104.6943 2.94952e-17
9105.8955 2.93087e-17
9107.0957 2.82717e-17
9108.2969 2.86758e-17
9109.4971 3.0092e-17
9110.6982 2.76896e-17
9111.8984 2.96632e-17
9113.0996 2.94459e-17
9114.2998 2.68647e-17
9115.5 2.81664e-17
9116.7012 3.16005e-17
9117.9014 2.82093e-17
9119.1025 2.9783e-17
9120.3027 2.93502e-17
9121.5029 2.78234e-17
9122.7041 2.73229e-17
9123.9043 2.55942e-17
9125.1045 2.88969e-17
9126.3057 2.73283e-17
9127.5059 2.80053e-17
9128.7061 2.81893e-17
9129.9072 2.6153e-17
9131.1074 3.01358e-17
9132.3076 2.63033e-17
9133.5078 2.753e-17
9134.709 2.45771e-17
9135.9092 2.61273e-17
9137.1094 2.54642e-17
9138.3096 2.5561e-17
9139.5107 2.47095e-17
9140.7109 2.82145e-17
9141.9111 2.6527e-17
9143.1113 2.80097e-17
9144.3115 2.46327e-17
9145.5117 2.9994e-17
9146.7129 2.52019e-17
9147.9131 2.78262e-17
9149.1133 2.65523e-17
9150.3135 2.60043e-17
9151.5137 2.50789e-17
9152.7139 2.65378e-17
9153.9141 2.89799e-17
9155.1143 2.50541e-17
9156.3145 2.69315e-17
9157.5156 2.79589e-17
9158.7158 2.60053e-17
9159.916 2.56768e-17
9161.1162 2.59617e-17
9162.3164 2.57823e-17
9163.5166 2.50343e-17
9164.7168 2.63782e-17
9165.917 2.6809e-17
9167.1172 2.51786e-17
9168.3174 2.72939e-17
9169.5176 2.72821e-17
9170.7178 2.54925e-17
9171.918 2.70839e-17
9173.1172 2.84719e-17
9174.3174 2.48673e-17
9175.5176 2.68857e-17
9176.7178 2.39165e-17
9177.918 2.51454e-17
9179.1182 2.36931e-17
9180.3184 2.35474e-17
9181.5186 2.41769e-17
9182.7178 2.52177e-17
9183.918 2.63956e-17
9185.1182 2.29843e-17
9186.3184 2.37344e-17
9187.5186 2.29032e-17
9188.7188 2.59125e-17
9189.918 2.40147e-17
9191.1182 2.47548e-17
9192.3184 2.31212e-17
9193.5186 2.52535e-17
9194.7178 2.45049e-17
9195.918 2.56021e-17
9197.1182 2.14132e-17
9198.3174 2.37787e-17
9199.5176 2.51295e-17
9200.7178 2.43767e-17
9201.918 2.64048e-17
9203.1172 2.48275e-17
9204.3174 2.71168e-17
9205.5166 2.20081e-17
9206.7168 2.27224e-17
9207.917 2.55321e-17
9209.1162 2.42973e-17
9210.3164 2.29432e-17
9211.5156 2.57172e-17
9212.7158 2.41078e-17
9213.916 2.3092e-17
9215.1152 2.46371e-17
9216.3154 2.44136e-17
9217.5146 2.33498e-17
9218.7148 2.1798e-17
9219.9141 2.47136e-17
9221.1143 2.60306e-17
9222.3135 2.3918e-17
9223.5137 2.3152e-17
9224.7129 2.22087e-17
9225.9131 2.55087e-17
9227.1123 2.18356e-17
9228.3115 2.13666e-17
9229.5117 2.24726e-17
9230.7109 2.45341e-17
9231.9111 2.31294e-17
9233.1104 1.97398e-17
9234.3096 2.39401e-17
9235.5098 2.17384e-17
9236.709 2.21613e-17
9237.9082 2.11087e-17
9239.1084 2.293e-17
9240.3076 1.89439e-17
9241.5068 2.31302e-17
9242.707 2.32781e-17
9243.9062 2.3137e-17
9245.1055 2.26862e-17
9246.3047 2.18156e-17
9247.5049 2.08216e-17
9248.7041 2.24934e-17
9249.9033 2.42096e-17
9251.1025 2.092e-17
9252.3027 2.17779e-17
9253.502 2.70667e-17
9254.7012 2.00312e-17
9255.9004 2.26474e-17
9257.0996 2.14733e-17
9258.2988 2.12422e-17
9259.498 2.11641e-17
9260.6982 2.15392e-17
9261.8975 2.12487e-17
9263.0967 2.2211e-17
9264.2959 2.10904e-17
9265.4951 2.26852e-17
9266.6943 1.95299e-17
9267.8936 1.952e-17
9269.0928 2.02122e-17
9270.292 2.27495e-17
9271.4912 2.30584e-17
9272.6904 2.18244e-17
9273.8896 1.92158e-17
9275.0889 2.08598e-17
9276.2881 2.12168e-17
9277.4873 2.28516e-17
9278.6865 1.90624e-17
9279.8857 1.88726e-17
9281.085 2.14277e-17
9282.2842 2.40828e-17
9283.4834 2.07923e-17
9284.6816 2.23831e-17
9285.8809 2.2058e-17
9287.0801 2.19957e-17
9288.2793 1.76294e-17
9289.4785 2.07449e-17
9290.6777 2.00774e-17
9291.876 2.01032e-17
9293.0752 2.08265e-17
9294.2744 1.97597e-17
9295.4736 2.20066e-17
9296.6729 1.92469e-17
9297.8711 2.05701e-17
9299.0703 2.02557e-17
9300.2695 2.05596e-17
9301.4678 1.96284e-17
9302.667 1.96902e-17
9303.8662 2.36551e-17
9305.0645 2.14172e-17
9306.2637 1.78524e-17
9307.4629 2.4338e-17
9308.6611 2.66247e-17
9309.8604 1.89638e-17
9311.0596 2.36303e-17
9312.2578 1.69428e-17
9313.457 1.71089e-17
9314.6553 1.69414e-17
9315.8545 2.64739e-17
9317.0527 1.25067e-17
9318.252 2.14667e-17
9319.4512 1.72966e-17
9320.6494 1.22059e-17
9321.8486 3.10322e-17
9323.0469 1.57825e-17
9324.2451 2.35832e-17
9325.4443 1.66489e-17
9326.6426 1.94237e-17
9327.8418 1.7099e-17
9329.04 1.8633e-17
9330.2393 1.88784e-17
9331.4375 1.83895e-17
9332.6357 1.96237e-17
9333.835 1.96689e-17
9335.0332 1.99731e-17
9336.2324 1.70622e-17
9337.4307 1.61055e-17
9338.6289 2.38279e-17
9339.8271 1.91471e-17
9341.0264 2.09371e-17
9342.2246 1.54501e-17
9343.4229 1.92456e-17
9344.6221 1.86385e-17
9345.8203 1.82456e-17
9347.0186 1.42555e-17
9348.2168 1.38845e-17
9349.415 1.5992e-17
9350.6143 1.86611e-17
9351.8125 1.74434e-17
9353.0107 1.99747e-17
9354.209 2.00786e-17
9355.4072 1.92036e-17
9356.6055 1.90696e-17
9357.8047 1.85369e-17
9359.0029 1.66949e-17
9360.2012 1.69986e-17
9361.3994 1.78585e-17
9362.5977 1.70383e-17
9363.7959 1.74305e-17
9364.9941 2.11688e-17
9366.1924 1.86773e-17
9367.3906 1.89603e-17
9368.5889 2.00156e-17
9369.7871 1.71751e-17
9370.9854 1.62646e-17
9372.1836 8.76691e-18
9373.3818 2.678e-17
9374.5801 2.60386e-17
9375.7783 2.52349e-17
9376.9766 2.62178e-17
9378.1738 2.86798e-17
9379.3721 1.51159e-17
9380.5703 1.31004e-17
9381.7686 1.54912e-17
9382.9668 1.81289e-17
9384.165 2.15395e-17
9385.3633 1.5564e-17
9386.5605 1.71191e-17
9387.7588 1.77029e-17
9388.957 1.8445e-17
9390.1553 1.6087e-17
9391.3525 1.70868e-17
9392.5508 1.82499e-17
9393.749 2.01725e-17
9394.9473 1.75062e-17
9396.1445 1.77168e-17
9397.3428 2.02239e-17
9398.541 1.97623e-17
9399.7383 2.28262e-17
9400.9365 1.75579e-17
9402.1348 1.90104e-17
9403.332 1.6487e-17
9404.5303 2.32765e-17
9405.7275 1.73747e-17
9406.9258 1.69354e-17
9408.123 1.87862e-17
9409.3213 1.93697e-17
9410.5186 2.00647e-17
9411.7168 1.80026e-17
9412.915 1.74896e-17
9414.1123 2.05943e-17
9415.3096 1.88588e-17
9416.5078 1.91209e-17
9417.7051 2.04668e-17
9418.9033 2.28195e-17
9420.1006 2.39126e-17
9421.2988 1.6881e-17
9422.4961 2.2949e-17
9423.6934 2.19914e-17
9424.8916 1.72191e-17
9426.0889 2.3438e-17
9427.2861 1.96674e-17
9428.4844 2.22406e-17
9429.6816 1.85138e-17
9430.8789 1.93017e-17
9432.0771 2.00845e-17
9433.2744 2.10024e-17
9434.4717 1.92705e-17
9435.6689 2.09742e-17
9436.8672 2.72939e-17
9438.0645 2.41923e-17
9439.2617 2.65798e-17
9440.459 2.03131e-17
9441.6562 2.50724e-17
9442.8535 1.75858e-17
9444.0518 2.11985e-17
9445.249 1.87074e-17
9446.4463 1.89608e-17
9447.6436 2.02655e-17
9448.8408 2.28706e-17
9450.0381 2.16274e-17
9451.2354 2.12389e-17
9452.4326 2.28213e-17
9453.6299 2.03864e-17
9454.8271 2.39731e-17
9456.0244 2.08552e-17
9457.2217 2.1994e-17
9458.4189 2.0001e-17
9459.6162 1.68444e-17
9460.8135 2.59543e-17
9462.0107 2.28506e-17
9463.208 2.05448e-17
9464.4053 2.06797e-17
9465.6025 2.24123e-17
9466.7998 2.22382e-17
9467.9971 2.10981e-17
9469.1934 1.81462e-17
9470.3906 1.91092e-17
9471.5879 2.37667e-17
9472.7852 2.04211e-17
9473.9824 2.33788e-17
9475.1787 2.21865e-17
9476.376 2.0017e-17
9477.5732 1.52984e-17
9478.7705 1.74273e-17
9479.9668 8.87036e-18
9481.1641 2.36815e-17
9482.3613 1.92932e-17
9483.5576 1.8801e-17
9484.7549 1.83316e-17
9485.9521 2.03241e-17
9487.1484 2.22564e-17
9488.3457 2.3733e-17
9489.542 2.33578e-17
9490.7393 2.09789e-17
9491.9365 2.26752e-17
9493.1328 2.11758e-17
9494.3301 2.31393e-17
9495.5264 2.34277e-17
9496.7236 1.93082e-17
9497.9199 2.23258e-17
9499.1172 2.84752e-17
9500.3135 2.44511e-17
9501.5107 2.2386e-17
9502.707 1.78595e-17
9503.9033 3.15308e-17
9505.1006 2.58366e-17
9506.2969 1.8827e-17
9507.4941 2.24304e-17
9508.6904 2.33092e-17
9509.8867 2.41004e-17
9511.084 2.41086e-17
9512.2803 2.38474e-17
9513.4766 2.18881e-17
9514.6729 1.96112e-17
9515.8701 1.94613e-17
9517.0664 2.30841e-17
9518.2627 1.23088e-17
9519.46 2.21672e-17
9520.6562 2.45693e-17
9521.8525 2.20001e-17
9523.0488 2.9339e-17
9524.2451 2.05706e-17
9525.4414 2.21748e-17
9526.6387 2.5242e-17
9527.835 1.93252e-17
9529.0312 2.2299e-17
9530.2275 2.18004e-17
9531.4238 2.414e-17
9532.6201 2.51095e-17
9533.8164 2.18408e-17
9535.0127 2.38885e-17
9536.209 2.28214e-17
9537.4053 2.26939e-17
9538.6016 2.53712e-17
9539.7979 2.4702e-17
9540.9941 2.31887e-17
9542.1904 2.13205e-17
9543.3867 2.40685e-17
9544.583 2.37984e-17
9545.7793 2.23751e-17
9546.9756 2.62317e-17
9548.1709 2.31523e-17
9549.3672 2.83208e-17
9550.5635 2.63672e-17
9551.7598 2.46571e-17
9552.9561 2.48264e-17
9554.1514 2.72886e-17
9555.3477 2.59907e-17
9556.5439 2.12163e-17
9557.7402 2.3078e-17
9558.9355 2.35235e-17
9560.1318 2.14438e-17
9561.3281 2.3462e-17
9562.5234 2.11194e-17
9563.7197 2.6018e-17
9564.916 3.55748e-17
9566.1113 2.69269e-17
9567.3076 2.51659e-17
9568.5039 2.79387e-17
9569.6992 2.98652e-17
9570.8955 2.24022e-17
9572.0908 2.27478e-17
9573.2871 2.4905e-17
9574.4824 2.27268e-17
9575.6787 2.36656e-17
9576.874 2.49765e-17
9578.0703 2.32121e-17
9579.2656 2.84825e-17
9580.4619 2.33739e-17
9581.6572 2.59951e-17
9582.8535 2.40878e-17
9584.0488 2.44721e-17
9585.2441 2.69868e-17
9586.4404 2.63981e-17
9587.6357 2.55607e-17
9588.8311 2.63555e-17
9590.0273 2.82066e-17
9591.2227 2.76583e-17
9592.418 2.599e-17
9593.6143 2.33667e-17
9594.8096 2.19731e-17
9596.0049 2.26719e-17
9597.2002 2.6015e-17
9598.3965 2.78696e-17
9599.5918 2.64821e-17
9600.7871 2.75474e-17
9601.9824 2.53755e-17
9603.1777 2.73287e-17
9604.373 2.58357e-17
9605.5684 2.96618e-17
9606.7646 2.54768e-17
9607.96 2.46029e-17
9609.1553 2.90103e-17
9610.3506 2.59035e-17
9611.5459 2.61956e-17
9612.7412 2.58568e-17
9613.9365 2.66883e-17
9615.1318 2.44894e-17
9616.3271 2.53885e-17
9617.5225 2.41324e-17
9618.7178 2.42595e-17
9619.9131 2.63603e-17
9621.1074 2.79297e-17
9622.3027 2.55731e-17
9623.498 2.27993e-17
9624.6934 2.4219e-17
9625.8887 2.26205e-17
9627.084 2.62197e-17
9628.2793 2.59163e-17
9629.4736 2.72572e-17
9630.6689 3.1019e-17
9631.8643 2.70536e-17
9633.0596 2.63916e-17
9634.2539 2.77514e-17
9635.4492 2.59792e-17
9636.6445 2.78253e-17
9637.8389 2.4368e-17
9639.0342 2.66338e-17
9640.2295 2.81718e-17
9641.4238 2.38682e-17
9642.6191 2.59991e-17
9643.8145 2.61947e-17
9645.0088 2.97837e-17
9646.2041 2.77021e-17
9647.3984 2.60327e-17
9648.5938 2.56981e-17
9649.7881 2.6322e-17
9650.9834 2.55607e-17
9652.1777 2.62439e-17
9653.373 2.70904e-17
9654.5674 2.73276e-17
9655.7627 2.85266e-17
9656.957 2.52905e-17
9658.1514 2.80881e-17
9659.3467 2.81551e-17
9660.541 2.49355e-17
9661.7354 2.48646e-17
9662.9307 2.46049e-17
9664.125 2.63385e-17
9665.3193 2.87139e-17
9666.5146 2.70959e-17
9667.709 2.46566e-17
9668.9033 2.52879e-17
9670.0977 2.38076e-17
9671.293 2.78621e-17
9672.4873 2.34667e-17
9673.6816 3.09553e-17
9674.876 2.77422e-17
9676.0703 2.57527e-17
9677.2646 2.70598e-17
9678.46 2.7804e-17
9679.6543 2.68465e-17
9680.8486 2.93541e-17
9682.043 2.84588e-17
9683.2373 2.5123e-17
9684.4316 3.31954e-17
9685.626 2.46263e-17
9686.8203 2.85846e-17
9688.0146 2.76809e-17
9689.209 2.95103e-17
9690.4033 2.33407e-17
9691.5977 2.27689e-17
9692.792 2.58773e-17
9693.9863 2.96089e-17
9695.1797 2.79362e-17
9696.374 2.68235e-17
9697.5684 2.49479e-17
9698.7627 2.862e-17
9699.957 2.8522e-17
9701.1514 2.25374e-17
9702.3447 2.70496e-17
9703.5391 2.48751e-17
9704.7334 2.42496e-17
9705.9277 2.39697e-17
9707.1211 2.70657e-17
9708.3154 2.74161e-17
9709.5098 2.75808e-17
9710.7031 3.01755e-17
9711.8975 2.80573e-17
9713.0908 2.98205e-17
9714.2852 2.76513e-17
9715.4795 3.0252e-17
9716.6729 2.50794e-17
9717.8672 2.66871e-17
9719.0605 3.02635e-17
9720.2549 3.42474e-17
9721.4482 2.71188e-17
9722.6426 2.43273e-17
9723.8359 2.77664e-17
9725.0303 2.6343e-17
9726.2236 2.51259e-17
9727.418 2.68522e-17
9728.6113 2.70754e-17
9729.8047 2.92569e-17
9730.999 2.90636e-17
9732.1924 2.65356e-17
9733.3857 2.83131e-17
9734.5801 2.66797e-17
9735.7734 2.96949e-17
9736.9668 2.54137e-17
9738.1611 3.109e-17
9739.3545 2.48974e-17
9740.5479 2.30048e-17
9741.7412 2.56164e-17
9742.9346 2.67092e-17
9744.1289 2.41632e-17
9745.3223 2.70062e-17
9746.5156 3.00097e-17
9747.709 2.84348e-17
9748.9023 2.58655e-17
9750.0957 2.92269e-17
9751.2891 2.62905e-17
9752.4824 2.70202e-17
9753.6758 2.58913e-17
9754.8691 2.56315e-17
9756.0625 2.87597e-17
9757.2559 2.89155e-17
9758.4492 2.81746e-17
9759.6426 2.69892e-17
9760.8359 2.73441e-17
9762.0293 2.82292e-17
9763.2227 2.9388e-17
9764.416 2.7251e-17
9765.6094 2.83893e-17
9766.8027 2.83801e-17
9767.9951 2.63722e-17
9769.1885 2.9395e-17
9770.3818 2.64603e-17
9771.5752 2.84986e-17
9772.7676 3.34351e-17
9773.9609 2.60702e-17
9775.1543 2.64084e-17
9776.3477 3.23312e-17
9777.54 2.90315e-17
9778.7334 2.8236e-17
9779.9268 2.92808e-17
9781.1191 2.73756e-17
9782.3125 2.73595e-17
9783.5049 2.62113e-17
9784.6982 2.62604e-17
9785.8906 2.53773e-17
9787.084 3.35439e-17
9788.2773 3.36276e-17
9789.4697 2.64118e-17
9790.6631 3.16512e-17
9791.8555 1.95156e-17
9793.0479 3.4668e-17
9794.2412 2.25222e-17
9795.4336 2.68064e-17
9796.627 3.40592e-17
9797.8193 3.12658e-17
9799.0117 3.12727e-17
9800.2051 2.74545e-17
9801.3975 2.50997e-17
9802.5898 3.10565e-17
9803.7832 2.92432e-17
9804.9756 2.85806e-17
9806.168 2.83092e-17
9807.3604 2.7615e-17
9808.5537 3.04412e-17
9809.7461 2.39654e-17
9810.9385 2.78324e-17
9812.1309 2.77818e-17
9813.3232 2.77249e-17
9814.5156 3.02615e-17
9815.708 2.80006e-17
9816.9014 2.5671e-17
9818.0938 2.51272e-17
9819.2861 2.67287e-17
9820.4785 2.8711e-17
9821.6709 2.41171e-17
9822.8633 2.81604e-17
9824.0557 2.93994e-17
9825.248 2.94443e-17
9826.4395 2.82824e-17
9827.6318 2.56508e-17
9828.8242 2.40562e-17
9830.0166 2.92248e-17
9831.209 2.63511e-17
9832.4014 2.74156e-17
9833.5938 2.82571e-17
9834.7852 2.57206e-17
9835.9775 2.81823e-17
9837.1699 2.72817e-17
9838.3623 2.75661e-17
9839.5547 2.40913e-17
9840.7461 2.66318e-17
9841.9385 2.98596e-17
9843.1309 2.71006e-17
9844.3223 2.80892e-17
9845.5146 2.79601e-17
9846.7061 2.7312e-17
9847.8984 2.83774e-17
9849.0908 2.59511e-17
9850.2822 2.58527e-17
9851.4746 2.71931e-17
9852.666 2.61406e-17
9853.8584 2.82416e-17
9855.0498 2.95942e-17
9856.2422 2.81407e-17
9857.4336 2.77586e-17
9858.626 2.75588e-17
9859.8174 2.83831e-17
9861.0088 2.67258e-17
9862.2012 2.96706e-17
9863.3926 3.03146e-17
9864.585 2.93706e-17
9865.7764 2.50222e-17
9866.9678 2.71242e-17
9868.1592 2.90923e-17
9869.3516 3.03039e-17
9870.543 3.39378e-17
9871.7344 3.62722e-17
9872.9258 2.1874e-17
9874.1182 2.75585e-17
9875.3096 1.61028e-17
9876.501 2.1801e-17
9877.6924 2.85561e-17
9878.8838 2.7073e-17
9880.0752 2.64276e-17
9881.2666 2.869e-17
9882.458 2.82329e-17
9883.6494 2.41578e-17
9884.8408 2.42954e-17
9886.0322 2.83867e-17
9887.2236 2.60055e-17
9888.415 2.54341e-17
9889.6064 3.28006e-17
9890.7979 2.42477e-17
9891.9893 3.15792e-17
9893.1807 2.42406e-17
9894.3721 2.53106e-17
9895.5635 2.85865e-17
9896.7539 3.33667e-17
9897.9453 2.32577e-17
9899.1367 2.35075e-17
9900.3281 2.8595e-17
9901.5186 3.11084e-17
9902.71 2.59497e-17
9903.9014 2.64709e-17
9905.0928 2.61069e-17
9906.2832 2.36075e-17
9907.4746 2.6661e-17
9908.666 2.48561e-17
9909.8564 2.73813e-17
9911.0479 2.14638e-17
9912.2383 3.59814e-17
9913.4297 3.16131e-17
9914.6201 2.43209e-17
9915.8115 2.77594e-17
9917.002 2.1864e-17
9918.1934 2.30692e-17
9919.3838 2.9588e-17
9920.5752 3.05913e-17
9921.7656 2.57729e-17
9922.957 2.80103e-17
9924.1475 3.01188e-17
9925.3379 2.76764e-17
9926.5293 2.67279e-17
9927.7197 2.3222e-17
9928.9102 2.84813e-17
9930.1016 2.54756e-17
9931.292 2.45303e-17
9932.4824 2.82747e-17
9933.6729 2.84682e-17
9934.8643 2.55963e-17
9936.0547 2.6501e-17
9937.2451 2.53204e-17
9938.4355 3.17903e-17
9939.626 2.30684e-17
9940.8164 2.61729e-17
9942.0068 2.37449e-17
9943.1973 3.00893e-17
9944.3877 1.80389e-17
9945.5781 2.79736e-17
9946.7686 2.1976e-17
9947.959 2.49757e-17
9949.1494 2.72531e-17
9950.3398 2.64271e-17
9951.5303 3.03406e-17
9952.7207 2.47409e-17
9953.9111 2.78383e-17
9955.1016 2.87148e-17
9956.292 2.89755e-17
9957.4824 9.96961e-18
9958.6719 2.89936e-17
9959.8623 3.06551e-17
9961.0527 2.10191e-17
9962.2432 3.51753e-17
9963.4326 2.16267e-17
9964.623 2.9731e-17
9965.8135 2.19663e-17
9967.0029 2.7876e-17
9968.1934 2.17751e-17
9969.3838 2.72784e-17
9970.5732 2.77473e-17
9971.7637 2.41703e-17
9972.9531 2.93561e-17
9974.1436 2.67772e-17
9975.334 3.29748e-17
9976.5234 2.17508e-17
9977.7139 2.81829e-17
9978.9033 2.23063e-17
9980.0928 2.05007e-17
9981.2832 2.43468e-17
9982.4727 2.8364e-17
9983.6631 2.83686e-17
9984.8525 2.27948e-17
9986.042 2.69628e-17
9987.2324 2.71202e-17
9988.4219 2.81195e-17
9989.6113 2.98482e-17
9990.8018 2.8814e-17
9991.9912 2.19706e-17
9993.1807 2.10314e-17
9994.3701 2.53723e-17
9995.5596 2.82059e-17
9996.75 2.57643e-17
9997.9395 2.30099e-17
9999.1289 2.20581e-17
10000.318 2.56995e-17
10001.508 3.10526e-17
10002.697 2.9783e-17
10003.887 2.42565e-17
10005.076 2.61567e-17
10006.266 2.23511e-17
10007.455 2.50828e-17
10008.645 3.69621e-17
10009.834 3.53702e-17
10011.023 2.47438e-17
10012.213 2.85678e-17
10013.402 3.20235e-17
10014.591 2.9094e-17
10015.781 2.20807e-17
10016.97 1.52035e-17
10018.159 2.43473e-17
10019.348 2.45763e-17
10020.538 2.34122e-17
10021.727 2.24269e-17
10022.916 2.25513e-17
10024.105 2.4042e-17
10025.294 2.13591e-17
10026.483 3.2222e-17
10027.672 2.52815e-17
10028.862 1.99376e-17
10030.051 2.52425e-17
10031.24 2.50906e-17
10032.429 2.28706e-17
10033.618 2.61805e-17
10034.807 2.53695e-17
10035.995 2.77068e-17
10037.184 2.3717e-17
10038.373 1.70138e-17
10039.562 2.11997e-17
10040.751 1.91284e-17
10041.94 2.20839e-17
10043.129 2.2305e-17
10044.318 1.70113e-17
10045.506 2.46858e-17
10046.695 2.27631e-17
10047.884 2.14101e-17
10049.073 2.21962e-17
10050.261 2.18362e-17
10051.45 2.7351e-17
10052.639 2.11764e-17
10053.827 2.72595e-17
10055.016 2.15799e-17
10056.204 2.81186e-17
10057.393 2.46844e-17
10058.582 2.3301e-17
10059.77 1.87015e-17
10060.959 1.69254e-17
10062.147 2.66603e-17
10063.336 2.65512e-17
10064.524 1.67911e-17
10065.713 2.31026e-17
10066.901 2.31642e-17
10068.089 2.45445e-17
10069.278 2.78185e-17
10070.466 2.33691e-17
10071.654 3.22243e-17
10072.843 2.56385e-17
10074.031 2.42888e-17
10075.219 2.45045e-17
10076.407 2.42777e-17
10077.596 2.1635e-17
10078.784 2.68095e-17
10079.972 2.76773e-17
10081.16 2.08888e-17
10082.348 2.28392e-17
10083.536 2.06053e-17
10084.725 1.93337e-17
10085.913 2.90682e-17
10087.101 2.41233e-17
10088.289 2.11988e-17
10089.477 2.27009e-17
10090.665 2.40614e-17
10091.853 1.7271e-17
10093.041 2.33773e-17
10094.229 2.27768e-17
10095.417 2.26356e-17
10096.604 2.13616e-17
10097.792 2.05287e-17
10098.98 2.49877e-17
10100.168 1.88885e-17
10101.356 2.95234e-17
10102.544 2.71434e-17
10103.731 2.83219e-17
10104.919 1.97381e-17
10106.107 2.83254e-17
10107.294 2.48438e-17
10108.482 1.96528e-17
10109.67 1.8154e-17
10110.857 2.14896e-17
10112.045 2.60254e-17
10113.233 1.75548e-17
10114.42 1.96203e-17
10115.608 2.17551e-17
10116.795 2.42297e-17
10117.983 2.13071e-17
10119.17 2.61151e-17
10120.358 2.14349e-17
10121.545 3.08148e-17
10122.733 2.21796e-17
10123.92 2.82321e-17
10125.107 3.63055e-17
10126.295 3.06755e-17
10127.482 2.04148e-17
10128.669 1.82333e-17
10129.857 2.12563e-17
10131.044 1.92307e-17
10132.231 2.65854e-17
10133.418 1.90523e-17
10134.606 1.73126e-17
10135.793 2.19663e-17
10136.98 1.72424e-17
10138.167 2.14458e-17
10139.354 2.3874e-17
10140.541 2.06772e-17
10141.728 1.65706e-17
10142.915 2.16262e-17
10144.102 2.28505e-17
10145.29 2.40297e-17
10146.476 1.85886e-17
10147.663 2.88272e-17
10148.85 2.21981e-17
10150.037 2.68322e-17
10151.224 2.46438e-17
10152.411 2.07767e-17
10153.598 1.38947e-17
10154.785 2.68631e-17
10155.972 2.17997e-17
10157.158 2.95259e-17
10158.345 2.38218e-17
10159.532 2.11102e-17
10160.719 2.08705e-17
10161.905 2.1222e-17
10163.092 2.50499e-17
10164.279 2.10952e-17
10165.465 2.57049e-17
10166.652 1.10009e-17
10167.839 2.10968e-17
10169.025 3.74507e-17
10170.212 1.51934e-17
10171.398 1.49283e-17
10172.585 2.57841e-17
10173.771 3.0099e-17
10174.958 1.97573e-17
10176.144 1.40682e-17
10177.33 1.67143e-17
10178.517 1.19977e-17
10179.703 1.9266e-17
10180.89 1.71797e-17
10182.076 2.14498e-17
10183.262 1.69466e-17
10184.449 2.38434e-17
10185.635 1.93136e-17
10186.821 1.65555e-17
10188.007 1.21191e-17
10189.193 4.99428e-17
10190.38 1.24149e-17
10191.566 2.86508e-17
10192.752 2.90792e-17
10193.938 1.86761e-17
10195.124 1.29118e-17
10196.31 1.98199e-17
10197.496 1.86764e-17
10198.682 1.33917e-17
10199.868 1.54128e-17
10201.054 1.70702e-17
10202.24 1.61702e-17
10203.426 2.53486e-17
10204.612 1.49531e-17
10205.798 1.17836e-17
10206.984 2.70099e-17
10208.169 2.1468e-17
10209.355 2.42326e-17
10210.541 1.7587e-17
10211.727 4.1998e-17
10212.913 1.60825e-17
10214.098 1.76713e-17
10215.284 1.82959e-17
10216.47 1.69208e-17
10217.655 1.20563e-17
10218.841 1.38328e-17
10220.027 1.98131e-17
10221.212 1.73376e-17
10222.398 2.66247e-17
10223.583 1.63163e-17
10224.769 2.36386e-17
10225.954 2.32683e-17
10227.14 2.06455e-17
10228.325 2.36716e-17
10229.511 1.84126e-17
10230.696 1.66436e-17
10231.881 2.18572e-17
10233.067 1.31133e-17
10234.252 1.1247e-17
10235.437 1.7612e-17
10236.623 1.95072e-17
10237.808 1.85824e-17
10238.993 1.16056e-17
10240.178 1.69803e-17
10241.363 1.49785e-17
10242.549 1.03098e-17
10243.734 1.89754e-17
10244.919 1.3706e-17
10246.104 1.26396e-17
10247.289 2.35189e-17
10248.474 1.71923e-17
10249.659 1.61305e-17
10250.844 2.57091e-17
10252.029 9.43723e-18
10253.214 1.28153e-17
10254.399 2.51271e-17
10255.584 2.02065e-17
10256.769 1.92993e-17
10257.954 2.11013e-17
10259.139 1.61312e-17
10260.323 1.19839e-17
10261.508 2.16627e-17
10262.693 2.19305e-17
10263.878 2.4842e-17
10265.062 1.7925e-17
10266.247 2.77492e-17
10267.432 1.54901e-17
10268.616 1.92066e-17
10269.801 1.36411e-17
10270.986 1.41054e-17
10272.17 1.46879e-17
10273.355 2.00754e-17
10274.539 2.69772e-17
10275.724 1.70044e-17
10276.908 2.37112e-17
10278.093 2.25371e-17
10279.277 1.62111e-17
10280.462 1.69055e-17
10281.646 2.42085e-17
10282.83 1.25728e-17
10284.015 6.95646e-17
10285.199 3.89441e-17
10286.383 -3.10616e-17
10287.568 2.58048e-17
10288.752 2.79388e-17
10289.936 -1.23095e-17
10291.12 3.83888e-18
10292.305 2.86345e-17
10293.489 1.75947e-17
10294.673 1.72279e-17
10295.857 2.07915e-17
10297.041 2.13337e-17
10298.225 1.38957e-17
10299.409 2.83389e-17
10300.593 -2.04784e-18
10301.777 2.52728e-17
10302.961 1.30687e-17
10304.145 2.68253e-17
10305.329 2.9116e-17
