# Wavelength Flux
# STATUS = PUBLIC
# OBJECT = 2018lfd
# TELESCOPE = Keck1
# INSTRUMENT =
# DATE-OBS = 2019.0104
# MJD =
# EXPTIME =
# SLIT =
# DISPERSER =
# SOURCE = 2023ApJ...943...41C
# FILTER =
# FLUX_STANDARD =
# EXTINCTION_CORRECTED = False
# PHOTOMETRY_CALIBRATED =
# FLUX_UNITS = erg/s/cm^2/Angstroms
# QUALITY =
# MIN_WAVE =
# MAX_WAVE =
# COMMENT =
5456.1763 9.34791e-17
5457.311 2.55496e-16
5458.4463 2.54179e-16
5459.5815 1.42466e-16
5460.7168 1.15402e-16
5461.8521 1.33764e-16
5462.9873 1.15345e-16
5464.1226 3.41933e-18
5465.2583 9.05716e-17
5466.3936 1.56652e-16
5467.5293 1.13326e-16
5468.6646 1.88426e-16
5469.8003 1.25182e-16
5470.936 9.60638e-17
5472.0718 1.60917e-16
5473.2075 1.40133e-16
5474.3433 2.76557e-16
5475.4795 1.68399e-16
5476.6152 9.77566e-17
5477.751 1.97585e-16
5478.8872 7.06937e-17
5480.0234 1.7506e-16
5481.1597 7.53282e-17
5482.2959 1.28558e-16
5483.4321 1.39787e-16
5484.5684 1.01775e-16
5485.7046 1.59443e-16
5486.8408 1.08983e-16
5487.9775 1.10363e-16
5489.1138 1.26512e-16
5490.2505 1.97683e-16
5491.3872 1.47589e-16
5492.5239 9.67462e-17
5493.6602 1.58721e-16
5494.7969 1.85041e-16
5495.9341 2.0886e-16
5497.0708 8.85899e-17
5498.2075 1.91484e-16
5499.3447 1.53765e-16
5500.4814 1.66568e-16
5501.6187 1.08427e-16
5502.7559 1.09172e-16
5503.8931 1.56646e-16
5505.0298 1.83287e-16
5506.1675 1.6241e-16
5507.3047 2.0077e-16
5508.4419 1.62423e-16
5509.5791 1.28943e-16
5510.7168 1.20663e-16
5511.854 1.60221e-16
5512.9917 1.85186e-16
5514.1294 1.57724e-16
5515.2671 1.79135e-16
5516.4048 1.56326e-16
5517.5425 6.82714e-17
5518.6802 1.28166e-16
5519.8179 1.27796e-16
5520.9561 1.16329e-16
5522.0938 1.47731e-16
5523.2319 1.44662e-16
5524.3701 1.18792e-16
5525.5078 1.50565e-16
5526.646 1.5876e-16
5527.7842 9.42801e-17
5528.9224 1.68148e-16
5530.061 1.71676e-16
5531.1992 1.43683e-16
5532.3374 1.74809e-16
5533.4761 1.78593e-16
5534.6143 1.48381e-16
5535.7529 1.83258e-16
5536.8916 1.87001e-16
5538.0303 1.76218e-16
5539.1689 1.50341e-16
5540.3076 1.76086e-16
5541.4463 1.19716e-16
5542.585 1.11197e-16
5543.7241 1.31993e-16
5544.8628 1.84014e-16
5546.002 1.46058e-16
5547.1406 1.51367e-16
5548.2798 1.25467e-16
5549.4189 1.62312e-16
5550.5581 1.22683e-16
5551.6973 1.31571e-16
5552.8364 1.53211e-16
5553.9761 1.55284e-16
5555.1152 1.69462e-16
5556.2549 1.98326e-16
5557.394 1.37868e-16
5558.5337 1.83652e-16
5559.6733 1.82876e-16
5560.813 1.61617e-16
5561.9526 1.4338e-16
5563.0923 1.38059e-16
5564.2319 1.68029e-16
5565.3716 1.5469e-16
5566.5117 1.37915e-16
5567.6514 1.69979e-16
5568.7915 1.62246e-16
5569.9312 1.51866e-16
5571.0713 1.65847e-16
5572.2114 1.88506e-16
5573.3516 1.4611e-16
5574.4917 1.7074e-16
5575.6318 1.61329e-16
5576.772 1.92809e-16
5577.9126 2.32308e-16
5579.0527 1.63129e-16
5580.1934 1.85486e-16
5581.3335 1.32442e-16
5582.4741 1.37829e-16
5583.6147 1.55186e-16
5584.7554 1.5676e-16
5585.896 1.75015e-16
5587.0366 1.34218e-16
5588.1772 1.67189e-16
5589.3184 1.62258e-16
5590.459 1.28453e-16
5591.6001 1.36517e-16
5592.7407 1.68053e-16
5593.8818 2.02503e-16
5595.0229 1.45893e-16
5596.1641 1.66104e-16
5597.3052 1.69638e-16
5598.4463 1.72691e-16
5599.5874 1.9661e-16
5600.7285 1.68557e-16
5601.8701 1.4866e-16
5603.0112 1.57166e-16
5604.1528 1.7276e-16
5605.2944 1.50247e-16
5606.4355 1.42085e-16
5607.5771 1.58722e-16
5608.7188 1.26587e-16
5609.8604 1.27613e-16
5611.0024 1.67443e-16
5612.144 1.59e-16
5613.2856 1.61048e-16
5614.4277 1.34753e-16
5615.5693 1.845e-16
5616.7114 1.55707e-16
5617.8535 1.43434e-16
5618.9951 1.44833e-16
5620.1372 1.56259e-16
5621.2793 1.65785e-16
5622.4219 1.19908e-16
5623.564 1.41699e-16
5624.7061 1.3818e-16
5625.8486 1.50798e-16
5626.9907 1.4481e-16
5628.1333 1.54892e-16
5629.2754 1.47354e-16
5630.418 1.30106e-16
5631.5605 1.45439e-16
5632.7031 1.32484e-16
5633.8457 1.40568e-16
5634.9883 1.25209e-16
5636.1313 1.47433e-16
5637.2739 1.23105e-16
5638.417 1.51653e-16
5639.5596 1.65128e-16
5640.7026 1.41719e-16
5641.8457 1.37745e-16
5642.9883 1.18976e-16
5644.1313 1.35631e-16
5645.2744 1.47562e-16
5646.4175 1.22916e-16
5647.561 1.34737e-16
5648.7041 1.44808e-16
5649.8472 1.1557e-16
5650.9907 1.40595e-16
5652.1343 1.34031e-16
5653.2773 1.27852e-16
5654.4209 1.26784e-16
5655.5645 1.29269e-16
5656.708 1.22901e-16
5657.8516 1.11348e-16
5658.9951 1.18746e-16
5660.1387 1.32539e-16
5661.2827 1.1029e-16
5662.4263 1.30393e-16
5663.5703 1.34132e-16
5664.7139 1.13696e-16
5665.8579 1.26096e-16
5667.002 1.17128e-16
5668.146 1.18362e-16
5669.29 1.32385e-16
5670.4341 1.26359e-16
5671.5781 1.35725e-16
5672.7227 1.14537e-16
5673.8667 1.12337e-16
5675.0112 1.20844e-16
5676.1553 1.18559e-16
5677.2998 1.21923e-16
5678.4443 1.23817e-16
5679.5884 1.04446e-16
5680.7329 1.15221e-16
5681.8774 1.21645e-16
5683.022 1.20239e-16
5684.167 1.15709e-16
5685.3115 1.26056e-16
5686.4565 1.26581e-16
5687.6011 1.30904e-16
5688.7461 9.8834e-17
5689.8906 1.21349e-16
5691.0356 1.16993e-16
5692.1807 1.19924e-16
5693.3257 1.14891e-16
5694.4707 1.16521e-16
5695.6157 1.18449e-16
5696.7607 1.12353e-16
5697.9062 1.14859e-16
5699.0513 1.10408e-16
5700.1968 1.04893e-16
5701.3418 1.01686e-16
5702.4873 1.12936e-16
5703.6328 1.20612e-16
5704.7783 1.07314e-16
5705.9238 1.11661e-16
5707.0693 1.2281e-16
5708.2148 1.13003e-16
5709.3604 1.03652e-16
5710.5059 1.05948e-16
5711.6519 1.18947e-16
5712.7974 1.0429e-16
5713.9434 1.10305e-16
5715.0894 1.24894e-16
5716.2354 9.57898e-17
5717.3813 1.12254e-16
5718.5273 9.89336e-17
5719.6733 1.16302e-16
5720.8193 9.78461e-17
5721.9653 1.01733e-16
5723.1118 1.18939e-16
5724.2578 1.01505e-16
5725.4038 1.14884e-16
5726.5503 1.18678e-16
5727.6968 1.15977e-16
5728.8433 1.2066e-16
5729.9893 9.72436e-17
5731.1362 1.09604e-16
5732.2827 1.21273e-16
5733.4292 1.04395e-16
5734.5757 1.0103e-16
5735.7222 1.03863e-16
5736.8691 1.16696e-16
5738.0156 9.51698e-17
5739.1626 1.06353e-16
5740.3096 1.0438e-16
5741.4565 1.10572e-16
5742.6035 1.08232e-16
5743.75 1.12233e-16
5744.8975 1.11816e-16
5746.0444 1.02731e-16
5747.1914 1.14879e-16
5748.3384 9.76433e-17
5749.4858 1.13243e-16
5750.6328 1.0819e-16
5751.7803 1.17772e-16
5752.9277 1.00298e-16
5754.0747 9.46878e-17
5755.2222 1.21278e-16
5756.3696 1.03604e-16
5757.5171 1.17155e-16
5758.665 1.12366e-16
5759.8125 1.16405e-16
5760.96 1.10338e-16
5762.1079 1.18802e-16
5763.2554 1.15077e-16
5764.4033 1.13509e-16
5765.5508 1.09146e-16
5766.6987 1.0163e-16
5767.8467 1.17794e-16
5768.9946 1.20422e-16
5770.1426 1.10402e-16
5771.2905 1.24754e-16
5772.4385 1.2947e-16
5773.5869 1.19826e-16
5774.7349 1.23447e-16
5775.8833 1.34197e-16
5777.0312 1.32233e-16
5778.1797 1.36142e-16
5779.3281 1.25091e-16
5780.4766 1.1701e-16
5781.625 1.23115e-16
5782.7734 1.12162e-16
5783.9219 1.10496e-16
5785.0703 1.21342e-16
5786.2188 1.26181e-16
5787.3677 1.34098e-16
5788.5161 1.27322e-16
5789.665 1.29225e-16
5790.8135 1.31269e-16
5791.9624 1.40666e-16
5793.1113 1.33596e-16
5794.2603 1.36303e-16
5795.4092 1.3493e-16
5796.5581 1.31667e-16
5797.707 1.19465e-16
5798.856 1.18289e-16
5800.0054 1.34722e-16
5801.1543 1.27679e-16
5802.3037 1.26352e-16
5803.4531 1.38595e-16
5804.6021 1.21823e-16
5805.7515 1.34386e-16
5806.9009 1.38912e-16
5808.0503 1.38638e-16
5809.1997 1.41276e-16
5810.3491 1.15037e-16
5811.4985 1.25741e-16
5812.6484 1.30955e-16
5813.7979 1.33853e-16
5814.9473 1.31028e-16
5816.0972 1.46705e-16
5817.2471 1.44128e-16
5818.397 1.33467e-16
5819.5464 1.42896e-16
5820.6963 1.36876e-16
5821.8462 1.45106e-16
5822.9961 1.36508e-16
5824.1465 1.55386e-16
5825.2964 1.43138e-16
5826.4463 1.35291e-16
5827.5967 1.33843e-16
5828.7466 1.41689e-16
5829.897 1.52085e-16
5831.0474 1.36711e-16
5832.1973 1.45391e-16
5833.3477 1.60483e-16
5834.4985 1.37605e-16
5835.6489 1.41137e-16
5836.7993 1.37565e-16
5837.9497 1.50722e-16
5839.1001 1.48901e-16
5840.251 1.41704e-16
5841.4014 1.48996e-16
5842.5522 1.507e-16
5843.7031 1.49175e-16
5844.8535 1.47749e-16
5846.0044 1.33077e-16
5847.1553 1.4128e-16
5848.3062 1.47553e-16
5849.457 1.40993e-16
5850.6079 1.37232e-16
5851.7593 1.42617e-16
5852.9102 1.52289e-16
5854.061 1.36084e-16
5855.2124 1.46614e-16
5856.3638 1.6313e-16
5857.5146 1.59327e-16
5858.666 1.50599e-16
5859.8174 1.32199e-16
5860.9688 1.60478e-16
5862.1201 1.36961e-16
5863.2715 1.54096e-16
5864.4229 1.47725e-16
5865.5747 1.53619e-16
5866.7261 1.42815e-16
5867.8779 1.54775e-16
5869.0293 1.51438e-16
5870.1812 1.62889e-16
5871.333 1.55919e-16
5872.4844 1.34274e-16
5873.6362 1.43653e-16
5874.7881 1.43602e-16
5875.9399 1.48168e-16
5877.0918 1.45563e-16
5878.2441 1.51483e-16
5879.396 1.40897e-16
5880.5483 1.56702e-16
5881.7002 1.49705e-16
5882.8525 1.39197e-16
5884.0044 1.74969e-16
5885.1567 1.63392e-16
5886.3091 1.40174e-16
5887.4614 1.49323e-16
5888.6138 1.6429e-16
5889.7661 1.36772e-16
5890.9185 1.36577e-16
5892.0708 1.53608e-16
5893.2236 1.43465e-16
5894.376 1.60889e-16
5895.5288 1.46918e-16
5896.6812 1.53753e-16
5897.834 1.35814e-16
5898.9868 1.55381e-16
5900.1396 1.61941e-16
5901.2925 1.50995e-16
5902.4453 1.50571e-16
5903.5981 1.44937e-16
5904.751 1.54398e-16
5905.9038 1.55153e-16
5907.0571 1.45604e-16
5908.21 1.41907e-16
5909.3633 1.53606e-16
5910.5161 1.5092e-16
5911.6694 1.538e-16
5912.8228 1.46432e-16
5913.9761 1.60093e-16
5915.1294 1.45326e-16
5916.2827 1.44954e-16
5917.436 1.41842e-16
5918.5894 1.52144e-16
5919.7427 1.51984e-16
5920.8965 1.57746e-16
5922.0498 1.49532e-16
5923.2036 1.35061e-16
5924.3569 1.50266e-16
5925.5107 1.59744e-16
5926.6646 1.44891e-16
5927.8179 1.49807e-16
5928.9717 1.46264e-16
5930.126 1.47828e-16
5931.2798 1.40379e-16
5932.4336 1.48621e-16
5933.5874 1.43056e-16
5934.7417 1.36837e-16
5935.8955 1.47096e-16
5937.0498 1.51445e-16
5938.2036 1.503e-16
5939.3579 1.34873e-16
5940.5122 1.44412e-16
5941.6665 1.34134e-16
5942.8208 1.40251e-16
5943.9751 1.36864e-16
5945.1294 1.34739e-16
5946.2837 1.45173e-16
5947.438 1.34856e-16
5948.5923 1.57165e-16
5949.7471 1.39641e-16
5950.9014 1.37041e-16
5952.0562 1.44423e-16
5953.2109 1.45965e-16
5954.3657 1.41117e-16
5955.5205 1.42166e-16
5956.6748 1.30593e-16
5957.8296 1.33934e-16
5958.9849 1.50053e-16
5960.1396 1.36516e-16
5961.2944 1.37788e-16
5962.4492 1.34681e-16
5963.6045 1.46865e-16
5964.7593 1.34068e-16
5965.9146 1.27967e-16
5967.0698 1.45095e-16
5968.2246 1.2622e-16
5969.3799 1.36585e-16
5970.5352 1.23636e-16
5971.6904 1.3738e-16
5972.8457 1.36095e-16
5974.001 1.33868e-16
5975.1567 1.461e-16
5976.312 1.45159e-16
5977.4678 1.37381e-16
5978.623 1.17331e-16
5979.7788 1.2961e-16
5980.9341 1.42478e-16
5982.0898 1.33908e-16
5983.2456 1.29729e-16
5984.4014 1.3868e-16
5985.5571 1.26785e-16
5986.7129 1.30381e-16
5987.8687 1.28214e-16
5989.0244 1.31599e-16
5990.1807 1.2504e-16
5991.3364 1.23264e-16
5992.4927 1.24796e-16
5993.6484 1.42902e-16
5994.8047 1.44367e-16
5995.9609 1.23661e-16
5997.1167 1.3779e-16
5998.2729 1.21225e-16
5999.4292 1.27062e-16
6000.5854 1.28808e-16
6001.7417 1.27587e-16
6002.8984 1.29552e-16
6004.0547 1.18465e-16
6005.2109 1.27017e-16
6006.3677 1.29196e-16
6007.5239 1.24294e-16
6008.6807 1.36422e-16
6009.8374 1.39901e-16
6010.9941 1.31651e-16
6012.1504 1.35635e-16
6013.3071 1.32297e-16
6014.4639 1.14451e-16
6015.6206 1.32748e-16
6016.7778 1.33463e-16
6017.9346 1.32063e-16
6019.0913 1.31565e-16
6020.2485 1.31623e-16
6021.4053 1.22334e-16
6022.5625 1.15695e-16
6023.7192 1.29481e-16
6024.8765 1.31652e-16
6026.0337 1.22491e-16
6027.1909 1.19748e-16
6028.3481 1.17537e-16
6029.5054 1.36911e-16
6030.6626 1.30875e-16
6031.8198 1.37934e-16
6032.9775 1.29729e-16
6034.1348 1.28912e-16
6035.2925 1.28678e-16
6036.4497 1.38252e-16
6037.6074 1.23178e-16
6038.7651 1.17979e-16
6039.9224 1.37213e-16
6041.0801 1.19442e-16
6042.2378 1.24388e-16
6043.3955 1.26881e-16
6044.5532 1.37993e-16
6045.7109 1.30156e-16
6046.8691 1.39609e-16
6048.0269 1.31357e-16
6049.1846 1.14685e-16
6050.3428 1.20104e-16
6051.501 1.21637e-16
6052.6587 1.20794e-16
6053.8169 1.355e-16
6054.9751 1.20214e-16
6056.1333 1.3749e-16
6057.2915 1.25081e-16
6058.4497 1.13403e-16
6059.6079 1.34283e-16
6060.7661 1.29022e-16
6061.9243 1.25747e-16
6063.083 1.17125e-16
6064.2412 1.34514e-16
6065.3999 1.24807e-16
6066.5581 1.13274e-16
6067.7168 1.15025e-16
6068.8755 1.18646e-16
6070.0342 1.32957e-16
6071.1929 1.18021e-16
6072.3516 1.1383e-16
6073.5103 1.1827e-16
6074.6689 1.22463e-16
6075.8276 1.25927e-16
6076.9868 1.2238e-16
6078.1455 1.23758e-16
6079.3047 1.19664e-16
6080.4634 1.22023e-16
6081.6226 1.21776e-16
6082.7817 1.28974e-16
6083.9404 1.17091e-16
6085.0996 1.21781e-16
6086.2588 1.20012e-16
6087.418 1.21394e-16
6088.5771 1.29741e-16
6089.7368 1.20823e-16
6090.896 1.32659e-16
6092.0552 1.1463e-16
6093.2148 1.29244e-16
6094.374 1.24844e-16
6095.5337 1.18529e-16
6096.6929 1.19908e-16
6097.8525 1.18234e-16
6099.0122 1.2084e-16
6100.1719 1.26469e-16
6101.3315 1.16913e-16
6102.4912 1.07292e-16
6103.6509 1.28281e-16
6104.8105 1.2173e-16
6105.9702 1.13457e-16
6107.1304 1.20156e-16
6108.29 1.12019e-16
6109.4502 1.31413e-16
6110.6099 1.1917e-16
6111.77 1.29854e-16
6112.9302 1.2042e-16
6114.0903 1.21012e-16
6115.2505 1.2587e-16
6116.4102 1.15887e-16
6117.5708 1.28629e-16
6118.731 1.19546e-16
6119.8911 1.2643e-16
6121.0513 1.31349e-16
6122.2119 1.2132e-16
6123.3721 1.26341e-16
6124.5327 1.23027e-16
6125.6929 1.20458e-16
6126.8535 1.09233e-16
6128.0142 1.22193e-16
6129.1748 1.18193e-16
6130.335 1.32778e-16
6131.4956 1.2395e-16
6132.6567 1.21813e-16
6133.8174 1.2867e-16
6134.978 1.23635e-16
6136.1387 1.31597e-16
6137.2998 1.319e-16
6138.4604 1.12796e-16
6139.6216 1.34375e-16
6140.7822 1.26231e-16
6141.9434 1.08016e-16
6143.1045 1.22365e-16
6144.2656 1.25149e-16
6145.4263 1.31162e-16
6146.5874 1.22993e-16
6147.749 1.23396e-16
6148.9102 1.24208e-16
6150.0713 1.17924e-16
6151.2324 1.23814e-16
6152.394 1.32749e-16
6153.5552 1.22398e-16
6154.7168 1.22644e-16
6155.8779 1.19491e-16
6157.0396 1.34355e-16
6158.2012 1.27836e-16
6159.3623 1.25111e-16
6160.5239 1.30083e-16
6161.6855 1.23368e-16
6162.8472 1.21513e-16
6164.0093 1.33145e-16
6165.1709 1.24865e-16
6166.3325 1.24786e-16
6167.4946 1.23476e-16
6168.6562 1.32622e-16
6169.8179 1.28699e-16
6170.98 1.1343e-16
6172.1421 1.30644e-16
6173.3042 1.21228e-16
6174.4658 1.1014e-16
6175.6279 1.21723e-16
6176.79 1.4268e-16
6177.9521 1.25421e-16
6179.1143 1.32443e-16
6180.2769 1.14285e-16
6181.439 1.15257e-16
6182.6011 1.15878e-16
6183.7637 1.343e-16
6184.9258 1.20057e-16
6186.0884 1.32749e-16
6187.2505 1.2778e-16
6188.4131 1.35649e-16
6189.5757 1.22155e-16
6190.7383 1.25814e-16
6191.9009 1.23884e-16
6193.0635 1.16495e-16
6194.2261 1.14037e-16
6195.3887 1.17717e-16
6196.5513 1.30571e-16
6197.7144 1.30347e-16
6198.877 1.24828e-16
6200.04 1.17768e-16
6201.2026 1.19927e-16
6202.3657 1.18532e-16
6203.5288 1.23959e-16
6204.6919 1.32104e-16
6205.8545 1.20563e-16
6207.0176 1.177e-16
6208.1807 1.11049e-16
6209.3442 1.2616e-16
6210.5073 1.34986e-16
6211.6704 1.17982e-16
6212.8335 1.24824e-16
6213.9971 1.24558e-16
6215.1602 1.26706e-16
6216.3237 1.23132e-16
6217.4868 1.26206e-16
6218.6504 1.26561e-16
6219.814 1.23377e-16
6220.9775 1.14132e-16
6222.1411 1.22464e-16
6223.3042 1.19763e-16
6224.4683 1.24245e-16
6225.6318 1.24104e-16
6226.7954 1.22585e-16
6227.959 1.29663e-16
6229.123 1.24058e-16
6230.2866 1.26191e-16
6231.4507 1.25382e-16
6232.6143 1.2669e-16
6233.7783 1.12491e-16
6234.9424 1.21794e-16
6236.106 1.14664e-16
6237.27 1.28343e-16
6238.4341 1.19816e-16
6239.5981 1.25023e-16
6240.7622 1.03509e-16
6241.9268 1.34592e-16
6243.0908 1.27972e-16
6244.2549 1.07353e-16
6245.4194 1.08922e-16
6246.5835 1.27805e-16
6247.748 1.33356e-16
6248.9121 1.08383e-16
6250.0767 1.19824e-16
6251.2412 1.14037e-16
6252.4058 1.16323e-16
6253.5703 1.23226e-16
6254.7344 1.10275e-16
6255.8994 1.31471e-16
6257.064 1.19664e-16
6258.2285 1.26265e-16
6259.3931 1.28356e-16
6260.5581 1.14858e-16
6261.7227 1.24336e-16
6262.8877 1.12654e-16
6264.0522 1.16625e-16
6265.2173 1.24252e-16
6266.3823 1.20716e-16
6267.5469 1.20145e-16
6268.7119 1.2273e-16
6269.877 1.18955e-16
6271.042 1.05881e-16
6272.207 1.08562e-16
6273.3726 1.11478e-16
6274.5376 1.1812e-16
6275.7026 1.22347e-16
6276.8682 1.12475e-16
6278.0332 1.16622e-16
6279.1987 1.10101e-16
6280.3638 1.05317e-16
6281.5293 1.08859e-16
6282.6948 1.13658e-16
6283.8599 1.07712e-16
6285.0254 1.18334e-16
6286.1909 1.08975e-16
6287.3569 1.12113e-16
6288.5225 1.16812e-16
6289.688 1.1257e-16
6290.8535 1.16794e-16
6292.0195 1.14951e-16
6293.1851 1.07827e-16
6294.3506 1.22297e-16
6295.5166 1.18695e-16
6296.6826 1.23215e-16
6297.8481 9.93584e-17
6299.0142 1.23685e-16
6300.1802 1.01512e-16
6301.3462 1.13421e-16
6302.5122 1.04965e-16
6303.6782 1.1711e-16
6304.8442 1.08498e-16
6306.0103 1.09057e-16
6307.1768 1.12107e-16
6308.3428 1.11772e-16
6309.5088 1.27887e-16
6310.6753 1.16817e-16
6311.8418 1.18249e-16
6313.0078 1.19828e-16
6314.1743 1.08681e-16
6315.3408 1.03914e-16
6316.5073 1.19593e-16
6317.6738 1.15978e-16
6318.8403 1.15231e-16
6320.0068 1.15945e-16
6321.1733 1.07374e-16
6322.3398 1.21149e-16
6323.5063 9.82194e-17
6324.6733 1.05924e-16
6325.8398 1.16785e-16
6327.0068 1.1261e-16
6328.1733 1.17954e-16
6329.3403 1.19159e-16
6330.5073 1.17881e-16
6331.6743 1.02626e-16
6332.8408 1.08204e-16
6334.0078 1.11114e-16
6335.1748 1.23971e-16
6336.3418 1.05853e-16
6337.5093 1.05741e-16
6338.6763 1.21061e-16
6339.8433 1.06463e-16
6341.0107 1.13256e-16
6342.1777 1.11323e-16
6343.3452 1.22937e-16
6344.5122 1.13483e-16
6345.6797 1.10284e-16
6346.8472 1.10866e-16
6348.0142 1.18362e-16
6349.1816 1.16788e-16
6350.3491 1.11652e-16
6351.5166 1.11002e-16
6352.6841 1.11372e-16
6353.8521 1.16726e-16
6355.0195 1.16984e-16
6356.187 1.15601e-16
6357.355 1.04409e-16
6358.5225 1.0307e-16
6359.6904 1.13189e-16
6360.8579 1.08305e-16
6362.0259 1.10195e-16
6363.1934 1.41425e-16
6364.3613 9.74918e-17
6365.5293 1.07594e-16
6366.6973 1.19562e-16
6367.8652 1.06021e-16
6369.0332 1.13699e-16
6370.2012 1.11714e-16
6371.3696 1.1018e-16
6372.5376 1.03095e-16
6373.7056 1.05942e-16
6374.874 1.1842e-16
6376.042 1.08465e-16
6377.2104 1.14208e-16
6378.3789 1.22971e-16
6379.5469 1.06531e-16
6380.7153 1.08011e-16
6381.8838 1.0073e-16
6383.0522 1.15934e-16
6384.2207 1.12504e-16
6385.3892 1.09915e-16
6386.5576 1.19351e-16
6387.7266 1.1107e-16
6388.895 1.10061e-16
6390.0635 1.1036e-16
6391.2324 1.16204e-16
6392.4009 1.12973e-16
6393.5698 1.20357e-16
6394.7383 1.14279e-16
6395.9072 1.16233e-16
6397.0762 1.18444e-16
6398.2451 1.11887e-16
6399.4141 1.12477e-16
6400.583 1.19768e-16
6401.752 1.19059e-16
6402.9209 1.1004e-16
6404.0898 1.01551e-16
6405.2588 1.18198e-16
6406.4282 1.12553e-16
6407.5972 1.10831e-16
6408.7666 1.16518e-16
6409.9355 1.22079e-16
6411.105 1.20002e-16
6412.2744 1.25308e-16
6413.4434 1.03877e-16
6414.6128 1.11275e-16
6415.7822 1.06337e-16
6416.9517 1.1133e-16
6418.1211 1.05856e-16
6419.2905 1.18028e-16
6420.46 1.21049e-16
6421.6299 1.21411e-16
6422.7993 1.17278e-16
6423.9692 1.06884e-16
6425.1387 1.22295e-16
6426.3086 1.12364e-16
6427.478 1.2154e-16
6428.6479 1.063e-16
6429.8179 1.19525e-16
6430.9873 1.13914e-16
6432.1572 1.08425e-16
6433.3271 1.10959e-16
6434.4971 1.19119e-16
6435.667 1.10133e-16
6436.8374 1.16139e-16
6438.0073 1.14148e-16
6439.1772 1.159e-16
6440.3472 1.13982e-16
6441.5176 1.27453e-16
6442.6875 1.02299e-16
6443.8579 1.11128e-16
6445.0283 1.21209e-16
6446.1982 1.15037e-16
6447.3687 1.03853e-16
6448.5391 1.12725e-16
6449.7095 1.13707e-16
6450.8799 1.15942e-16
6452.0503 1.12999e-16
6453.2207 1.06675e-16
6454.3911 1.15444e-16
6455.562 1.16317e-16
6456.7324 1.01669e-16
6457.9028 1.09729e-16
6459.0737 1.18372e-16
6460.2441 1.14089e-16
6461.415 1.10278e-16
6462.5859 1.21408e-16
6463.7568 1.01399e-16
6464.9272 1.15763e-16
6466.0981 1.03933e-16
6467.269 1.14279e-16
6468.4399 1.31753e-16
6469.6108 1.09052e-16
6470.7822 1.10951e-16
6471.9531 1.18084e-16
6473.124 1.19968e-16
6474.2949 1.06031e-16
6475.4663 1.13644e-16
6476.6372 1.1338e-16
6477.8086 1.23685e-16
6478.9795 1.23948e-16
6480.1509 1.25011e-16
6481.3223 1.1903e-16
6482.4937 1.15523e-16
6483.665 1.09681e-16
6484.8364 1.08462e-16
6486.0078 1.14361e-16
6487.1792 1.21008e-16
6488.3506 1.16408e-16
6489.522 1.15121e-16
6490.6938 1.09715e-16
6491.8652 1.21782e-16
6493.0371 1.13298e-16
6494.2085 1.21876e-16
6495.3804 1.16038e-16
6496.5518 1.22679e-16
6497.7236 1.12628e-16
6498.8955 1.20433e-16
6500.0674 1.15545e-16
6501.2393 1.25441e-16
6502.4111 1.24276e-16
6503.583 1.26441e-16
6504.7549 1.07497e-16
6505.9268 1.21046e-16
6507.0986 1.22319e-16
6508.271 1.16157e-16
6509.4429 1.18477e-16
6510.6152 1.18062e-16
6511.7871 1.16945e-16
6512.9595 1.1075e-16
6514.1318 1.14937e-16
6515.3037 1.2978e-16
6516.4761 1.21098e-16
6517.6484 1.11888e-16
6518.8208 1.21419e-16
6519.9932 1.20936e-16
6521.1655 1.11117e-16
6522.3379 1.19978e-16
6523.5103 1.06771e-16
6524.6831 1.12613e-16
6525.8555 1.25306e-16
6527.0278 1.23894e-16
6528.2007 1.15057e-16
6529.373 1.10119e-16
6530.5459 1.11376e-16
6531.7188 1.01068e-16
6532.8911 1.11572e-16
6534.064 1.15673e-16
6535.2368 1.1064e-16
6536.4097 1.18152e-16
6537.5825 1.05647e-16
6538.7554 1.11946e-16
6539.9282 1.13039e-16
6541.1016 1.20869e-16
6542.2744 1.26109e-16
6543.4473 1.12596e-16
6544.6206 1.21246e-16
6545.7935 1.19517e-16
6546.9668 1.20013e-16
6548.1396 1.08451e-16
6549.313 1.15267e-16
6550.4863 1.11975e-16
6551.6597 1.13784e-16
6552.833 1.1163e-16
6554.0059 1.02698e-16
6555.1792 1.12494e-16
6556.353 1.11417e-16
6557.5264 1.11108e-16
6558.6997 1.09829e-16
6559.873 1.10894e-16
6561.0469 1.20923e-16
6562.2202 1.21343e-16
6563.394 1.21561e-16
6564.5674 1.16422e-16
6565.7412 1.0363e-16
6566.9146 1.12527e-16
6568.0884 1.17289e-16
6569.2622 1.0794e-16
6570.436 1.21047e-16
6571.6099 1.19519e-16
6572.7837 1.12533e-16
6573.9575 1.17546e-16
6575.1313 1.10213e-16
6576.3052 1.13598e-16
6577.479 1.1694e-16
6578.6533 1.06013e-16
6579.8271 1.03282e-16
6581.0015 1.02956e-16
6582.1753 1.14353e-16
6583.3496 1.05231e-16
6584.5239 1.18442e-16
6585.6978 1.2309e-16
6586.8721 1.06237e-16
6588.0464 1.09768e-16
6589.2207 1.06213e-16
6590.395 1.08516e-16
6591.5693 1.05257e-16
6592.7437 1.1504e-16
6593.918 1.14693e-16
6595.0928 1.1264e-16
6596.2671 1.12154e-16
6597.4414 1.18965e-16
6598.6162 1.11254e-16
6599.7905 1.20512e-16
6600.9653 1.08865e-16
6602.1401 1.13327e-16
6603.3145 1.03703e-16
6604.4893 1.04487e-16
6605.6641 1.17241e-16
6606.8389 1.05743e-16
6608.0137 9.99437e-17
6609.1885 1.10437e-16
6610.3633 9.65984e-17
6611.5381 1.11376e-16
6612.7129 1.1328e-16
6613.8882 1.00121e-16
6615.063 1.03973e-16
6616.2378 1.12698e-16
6617.4131 1.18194e-16
6618.5884 1.09499e-16
6619.7632 1.1474e-16
6620.9385 1.11221e-16
6622.1138 1.06412e-16
6623.2886 1.13303e-16
6624.4639 1.07409e-16
6625.6392 1.11509e-16
6626.8145 1.06894e-16
6627.9897 1.07023e-16
6629.1655 1.13624e-16
6630.3408 1.0809e-16
6631.5161 9.65167e-17
6632.6914 1.01312e-16
6633.8672 1.15081e-16
6635.0425 1.03714e-16
6636.2183 1.13293e-16
6637.394 1.09966e-16
6638.5693 1.0269e-16
6639.7451 1.11941e-16
6640.9209 9.89106e-17
6642.0962 9.99353e-17
6643.272 1.11598e-16
6644.4478 1.03125e-16
6645.624 1.06141e-16
6646.7998 1.09574e-16
6647.9756 1.08357e-16
6649.1514 1.07335e-16
6650.3271 1.07566e-16
6651.5034 1.04248e-16
6652.6792 1.04578e-16
6653.8555 1.05521e-16
6655.0312 1.00722e-16
6656.2075 1.04902e-16
6657.3833 1.01507e-16
6658.5596 1.00726e-16
6659.7358 1.11624e-16
6660.9121 1.06043e-16
6662.0884 1.01235e-16
6663.2646 1.12529e-16
6664.4409 1.01456e-16
6665.6172 1.02195e-16
6666.7935 1.03557e-16
6667.9702 1.04423e-16
6669.1465 1.03749e-16
6670.3228 1.05912e-16
6671.4995 1.03044e-16
6672.6758 1.16963e-16
6673.8525 9.64346e-17
6675.0293 1.07928e-16
6676.2056 1.15787e-16
6677.3823 1.04897e-16
6678.5591 1.0292e-16
6679.7358 1.0353e-16
6680.9126 1.01636e-16
6682.0894 1.04817e-16
6683.2661 1.13957e-16
6684.4429 1.03752e-16
6685.6196 9.82092e-17
6686.7969 1.01422e-16
6687.9736 1.00736e-16
6689.1504 1.09676e-16
6690.3276 1.02541e-16
6691.5044 1.0809e-16
6692.6816 1.01832e-16
6693.8589 1.006e-16
6695.0356 1.11137e-16
6696.2129 1.09162e-16
6697.3901 9.60868e-17
6698.5674 1.02114e-16
6699.7446 1.02589e-16
6700.9219 9.94851e-17
6702.0991 1.09631e-16
6703.2764 1.1242e-16
6704.4536 1.07709e-16
6705.6313 1.11491e-16
6706.8086 1.06358e-16
6707.9863 9.42777e-17
6709.1636 1.14605e-16
6710.3408 1.13567e-16
6711.5186 1.02023e-16
6712.6963 1.01507e-16
6713.874 1.01499e-16
6715.0513 1.01746e-16
6716.229 1.06136e-16
6717.4067 1.05574e-16
6718.5845 1.05573e-16
6719.7622 1.02712e-16
6720.9399 1.05434e-16
6722.1177 9.3121e-17
6723.2959 1.04426e-16
6724.4736 9.8425e-17
6725.6514 1.07148e-16
6726.8296 1.10776e-16
6728.0073 1.06906e-16
6729.1855 1.00846e-16
6730.3633 1.07806e-16
6731.5415 9.59251e-17
6732.7197 9.51e-17
6733.8975 1.02692e-16
6735.0757 9.81605e-17
6736.2539 9.9277e-17
6737.4321 1.03357e-16
6738.6104 9.84885e-17
6739.7886 9.51125e-17
6740.9668 1.0194e-16
6742.1455 9.50218e-17
6743.3237 9.72303e-17
6744.502 1.01788e-16
6745.6807 1.05488e-16
6746.8589 1.04312e-16
6748.0376 9.12032e-17
6749.2158 1.01093e-16
6750.3945 9.97171e-17
6751.5732 9.74731e-17
6752.7515 9.75761e-17
6753.9302 9.178e-17
6755.1089 9.77711e-17
6756.2876 9.11869e-17
6757.4663 9.96277e-17
6758.645 9.48659e-17
6759.8237 9.40547e-17
6761.0029 1.02034e-16
6762.1816 9.9626e-17
6763.3604 1.01084e-16
6764.5396 1.13591e-16
6765.7183 9.35632e-17
6766.8975 9.36259e-17
6768.0762 9.28712e-17
6769.2554 8.86814e-17
6770.4341 9.38556e-17
6771.6133 9.84643e-17
6772.7925 9.16509e-17
6773.9717 1.00176e-16
6775.1509 1.00119e-16
6776.3301 9.58401e-17
6777.5093 9.35087e-17
6778.6885 9.35065e-17
6779.8677 9.09139e-17
6781.0474 9.46559e-17
6782.2266 9.91468e-17
6783.4058 1.0125e-16
6784.5854 9.86734e-17
6785.7646 9.71705e-17
6786.9443 8.94137e-17
6788.1235 9.13419e-17
6789.3032 9.58443e-17
6790.4829 8.98743e-17
6791.6626 1.05853e-16
6792.8418 9.23885e-17
6794.0215 9.92837e-17
6795.2012 9.91747e-17
6796.3809 9.59817e-17
6797.561 9.34166e-17
6798.7407 9.84061e-17
6799.9204 9.58227e-17
6801.1001 9.38118e-17
6802.2798 9.56777e-17
6803.46 9.75282e-17
6804.6396 9.66961e-17
6805.8198 9.32797e-17
6806.9995 1.00474e-16
6808.1797 1.01391e-16
6809.3599 9.65958e-17
6810.54 9.39203e-17
6811.7197 9.21179e-17
6812.8999 9.42789e-17
6814.0801 9.75469e-17
6815.2603 9.24019e-17
6816.4404 9.41646e-17
6817.6206 9.81058e-17
6818.8008 9.78638e-17
6819.9814 9.87944e-17
6821.1616 9.70821e-17
6822.3418 9.90917e-17
6823.5225 9.02138e-17
6824.7026 9.96388e-17
6825.8833 9.74836e-17
6827.0635 1.07479e-16
6828.2441 1.02046e-16
6829.4248 9.47946e-17
6830.6055 9.10496e-17
6831.7861 9.58997e-17
6832.9663 9.20613e-17
6834.147 1.00906e-16
6835.3276 9.35754e-17
6836.5083 9.55772e-17
6837.6895 9.57658e-17
6838.8701 9.94705e-17
6840.0508 8.88592e-17
6841.2314 9.56716e-17
6842.4126 9.58701e-17
6843.5933 9.46578e-17
6844.7744 1.04066e-16
6845.9551 9.51855e-17
6847.1362 8.89689e-17
6848.3169 9.36774e-17
6849.498 1.03241e-16
6850.6792 8.9691e-17
6851.8604 9.51025e-17
6853.0415 9.62662e-17
6854.2227 9.28463e-17
6855.4038 9.3852e-17
6856.585 9.89073e-17
6857.7661 1.06014e-16
6858.9473 1.05725e-16
6860.1284 1.01504e-16
6861.3101 9.63087e-17
6862.4912 8.75924e-17
6863.6729 9.82796e-17
6864.854 9.61541e-17
6866.0356 9.84464e-17
6867.2168 9.85665e-17
6868.3984 9.03624e-17
6869.5801 9.63205e-17
6870.7617 9.36187e-17
6871.9429 9.68371e-17
6873.1245 9.51281e-17
6874.3062 9.00135e-17
6875.4878 8.80147e-17
6876.6694 9.93436e-17
6877.8511 8.6362e-17
6879.0332 1.04662e-16
6880.2148 1.01479e-16
6881.3965 9.96827e-17
6882.5786 9.47985e-17
6883.7603 9.42062e-17
6884.9419 9.99529e-17
6886.124 1.01883e-16
6887.3062 9.543e-17
6888.4878 9.01154e-17
6889.6699 9.22344e-17
6890.8521 9.04563e-17
6892.0342 9.04491e-17
6893.2163 1.01034e-16
6894.3984 9.54026e-17
6895.5806 9.431e-17
6896.7627 1.02008e-16
6897.9448 8.7741e-17
6899.127 9.19661e-17
6900.3091 9.16922e-17
6901.4917 9.13933e-17
6902.6738 9.46084e-17
6903.856 9.47859e-17
6905.0386 8.57974e-17
6906.2207 9.34902e-17
6907.4033 9.07146e-17
6908.5859 9.66091e-17
6909.7681 8.37424e-17
6910.9507 8.88447e-17
6912.1333 9.43557e-17
6913.3159 8.68063e-17
6914.4985 9.78996e-17
6915.6812 9.3834e-17
6916.8638 8.68319e-17
6918.0464 8.97461e-17
6919.229 1.02488e-16
6920.4116 9.08692e-17
6921.5947 9.63972e-17
6922.7773 9.06854e-17
6923.96 1.00944e-16
6925.1431 9.54578e-17
6926.3257 9.57274e-17
6927.5088 8.86534e-17
6928.6914 9.41369e-17
6929.8745 8.88107e-17
6931.0576 9.57506e-17
6932.2407 9.19842e-17
6933.4238 8.97165e-17
6934.6064 8.91235e-17
6935.7896 9.21783e-17
6936.9727 8.96862e-17
6938.1558 7.78183e-17
6939.3394 9.29381e-17
6940.5225 8.95074e-17
6941.7056 9.3108e-17
6942.8887 9.56095e-17
6944.0723 9.22631e-17
6945.2554 9.2506e-17
6946.439 8.68002e-17
6947.6221 9.58157e-17
6948.8057 8.91558e-17
6949.9888 7.93142e-17
6951.1724 8.75551e-17
6952.356 8.40261e-17
6953.5396 8.64101e-17
6954.7227 8.95457e-17
6955.9067 8.3172e-17
6957.0903 8.76978e-17
6958.2739 9.09462e-17
6959.4575 8.8705e-17
6960.6411 9.02315e-17
6961.8247 8.36225e-17
6963.0083 8.8893e-17
6964.1924 9.04643e-17
6965.376 8.41597e-17
6966.5596 8.64361e-17
6967.7437 9.12325e-17
6968.9277 9.3299e-17
6970.1113 8.8461e-17
6971.2954 8.38952e-17
6972.479 8.86534e-17
6973.6631 8.92781e-17
6974.8472 8.6128e-17
6976.0312 9.15403e-17
6977.2153 8.48208e-17
6978.3994 9.87023e-17
6979.5835 8.756e-17
6980.7676 9.44644e-17
6981.9517 8.06459e-17
6983.1357 9.23938e-17
6984.3203 9.20037e-17
6985.5044 8.73111e-17
6986.6885 9.13679e-17
6987.873 8.61027e-17
6989.0571 8.37853e-17
6990.2417 8.91581e-17
6991.4258 9.13348e-17
6992.6104 8.43432e-17
6993.7949 8.3983e-17
6994.9795 8.80693e-17
6996.1636 9.3986e-17
6997.3481 8.29268e-17
6998.5327 8.38352e-17
6999.7173 9.34394e-17
7000.9019 8.73418e-17
7002.0864 8.47733e-17
7003.2715 8.98252e-17
7004.4561 9.02638e-17
7005.6406 8.90815e-17
7006.8252 8.01221e-17
7008.0103 8.49688e-17
7009.1948 9.44903e-17
7010.3799 8.60599e-17
7011.5645 8.1689e-17
7012.7495 9.06292e-17
7013.9341 9.55418e-17
7015.1191 8.97403e-17
7016.3042 8.42304e-17
7017.4893 8.70788e-17
7018.6743 8.82187e-17
7019.8594 8.26874e-17
7021.0444 8.83541e-17
7022.2295 8.27673e-17
7023.4146 8.39169e-17
7024.5996 7.78236e-17
7025.7847 9.1508e-17
7026.9697 8.28027e-17
7028.1553 8.97241e-17
7029.3403 8.78996e-17
7030.5254 8.66186e-17
7031.7109 8.64957e-17
7032.896 8.35283e-17
7034.0815 8.53198e-17
7035.2671 8.18355e-17
7036.4521 8.19533e-17
7037.6377 8.11027e-17
7038.8232 8.63551e-17
7040.0088 8.82929e-17
7041.1943 8.404e-17
7042.3799 8.76152e-17
7043.5654 8.42573e-17
7044.751 8.47046e-17
7045.9365 8.47499e-17
7047.1221 8.32708e-17
7048.3076 8.76548e-17
7049.4932 8.5326e-17
7050.6792 8.61184e-17
7051.8647 7.9405e-17
7053.0508 8.63059e-17
7054.2363 8.36983e-17
7055.4224 8.63259e-17
7056.6079 7.90409e-17
7057.7939 8.25572e-17
7058.98 8.16076e-17
7060.1655 8.42952e-17
7061.3516 8.40096e-17
7062.5376 8.54715e-17
7063.7236 8.81558e-17
7064.9097 8.49113e-17
7066.0957 9.38952e-17
7067.2817 8.0461e-17
7068.4678 7.4754e-17
7069.6543 7.87623e-17
7070.8403 8.80721e-17
7072.0264 8.05004e-17
7073.2124 8.32868e-17
7074.3989 8.91019e-17
7075.585 8.0112e-17
7076.7715 8.88356e-17
7077.9575 9.38436e-17
7079.144 7.90612e-17
7080.3306 7.46417e-17
7081.5166 8.77796e-17
7082.7031 7.44511e-17
7083.8896 8.54627e-17
7085.0762 8.68583e-17
7086.2627 8.16171e-17
7087.4492 8.35755e-17
7088.6357 7.6525e-17
7089.8223 8.59654e-17
7091.0088 8.27671e-17
7092.1953 7.83547e-17
7093.3823 8.31553e-17
7094.5688 8.72267e-17
7095.7554 8.32311e-17
7096.9424 8.19374e-17
7098.1289 7.97491e-17
7099.3159 8.35446e-17
7100.5024 8.30483e-17
7101.6895 8.36238e-17
7102.876 9.00962e-17
7104.063 8.74742e-17
7105.25 7.84528e-17
7106.437 8.81813e-17
7107.624 8.78746e-17
7108.811 7.51654e-17
7109.9976 8.85782e-17
7111.1851 8.00897e-17
7112.3721 8.45348e-17
7113.5591 9.19703e-17
7114.7461 8.16011e-17
7115.9331 8.14298e-17
7117.1206 8.44335e-17
7118.3076 7.73951e-17
7119.4946 8.86441e-17
7120.6821 8.17971e-17
7121.8691 9.59702e-17
7123.0566 8.45332e-17
7124.2441 8.17729e-17
7125.4312 8.32596e-17
7126.6187 8.44827e-17
7127.8062 7.92173e-17
7128.9932 8.56306e-17
7130.1807 8.63643e-17
7131.3682 8.21007e-17
7132.5557 9.13891e-17
7133.7432 8.87065e-17
7134.9307 8.4797e-17
7136.1182 8.81679e-17
7137.3057 7.96541e-17
7138.4937 7.89932e-17
7139.6812 8.45827e-17
7140.8687 9.20786e-17
7142.0566 8.20868e-17
7143.2441 8.32074e-17
7144.4321 8.53062e-17
7145.6196 8.52153e-17
7146.8076 8.41108e-17
7147.9951 8.85657e-17
7149.1831 8.3961e-17
7150.3711 9.25624e-17
7151.5591 8.92971e-17
7152.7466 9.40213e-17
7153.9346 8.53699e-17
7155.1226 8.22297e-17
7156.3105 8.72461e-17
7157.4985 9.05493e-17
7158.6865 8.23688e-17
7159.875 8.81245e-17
7161.063 9.31496e-17
7162.251 8.56911e-17
7163.439 7.96196e-17
7164.6274 8.83438e-17
7165.8154 8.77758e-17
7167.0039 9.05056e-17
7168.1919 9.55305e-17
7169.3804 9.89087e-17
7170.5684 9.15929e-17
7171.7568 8.93016e-17
7172.9453 8.75827e-17
7174.1333 8.50112e-17
7175.3218 9.1184e-17
7176.5103 9.47038e-17
7177.6987 8.77584e-17
7178.8872 8.24651e-17
7180.0757 8.85975e-17
7181.2642 8.65859e-17
7182.4526 9.54646e-17
7183.6411 8.36932e-17
7184.8296 8.60724e-17
7186.0181 7.97544e-17
7187.207 8.51737e-17
7188.3955 8.55932e-17
7189.5845 8.51087e-17
7190.7729 9.72132e-17
7191.9619 8.14006e-17
7193.1504 9.15488e-17
7194.3394 9.64001e-17
7195.5278 9.27459e-17
7196.7168 8.70032e-17
7197.9058 8.97447e-17
7199.0947 8.60966e-17
7200.2832 8.45502e-17
7201.4722 9.04367e-17
7202.6611 8.63766e-17
7203.8501 8.22169e-17
7205.0391 8.48426e-17
7206.228 8.9284e-17
7207.4175 9.15465e-17
7208.6064 9.46072e-17
7209.7954 8.78178e-17
7210.9844 8.42604e-17
7212.1738 8.69053e-17
7213.3628 8.2415e-17
7214.5518 8.29384e-17
7215.7412 8.25513e-17
7216.9302 8.58257e-17
7218.1196 9.33608e-17
7219.3091 8.41989e-17
7220.498 8.89155e-17
7221.6875 8.2513e-17
7222.877 8.78205e-17
7224.0664 8.17124e-17
7225.2559 8.2971e-17
7226.4453 8.93961e-17
7227.6343 9.07652e-17
7228.8242 7.74867e-17
7230.0137 8.60826e-17
7231.2031 8.70863e-17
7232.3926 8.46631e-17
7233.582 9.60757e-17
7234.7715 8.59876e-17
7235.9614 8.12667e-17
7237.1509 9.17548e-17
7238.3408 9.27088e-17
7239.5303 7.28479e-17
7240.7202 9.24616e-17
7241.9097 9.06384e-17
7243.0996 8.82682e-17
7244.2891 7.5496e-17
7245.479 8.07272e-17
7246.6689 9.52968e-17
7247.8589 9.88925e-17
7249.0483 8.72776e-17
7250.2383 7.71665e-17
7251.4282 8.97327e-17
7252.6182 8.23108e-17
7253.8081 9.40389e-17
7254.998 8.35987e-17
7256.188 8.74764e-17
7257.3784 7.62602e-17
7258.5684 8.60868e-17
7259.7583 8.07348e-17
7260.9487 8.50279e-17
7262.1387 8.44674e-17
7263.3286 8.62388e-17
7264.519 8.62108e-17
7265.709 8.2612e-17
7266.8994 8.42532e-17
7268.0898 8.15269e-17
7269.2798 8.79412e-17
7270.4702 8.75711e-17
7271.6602 7.29705e-17
7272.8506 8.30142e-17
7274.041 8.7774e-17
7275.2314 9.27354e-17
7276.4219 8.24058e-17
7277.6123 8.2062e-17
7278.8027 8.32145e-17
7279.9932 8.53182e-17
7281.1836 7.71738e-17
7282.374 8.68426e-17
7283.5649 8.64726e-17
7284.7554 9.17737e-17
7285.9458 8.76486e-17
7287.1367 8.523e-17
7288.3271 7.50686e-17
7289.5176 8.31862e-17
7290.7085 8.57836e-17
7291.8994 7.54349e-17
7293.0898 7.90184e-17
7294.2808 8.17484e-17
7295.4712 8.05412e-17
7296.6621 8.68187e-17
7297.853 8.87767e-17
7299.0439 8.57053e-17
7300.2349 8.3373e-17
7301.4258 9.62261e-17
7302.6167 7.78085e-17
7303.8076 8.32688e-17
7304.9985 8.75291e-17
7306.1895 9.28675e-17
7307.3804 8.89612e-17
7308.5713 8.11516e-17
7309.7622 8.32093e-17
7310.9536 8.69214e-17
7312.1445 8.10286e-17
7313.3359 8.29604e-17
7314.5269 8.56204e-17
7315.7178 8.14007e-17
7316.9092 8.5359e-17
7318.1001 8.92383e-17
7319.2915 9.02731e-17
7320.4829 7.54583e-17
7321.6738 8.66475e-17
7322.8652 7.6665e-17
7324.0566 8.26588e-17
7325.248 8.42865e-17
7326.4395 8.41234e-17
7327.6309 8.39359e-17
7328.8223 8.28249e-17
7330.0137 8.43764e-17
7331.2051 8.69597e-17
7332.3965 8.0725e-17
7333.5879 7.82232e-17
7334.7793 8.8134e-17
7335.9707 8.10769e-17
7337.1626 8.49277e-17
7338.354 9.5747e-17
7339.5454 7.42658e-17
7340.7373 8.58409e-17
7341.9287 8.93299e-17
7343.1206 8.27204e-17
7344.3125 8.44053e-17
7345.5039 9.25938e-17
7346.6958 8.59269e-17
7347.8872 8.73721e-17
7349.0791 8.32878e-17
7350.271 8.19811e-17
7351.4629 8.65509e-17
7352.6548 8.68804e-17
7353.8467 7.61405e-17
7355.0386 7.60167e-17
7356.2305 8.15049e-17
7357.4224 8.35508e-17
7358.6143 7.06844e-17
7359.8062 7.87281e-17
7360.998 8.35687e-17
7362.1904 8.77317e-17
7363.3823 8.18342e-17
7364.5742 8.73375e-17
7365.7661 8.28977e-17
7366.9585 7.63333e-17
7368.1504 9.27642e-17
7369.3428 8.7661e-17
7370.5347 7.48593e-17
7371.7271 8.05669e-17
7372.9194 7.95111e-17
7374.1113 8.5837e-17
7375.3037 8.60431e-17
7376.4961 7.80985e-17
7377.6885 8.31094e-17
7378.8804 7.71526e-17
7380.0728 8.2031e-17
7381.2651 8.32119e-17
7382.4575 8.95649e-17
7383.6499 7.77223e-17
7384.8423 7.75235e-17
7386.0347 8.73613e-17
7387.2275 8.57158e-17
7388.4199 8.41468e-17
7389.6123 8.34104e-17
7390.8047 8.68942e-17
7391.9976 8.23267e-17
7393.1899 7.7796e-17
7394.3828 8.5555e-17
7395.5752 8.61211e-17
7396.7681 8.48628e-17
7397.9604 7.36733e-17
7399.1533 8.33372e-17
7400.3457 8.32792e-17
7401.5386 7.68316e-17
7402.7314 8.53074e-17
7403.9243 7.76283e-17
7405.1167 7.70722e-17
7406.3096 8.54167e-17
7407.5024 8.1242e-17
7408.6953 8.70768e-17
7409.8882 7.89571e-17
7411.0811 8.5035e-17
7412.2739 7.72446e-17
7413.4668 7.87241e-17
7414.6597 7.9392e-17
7415.853 8.0912e-17
7417.0459 8.00406e-17
7418.2388 7.37392e-17
7419.4321 8.28788e-17
7420.625 7.4552e-17
7421.8179 8.15762e-17
7423.0112 7.82571e-17
7424.2041 8.18356e-17
7425.3975 7.93428e-17
7426.5908 7.86394e-17
7427.7837 7.76678e-17
7428.9771 7.25758e-17
7430.1704 7.8881e-17
7431.3633 7.63481e-17
7432.5566 9.07121e-17
7433.75 7.85218e-17
7434.9434 7.45421e-17
7436.1367 8.33703e-17
7437.3301 8.29838e-17
7438.5234 7.67141e-17
7439.7168 8.37189e-17
7440.9102 8.18429e-17
7442.1035 8.52218e-17
7443.2969 8.04233e-17
7444.4902 7.82662e-17
7445.6841 7.90224e-17
7446.8774 8.18584e-17
7448.0708 8.58945e-17
7449.2646 8.64344e-17
7450.458 8.00624e-17
7451.6519 7.33921e-17
7452.8452 7.18312e-17
7454.0391 8.28912e-17
7455.2324 7.64855e-17
7456.4263 7.46153e-17
7457.6201 7.69601e-17
7458.8135 7.3045e-17
7460.0073 8.34984e-17
7461.2012 7.85457e-17
7462.395 8.12819e-17
7463.5884 8.11876e-17
7464.7827 8.12416e-17
7465.9761 8.1339e-17
7467.1699 7.2013e-17
7468.3638 7.15354e-17
7469.5581 8.30076e-17
7470.752 7.82379e-17
7471.9458 8.05836e-17
7473.1396 7.31613e-17
7474.3335 8.0715e-17
7475.5278 7.85201e-17
7476.7217 7.8096e-17
7477.9155 8.4162e-17
7479.1099 7.18601e-17
7480.3037 8.05959e-17
7481.498 7.99699e-17
7482.6919 9.093e-17
7483.8862 7.85373e-17
7485.0801 7.77668e-17
7486.2744 8.09034e-17
7487.4688 7.82232e-17
7488.6631 7.9963e-17
7489.8569 8.09214e-17
7491.0513 6.90366e-17
7492.2456 8.192e-17
7493.4399 7.89163e-17
7494.6343 7.94461e-17
7495.8286 7.0857e-17
7497.0229 7.55777e-17
7498.2173 8.14031e-17
7499.4116 8.24479e-17
7500.606 7.75552e-17
7501.8003 7.2836e-17
7502.9951 7.7935e-17
7504.1895 7.49744e-17
7505.3838 7.99979e-17
7506.5781 7.20337e-17
7507.7729 7.58431e-17
7508.9673 7.17314e-17
7510.1621 7.35281e-17
7511.3564 7.07971e-17
7512.5513 7.61275e-17
7513.7456 7.25982e-17
7514.9404 6.89721e-17
7516.1348 7.82071e-17
7517.3296 8.07979e-17
7518.5244 7.55894e-17
7519.7192 7.46511e-17
7520.9141 7.43053e-17
7522.1084 7.39418e-17
7523.3032 7.96296e-17
7524.498 8.02609e-17
7525.6929 6.75055e-17
7526.8877 6.72659e-17
7528.0825 7.90208e-17
7529.2773 7.6698e-17
7530.4722 7.07467e-17
7531.6675 6.81963e-17
7532.8623 7.15632e-17
7534.0571 8.01844e-17
7535.252 7.8128e-17
7536.4473 7.59324e-17
7537.6421 7.37779e-17
7538.8369 7.2112e-17
7540.0322 7.74595e-17
7541.2271 7.82969e-17
7542.4224 7.66557e-17
7543.6172 7.06213e-17
7544.8125 7.1209e-17
7546.0078 7.54117e-17
7547.2026 8.15454e-17
7548.3979 6.92146e-17
7549.5933 7.974e-17
7550.7881 7.37152e-17
7551.9834 7.65244e-17
7553.1787 8.02232e-17
7554.374 6.91031e-17
7555.5693 7.35556e-17
7556.7646 7.90599e-17
7557.96 7.06844e-17
7559.1553 7.5742e-17
7560.3506 6.89356e-17
7561.5459 7.59482e-17
7562.7412 7.68685e-17
7563.937 7.38635e-17
7565.1323 7.39586e-17
7566.3276 7.29672e-17
7567.5234 8.06121e-17
7568.7188 7.473e-17
7569.9141 7.38529e-17
7571.1099 8.10306e-17
7572.3052 7.7909e-17
7573.5005 8.49101e-17
7574.6963 8.31204e-17
7575.8921 7.34988e-17
7577.0874 7.82178e-17
7578.2832 7.8898e-17
7579.479 8.26725e-17
7580.6743 7.17569e-17
7581.8701 7.08804e-17
7583.0659 7.3234e-17
7584.2617 6.73083e-17
7585.4575 6.84172e-17
7586.6533 7.39167e-17
7587.8486 7.09236e-17
7589.0444 6.91899e-17
7590.2402 8.44624e-17
7591.4365 7.84365e-17
7592.6323 7.6675e-17
7593.8281 7.56662e-17
7595.0239 6.76463e-17
7596.2197 7.43561e-17
7597.4155 7.59618e-17
7598.6118 6.31785e-17
7599.8076 7.44726e-17
7601.0034 8.2639e-17
7602.1997 6.55974e-17
7603.3955 7.00638e-17
7604.5913 6.93288e-17
7605.7876 6.13111e-17
7606.9834 7.84283e-17
7608.1797 6.47372e-17
7609.376 6.40607e-17
7610.5718 5.89601e-17
7611.7681 8.02156e-17
7612.9644 5.56585e-17
7614.1602 6.86564e-17
7615.3564 6.08974e-17
7616.5527 6.93067e-17
7617.749 8.58921e-17
7618.9453 8.10039e-17
7620.1416 7.81507e-17
7621.3379 8.50083e-17
7622.5342 6.97979e-17
7623.7305 7.68266e-17
7624.9268 7.28339e-17
7626.123 7.3941e-17
7627.3193 7.09256e-17
7628.5156 7.32633e-17
7629.7119 7.12007e-17
7630.9087 7.10531e-17
7632.105 8.27605e-17
7633.3013 7.01383e-17
7634.4976 7.18384e-17
7635.6943 6.89152e-17
7636.8906 7.36372e-17
7638.0874 7.39805e-17
7639.2837 7.75865e-17
7640.4805 8.59772e-17
7641.6768 6.99234e-17
7642.8735 6.86828e-17
7644.0703 7.26298e-17
7645.2666 7.16035e-17
7646.4634 7.62342e-17
7647.6602 6.97155e-17
7648.8569 6.59972e-17
7650.0532 6.7344e-17
7651.25 7.30693e-17
7652.4468 7.58329e-17
7653.6436 6.69149e-17
7654.8403 6.76749e-17
7656.0371 6.90066e-17
7657.2339 8.2662e-17
7658.4307 8.37349e-17
7659.6274 7.13372e-17
7660.8242 7.20648e-17
7662.021 6.28057e-17
7663.2178 7.26728e-17
7664.415 7.28564e-17
7665.6118 7.1746e-17
7666.8086 7.60749e-17
7668.0054 7.4157e-17
7669.2026 6.84406e-17
7670.3994 7.81734e-17
7671.5967 7.59314e-17
7672.7935 7.36836e-17
7673.9907 6.76645e-17
7675.1875 7.64893e-17
7676.3848 7.46939e-17
7677.5815 7.30258e-17
7678.7788 7.00589e-17
7679.9761 7.58965e-17
7681.1729 7.29575e-17
7682.3701 6.51625e-17
7683.5674 6.14764e-17
7684.7642 7.64562e-17
7685.9614 7.58499e-17
7687.1587 7.1455e-17
7688.356 7.94366e-17
7689.5532 5.93874e-17
7690.7505 7.14963e-17
7691.9478 6.64678e-17
7693.145 6.66627e-17
7694.3423 6.37972e-17
7695.5396 7.73626e-17
7696.7368 7.61329e-17
7697.9341 7.75622e-17
7699.1318 5.95585e-17
7700.3291 7.25105e-17
7701.5264 7.49526e-17
7702.7241 6.99336e-17
7703.9214 7.01098e-17
7705.1187 7.34357e-17
7706.3164 7.30993e-17
7707.5137 6.93754e-17
7708.7109 6.05049e-17
7709.9087 7.19611e-17
7711.106 8.56785e-17
7712.3037 9.06005e-17
7713.501 5.78247e-17
7714.6987 7.85433e-17
7715.8965 7.105e-17
7717.0942 6.74862e-17
7718.2915 7.45669e-17
7719.4893 7.16828e-17
7720.687 7.38617e-17
7721.8843 6.79134e-17
7723.082 5.92272e-17
7724.2798 6.88741e-17
7725.4775 7.0183e-17
7726.6753 7.49626e-17
7727.873 6.46012e-17
7729.0708 6.84679e-17
7730.2686 7.00317e-17
7731.4663 7.79098e-17
7732.6641 6.64813e-17
7733.8618 7.09235e-17
7735.0596 6.88308e-17
7736.2578 8.07533e-17
7737.4556 7.57596e-17
7738.6533 6.32943e-17
7739.8511 6.99774e-17
7741.0493 6.65125e-17
7742.2471 6.94516e-17
7743.4453 6.92381e-17
7744.6431 7.66444e-17
7745.8408 5.70961e-17
7747.0391 7.28509e-17
7748.2368 7.21971e-17
7749.4351 7.92239e-17
7750.6328 5.88643e-17
7751.8311 6.64541e-17
7753.0293 6.77124e-17
7754.2271 6.37722e-17
7755.4253 5.77462e-17
7756.6235 6.89639e-17
7757.8213 5.85206e-17
7759.0195 7.53187e-17
7760.2178 6.57843e-17
7761.416 5.93685e-17
7762.6143 7.28695e-17
7763.8125 6.96957e-17
7765.0107 6.91328e-17
7766.209 6.46454e-17
7767.4072 7.32859e-17
7768.6055 7.02398e-17
7769.8037 6.95549e-17
7771.002 6.67027e-17
7772.2002 6.51862e-17
7773.3984 6.97438e-17
7774.5967 6.29176e-17
7775.7949 7.15207e-17
7776.9937 6.71086e-17
7778.1919 6.84831e-17
7779.3901 6.76416e-17
7780.5884 6.63159e-17
7781.7871 6.18096e-17
7782.9854 6.62892e-17
7784.1841 6.55202e-17
7785.3823 6.88664e-17
7786.5806 6.962e-17
7787.7793 6.80298e-17
7788.978 7.40588e-17
7790.1763 7.60196e-17
7791.375 7.08721e-17
7792.5732 6.67791e-17
7793.772 6.94117e-17
7794.9707 8.18677e-17
7796.1694 6.34145e-17
7797.3677 7.11157e-17
7798.5664 7.94186e-17
7799.7651 6.49528e-17
7800.9639 6.66874e-17
7802.1621 6.46365e-17
7803.3608 6.53364e-17
7804.5596 6.80666e-17
7805.7583 6.71691e-17
7806.957 7.17762e-17
7808.1558 7.01533e-17
7809.3545 6.41548e-17
7810.5532 7.51063e-17
7811.752 6.29127e-17
7812.9507 7.71993e-17
7814.1499 6.99392e-17
7815.3486 6.41712e-17
7816.5474 6.61294e-17
7817.7461 6.22752e-17
7818.9448 5.4001e-17
7820.144 7.11954e-17
7821.3428 6.10466e-17
7822.5415 6.44937e-17
7823.7407 6.69651e-17
7824.9395 6.36829e-17
7826.1387 6.73688e-17
7827.3374 7.13768e-17
7828.5366 6.82063e-17
7829.7354 6.29591e-17
7830.9346 6.88124e-17
7832.1333 6.80232e-17
7833.3325 6.77394e-17
7834.5312 6.86068e-17
7835.7305 6.3971e-17
7836.9297 7.17152e-17
7838.1284 6.26618e-17
7839.3276 5.85904e-17
7840.5269 6.69473e-17
7841.7261 7.42748e-17
7842.9253 5.77783e-17
7844.124 6.93133e-17
7845.3232 6.74769e-17
7846.5225 6.86891e-17
7847.7217 6.56036e-17
7848.9209 7.8448e-17
7850.1201 6.60045e-17
7851.3193 5.22819e-17
7852.5186 5.58925e-17
7853.7178 5.93986e-17
7854.917 5.97696e-17
7856.1162 6.42069e-17
7857.3159 5.87798e-17
7858.5151 6.11489e-17
7859.7144 6.16709e-17
7860.9136 6.54773e-17
7862.1128 6.29503e-17
7863.3125 6.34245e-17
7864.5117 7.61131e-17
7865.7109 5.85275e-17
7866.9106 5.93193e-17
7868.1099 5.97017e-17
7869.3091 6.10179e-17
7870.5088 6.01763e-17
7871.708 6.5952e-17
7872.9077 5.31856e-17
7874.1069 5.80547e-17
7875.3066 6.22593e-17
7876.5059 6.47486e-17
7877.7056 7.46253e-17
7878.9053 5.39199e-17
7880.1045 5.49748e-17
7881.3042 6.18055e-17
7882.5039 6.79494e-17
7883.7036 5.2971e-17
7884.9028 5.85152e-17
7886.1025 6.19052e-17
7887.3022 6.03202e-17
7888.502 7.33536e-17
7889.7012 6.09682e-17
7890.9009 7.03483e-17
7892.1006 5.98518e-17
7893.3003 6.96963e-17
7894.5 6.22603e-17
7895.6997 6.24346e-17
7896.8994 6.77246e-17
7898.0991 6.15583e-17
7899.2988 6.57007e-17
7900.4985 6.30534e-17
7901.6987 5.30317e-17
7902.8984 6.19133e-17
7904.0981 6.20213e-17
7905.2979 6.59264e-17
7906.4976 6.66264e-17
7907.6973 6.70896e-17
7908.8975 5.93636e-17
7910.0972 6.30074e-17
7911.2969 6.00499e-17
7912.4971 6.5696e-17
7913.6968 6.7681e-17
7914.8965 6.80797e-17
7916.0967 4.82554e-17
7917.2964 6.63445e-17
7918.4966 6.83835e-17
7919.6963 8.23787e-17
7920.8965 7.18061e-17
7922.0962 6.24771e-17
7923.2964 6.66125e-17
7924.4961 5.15102e-17
7925.6963 5.99836e-17
7926.8965 6.26254e-17
7928.0962 6.54422e-17
7929.2964 5.82894e-17
7930.4966 6.29345e-17
7931.6963 6.08677e-17
7932.8965 6.61894e-17
7934.0967 6.56171e-17
7935.2969 6.4174e-17
7936.4971 5.91811e-17
7937.6968 7.12043e-17
7938.897 6.33936e-17
7940.0972 6.2547e-17
7941.2974 6.37208e-17
7942.4976 6.73847e-17
7943.6978 6.26482e-17
7944.8979 6.46325e-17
7946.0981 6.36382e-17
7947.2983 6.63528e-17
7948.4985 6.37461e-17
7949.6987 6.19671e-17
7950.8989 7.07012e-17
7952.0996 6.31775e-17
7953.2998 5.61512e-17
7954.5 6.49523e-17
7955.7002 5.4609e-17
7956.9004 6.61851e-17
7958.1006 6.42334e-17
7959.3013 6.31276e-17
7960.5015 6.13581e-17
7961.7017 6.30136e-17
7962.9023 6.52773e-17
7964.1025 5.24196e-17
7965.3032 5.91051e-17
7966.5034 5.44688e-17
7967.7036 6.68556e-17
7968.9043 7.73395e-17
7970.1045 5.90496e-17
7971.3052 6.5425e-17
7972.5054 6.36046e-17
7973.7061 6.68072e-17
7974.9062 6.51649e-17
7976.1069 7.43483e-17
7977.3076 5.4463e-17
7978.5078 6.9168e-17
7979.7085 7.07398e-17
7980.9092 5.37167e-17
7982.1094 6.92037e-17
7983.3101 6.12556e-17
7984.5107 6.19977e-17
7985.7114 5.45432e-17
7986.9116 5.70703e-17
7988.1123 5.53057e-17
7989.313 5.7188e-17
7990.5137 6.04739e-17
7991.7144 5.82204e-17
7992.915 7.22047e-17
7994.1157 7.27686e-17
7995.3159 5.66415e-17
7996.5166 6.77131e-17
7997.7173 6.80672e-17
7998.918 6.66541e-17
8000.1191 5.76011e-17
8001.3198 7.53897e-17
8002.5205 6.35158e-17
8003.7212 5.67229e-17
8004.9219 5.63493e-17
8006.1226 6.32285e-17
8007.3232 6.35742e-17
8008.5239 5.76531e-17
8009.7246 6.15345e-17
8010.9258 6.04939e-17
8012.1265 6.60926e-17
8013.3271 5.75125e-17
8014.5278 6.31036e-17
8015.729 5.80156e-17
8016.9297 6.85209e-17
8018.1304 6.22062e-17
8019.3315 6.32735e-17
8020.5322 5.93094e-17
8021.7334 5.78173e-17
8022.9341 5.60417e-17
8024.1348 5.45294e-17
8025.3359 5.58105e-17
8026.5366 6.77509e-17
8027.7378 4.29323e-17
8028.9385 5.87507e-17
8030.1396 6.5772e-17
8031.3408 6.57619e-17
8032.5415 5.5704e-17
8033.7427 6.0257e-17
8034.9434 6.33465e-17
8036.1445 5.98885e-17
8037.3457 5.98233e-17
8038.5464 5.93164e-17
8039.7476 5.4431e-17
8040.9487 5.27781e-17
8042.1499 5.68906e-17
8043.3506 5.75515e-17
8044.5518 5.38467e-17
8045.7529 5.4052e-17
8046.9541 5.17847e-17
8048.1553 4.67223e-17
8049.356 5.83156e-17
8050.5571 6.47626e-17
8051.7583 6.33255e-17
8052.9595 6.00199e-17
8054.1606 5.31624e-17
8055.3618 5.42695e-17
8056.563 6.2202e-17
8057.7642 5.82407e-17
8058.9653 6.02871e-17
8060.1665 5.57799e-17
8061.3677 5.40499e-17
8062.5688 5.89224e-17
8063.77 6.33438e-17
8064.9712 5.59038e-17
8066.1729 5.33227e-17
8067.374 4.90821e-17
8068.5752 5.96901e-17
8069.7764 6.66235e-17
8070.9775 5.26657e-17
8072.1792 5.86599e-17
8073.3804 5.65438e-17
8074.5815 5.46117e-17
8075.7827 6.20026e-17
8076.9844 5.33625e-17
8078.1855 6.03364e-17
8079.3867 5.22831e-17
8080.5884 6.18112e-17
8081.7896 5.38696e-17
8082.9912 5.22387e-17
8084.1924 6.31423e-17
8085.3936 5.1744e-17
8086.5952 5.81488e-17
8087.7964 5.27356e-17
8088.998 5.44094e-17
8090.1992 5.64116e-17
8091.4009 5.83238e-17
8092.6021 5.05512e-17
8093.8037 6.07922e-17
8095.0049 5.47446e-17
8096.2065 5.71612e-17
8097.4082 5.30084e-17
8098.6094 5.58629e-17
8099.811 5.26192e-17
8101.0127 4.97987e-17
8102.2139 5.22439e-17
8103.4155 4.99866e-17
8104.6172 5.04732e-17
8105.8184 5.32623e-17
8107.02 6.22791e-17
8108.2217 5.87913e-17
8109.4233 5.54579e-17
8110.6245 5.59374e-17
8111.8262 5.06428e-17
8113.0278 5.22964e-17
8114.2295 5.06215e-17
8115.4312 5.63873e-17
8116.6328 5.42e-17
8117.8345 4.92684e-17
8119.0361 5.52995e-17
8120.2373 5.67551e-17
8121.439 5.64499e-17
8122.6406 5.10001e-17
8123.8423 6.26315e-17
8125.0439 5.30523e-17
8126.2456 5.37294e-17
8127.4473 5.65653e-17
8128.6489 6.30016e-17
8129.8506 5.10824e-17
8131.0527 5.70425e-17
8132.2544 5.53901e-17
8133.4561 5.46218e-17
8134.6577 5.62421e-17
8135.8594 5.83633e-17
8137.061 6.27028e-17
8138.2627 6.33627e-17
8139.4648 4.9595e-17
8140.6665 6.43043e-17
8141.8682 5.60827e-17
8143.0698 5.7105e-17
8144.2715 6.85884e-17
8145.4736 5.8009e-17
8146.6753 6.28419e-17
8147.877 5.70643e-17
8149.0791 5.10402e-17
8150.2808 5.672e-17
8151.4824 5.53793e-17
8152.6846 6.21401e-17
8153.8862 5.81064e-17
8155.0879 5.9783e-17
8156.29 5.88866e-17
8157.4917 5.96499e-17
8158.6938 7.43578e-17
8159.8955 6.83272e-17
8161.0977 6.36287e-17
8162.2993 6.2998e-17
8163.5015 6.08997e-17
8164.7031 6.6941e-17
8165.9053 6.42488e-17
8167.1069 5.78792e-17
8168.3091 6.64919e-17
8169.5107 6.76995e-17
8170.7129 6.29298e-17
8171.915 6.0988e-17
8173.1167 6.5108e-17
8174.3188 6.48179e-17
8175.521 5.88716e-17
8176.7227 5.76729e-17
8177.9248 6.4028e-17
8179.1265 5.84201e-17
8180.3286 6.52318e-17
8181.5308 6.795e-17
8182.7329 5.50927e-17
8183.9346 6.92422e-17
8185.1367 5.94888e-17
8186.3389 6.80936e-17
8187.541 5.63776e-17
8188.7432 6.43875e-17
8189.9448 6.70012e-17
8191.147 6.42667e-17
8192.3496 6.7423e-17
8193.5508 6.31148e-17
8194.7529 6.83114e-17
8195.9551 6.08513e-17
8197.1572 6.71499e-17
8198.3594 6.64541e-17
8199.5615 6.44375e-17
8200.7637 6.08934e-17
8201.9658 7.17598e-17
8203.168 6.21673e-17
8204.3701 6.66828e-17
8205.5723 6.71631e-17
8206.7744 6.47426e-17
8207.9766 6.15033e-17
8209.1787 7.24994e-17
8210.3809 5.5957e-17
8211.583 6.61838e-17
8212.7852 5.99827e-17
8213.9873 6.66371e-17
8215.1895 6.84746e-17
8216.3916 6.95511e-17
8217.5938 6.33673e-17
8218.7969 7.06029e-17
8219.999 6.82402e-17
8221.2012 7.27773e-17
8222.4033 6.4763e-17
8223.6055 7.1989e-17
8224.8076 6.66432e-17
8226.0098 7.95266e-17
8227.2119 6.5528e-17
8228.4141 6.12423e-17
8229.6162 5.52502e-17
8230.8193 5.85912e-17
8232.0215 6.22731e-17
8233.2236 6.44682e-17
8234.4258 6.24718e-17
8235.6279 5.81488e-17
8236.8301 6.47649e-17
8238.0322 7.09683e-17
8239.2354 6.80094e-17
8240.4375 6.32653e-17
8241.6396 6.80544e-17
8242.8418 6.36225e-17
8244.0439 6.27168e-17
8245.2471 6.96239e-17
8246.4492 6.75652e-17
8247.6514 6.76262e-17
8248.8535 6.87733e-17
8250.0557 7.23516e-17
8251.2588 6.70369e-17
8252.4609 6.49884e-17
8253.6631 6.30792e-17
8254.8652 6.68267e-17
8256.0684 6.74059e-17
8257.2705 6.80456e-17
8258.4727 6.61526e-17
8259.6748 7.03605e-17
8260.8779 6.93857e-17
8262.0801 6.14767e-17
8263.2822 6.3121e-17
8264.4854 6.3861e-17
8265.6875 6.68201e-17
8266.8896 7.10713e-17
8268.0928 6.87346e-17
8269.2949 6.93746e-17
8270.4971 6.2417e-17
8271.6992 6.83761e-17
8272.9023 5.99726e-17
8274.1045 6.42496e-17
8275.3066 6.22034e-17
8276.5098 6.46878e-17
8277.7119 7.60586e-17
8278.9141 5.51361e-17
8280.1172 6.94945e-17
8281.3193 6.57248e-17
8282.5225 7.26521e-17
8283.7246 6.29723e-17
8284.9268 6.24555e-17
8286.1299 6.92676e-17
8287.332 5.09356e-17
8288.5352 5.48646e-17
8289.7373 7.99494e-17
8290.9395 7.08819e-17
8292.1426 6.57823e-17
8293.3447 6.95297e-17
8294.5479 6.87023e-17
8295.75 5.18514e-17
8296.9521 5.32504e-17
8298.1553 6.20929e-17
8299.3574 5.6867e-17
8300.5605 5.55523e-17
8301.7627 6.45122e-17
8302.9658 6.9926e-17
8304.168 6.13954e-17
8305.3701 7.43787e-17
8306.5732 6.32143e-17
8307.7754 5.49217e-17
8308.9785 6.92691e-17
8310.1807 6.39742e-17
8311.3838 6.66441e-17
8312.5859 5.99774e-17
8313.7891 5.85962e-17
8314.9912 6.21401e-17
8316.1943 6.23248e-17
8317.3965 6.08039e-17
8318.5996 5.85828e-17
8319.8018 6.40789e-17
8321.0049 6.29601e-17
8322.207 6.2805e-17
8323.4102 6.88975e-17
8324.6133 7.04837e-17
8325.8154 7.43606e-17
8327.0186 7.21068e-17
8328.2207 7.58992e-17
8329.4238 7.14354e-17
8330.626 6.3851e-17
8331.8291 6.41453e-17
8333.0312 6.44007e-17
8334.2344 6.26905e-17
8335.4365 6.29863e-17
8336.6396 6.20746e-17
8337.8428 6.42578e-17
8339.0449 6.22625e-17
8340.248 6.30572e-17
8341.4502 4.92086e-17
8342.6533 5.95852e-17
8343.8564 5.41372e-17
8345.0586 6.00838e-17
8346.2617 5.34189e-17
8347.4639 5.47053e-17
8348.667 5.91188e-17
8349.8701 6.544e-17
8351.0723 6.06357e-17
8352.2754 6.14049e-17
8353.4775 7.12215e-17
8354.6807 5.85254e-17
8355.8838 6.50625e-17
8357.0859 6.91839e-17
8358.2891 6.68764e-17
8359.4922 6.75042e-17
8360.6943 6.28585e-17
8361.8975 7.65089e-17
8363.1006 5.72113e-17
8364.3027 6.36733e-17
8365.5059 5.22452e-17
8366.709 7.30356e-17
8367.9111 7.50756e-17
8369.1143 6.20357e-17
8370.3174 6.91053e-17
8371.5195 6.36342e-17
8372.7227 6.64449e-17
8373.9258 6.53183e-17
8375.1279 5.97632e-17
8376.3311 6.0513e-17
8377.5342 5.81832e-17
8378.7363 7.17412e-17
8379.9395 6.28071e-17
8381.1426 6.94493e-17
8382.3447 5.95457e-17
8383.5479 8.24789e-17
8384.751 6.82881e-17
8385.9541 6.25211e-17
8387.1562 6.3158e-17
8388.3594 6.56417e-17
8389.5625 5.91253e-17
8390.7656 5.97261e-17
8391.9678 6.28787e-17
8393.1709 6.62597e-17
8394.374 6.53633e-17
8395.5771 5.66258e-17
8396.7793 6.11268e-17
8397.9824 6.43556e-17
8399.1855 3.94287e-17
8400.3887 5.14427e-17
8401.5908 4.60293e-17
8402.7939 7.65274e-17
8403.9971 5.70332e-17
8405.1992 6.26282e-17
8406.4023 6.40189e-17
8407.6055 6.72178e-17
8408.8086 6.68964e-17
8410.0117 6.30064e-17
8411.2139 5.44039e-17
8412.417 6.02845e-17
8413.6201 5.88296e-17
8414.8232 5.87303e-17
8416.0254 5.39233e-17
8417.2285 5.58784e-17
8418.4316 5.7458e-17
8419.6348 6.31617e-17
8420.8379 6.01246e-17
8422.04 5.61987e-17
8423.2432 6.20244e-17
8424.4463 6.77016e-17
8425.6494 6.28042e-17
8426.8525 7.21727e-17
8428.0547 7.05052e-17
8429.2578 4.67287e-17
8430.4609 5.7943e-17
8431.6641 8.03652e-17
8432.8672 6.13886e-17
8434.0693 5.68606e-17
8435.2725 5.89118e-17
8436.4756 6.46388e-17
8437.6787 6.56438e-17
8438.8818 6.97807e-17
8440.085 6.17107e-17
8441.2871 6.56749e-17
8442.4902 6.53021e-17
8443.6934 6.16055e-17
8444.8965 6.35985e-17
8446.0996 6.25082e-17
8447.3027 5.56782e-17
8448.5049 6.56861e-17
8449.708 5.39198e-17
8450.9111 7.29131e-17
8452.1143 6.19224e-17
8453.3174 6.87492e-17
8454.5205 6.02824e-17
8455.7227 6.25069e-17
8456.9258 6.91118e-17
8458.1289 6.89833e-17
8459.332 6.68498e-17
8460.5352 5.84218e-17
8461.7383 5.69532e-17
8462.9414 7.0352e-17
8464.1436 6.81213e-17
8465.3467 4.44912e-17
8466.5498 5.16747e-17
8467.7529 6.87655e-17
8468.9561 5.52807e-17
8470.1592 5.6949e-17
8471.3623 6.29319e-17
8472.5645 6.26499e-17
8473.7676 5.75898e-17
8474.9707 6.67292e-17
8476.1738 6.4402e-17
8477.377 6.50078e-17
8478.5801 6.72429e-17
8479.7832 6.5363e-17
8480.9863 6.23385e-17
8482.1885 6.23221e-17
8483.3916 6.51929e-17
8484.5947 6.17799e-17
8485.7979 6.69382e-17
8487.001 6.16975e-17
8488.2041 6.9439e-17
8489.4072 6.69944e-17
8490.6104 5.69294e-17
8491.8135 5.92631e-17
8493.0156 6.28267e-17
8494.2188 5.62346e-17
8495.4219 6.7546e-17
8496.625 6.15107e-17
8497.8281 5.60141e-17
8499.0312 5.80432e-17
8500.2344 5.93551e-17
8501.4375 6.13688e-17
8502.6396 6.79539e-17
8503.8428 6.58318e-17
8505.0459 6.21006e-17
8506.249 6.92838e-17
8507.4521 5.41978e-17
8508.6553 6.39625e-17
8509.8584 6.08231e-17
8511.0615 6.08687e-17
8512.2646 5.55421e-17
8513.4678 6.28765e-17
8514.6699 6.51939e-17
8515.873 6.2566e-17
8517.0762 6.19526e-17
8518.2793 6.09461e-17
8519.4824 6.32722e-17
8520.6855 6.39528e-17
8521.8887 6.4402e-17
8523.0918 6.23165e-17
8524.2949 5.50003e-17
8525.4971 5.97356e-17
8526.7002 6.47977e-17
8527.9033 6.042e-17
8529.1064 6.09024e-17
8530.3096 6.13732e-17
8531.5127 6.19756e-17
8532.7158 6.47648e-17
8533.9189 6.23522e-17
8535.1221 6.51905e-17
8536.3252 5.747e-17
8537.5273 6.79576e-17
8538.7305 6.50822e-17
8539.9336 6.7438e-17
8541.1367 5.47773e-17
8542.3398 6.52558e-17
8543.543 6.43693e-17
8544.7461 6.48668e-17
8545.9492 6.54596e-17
8547.1523 6.23368e-17
8548.3555 5.89288e-17
8549.5576 5.61091e-17
8550.7607 6.57424e-17
8551.9639 5.65801e-17
8553.167 6.36045e-17
8554.3701 5.82712e-17
8555.5732 5.59544e-17
8556.7764 5.86712e-17
8557.9795 6.28306e-17
8559.1826 5.32138e-17
8560.3857 5.89796e-17
8561.5879 6.03029e-17
8562.791 5.91246e-17
8563.9941 6.19774e-17
8565.1973 5.90853e-17
8566.4004 5.80882e-17
8567.6035 5.69537e-17
8568.8066 5.28876e-17
8570.0098 6.3164e-17
8571.2129 5.73693e-17
8572.415 5.42764e-17
8573.6182 5.92991e-17
8574.8213 5.66181e-17
8576.0244 5.69477e-17
8577.2275 5.39735e-17
8578.4307 6.37708e-17
8579.6338 5.82e-17
8580.8369 5.79557e-17
8582.04 5.44594e-17
8583.2422 5.43495e-17
8584.4453 5.94994e-17
8585.6484 5.70057e-17
8586.8516 6.2909e-17
8588.0547 5.91505e-17
8589.2578 5.51393e-17
8590.4609 5.45852e-17
8591.6641 6.13807e-17
8592.8672 5.93239e-17
8594.0693 5.5785e-17
8595.2725 5.42286e-17
8596.4756 5.14932e-17
8597.6787 6.61349e-17
8598.8818 5.86386e-17
8600.085 5.25091e-17
8601.2881 6.40467e-17
8602.4902 5.91308e-17
8603.6934 5.70485e-17
8604.8965 5.89535e-17
8606.0996 6.54679e-17
8607.3027 5.28986e-17
8608.5059 5.46861e-17
8609.709 5.4823e-17
8610.9111 5.42386e-17
8612.1143 5.66174e-17
8613.3174 5.78213e-17
8614.5205 5.35836e-17
8615.7236 5.88677e-17
8616.9268 5.89723e-17
8618.1299 6.32445e-17
8619.332 6.13406e-17
8620.5352 6.44985e-17
8621.7383 5.5368e-17
8622.9414 5.9371e-17
8624.1445 6.10768e-17
8625.3477 5.05688e-17
8626.5498 6.1668e-17
8627.7529 6.42196e-17
8628.9561 4.83509e-17
8630.1592 6.05654e-17
8631.3623 5.22441e-17
8632.5654 6.38919e-17
8633.7676 5.59737e-17
8634.9707 5.67281e-17
8636.1738 5.6096e-17
8637.377 5.45276e-17
8638.5801 5.44635e-17
8639.7822 5.71677e-17
8640.9854 4.84326e-17
8642.1885 6.0018e-17
8643.3916 5.90639e-17
8644.5947 6.42823e-17
8645.7979 5.03294e-17
8647.0 5.61887e-17
8648.2031 5.44991e-17
8649.4062 5.48592e-17
8650.6094 5.59455e-17
8651.8115 5.47101e-17
8653.0146 5.2978e-17
8654.2178 4.85292e-17
8655.4209 5.5575e-17
8656.624 5.46771e-17
8657.8262 6.33539e-17
8659.0293 5.70014e-17
8660.2324 6.30522e-17
8661.4355 6.42443e-17
8662.6387 6.13003e-17
8663.8408 6.22171e-17
8665.0439 6.02614e-17
8666.2471 5.44296e-17
8667.4502 5.4938e-17
8668.6523 4.95759e-17
8669.8555 5.21364e-17
8671.0586 4.4158e-17
8672.2617 5.62204e-17
8673.4639 5.69298e-17
8674.667 5.26748e-17
8675.8701 5.9765e-17
8677.0732 5.42593e-17
8678.2754 5.29859e-17
8679.4785 4.74268e-17
8680.6816 5.89226e-17
8681.8848 4.9526e-17
8683.0869 5.93787e-17
8684.29 5.47301e-17
8685.4932 5.56653e-17
8686.6953 5.17264e-17
8687.8984 5.52614e-17
8689.1016 5.47333e-17
8690.3047 5.88514e-17
8691.5068 5.36831e-17
8692.71 5.22055e-17
8693.9131 4.7229e-17
8695.1152 4.6829e-17
8696.3184 5.74199e-17
8697.5215 6.21487e-17
8698.7236 4.59637e-17
8699.9268 5.60873e-17
8701.1299 5.44111e-17
8702.332 4.84095e-17
8703.5352 5.7027e-17
8704.7383 4.849e-17
8705.9404 5.17642e-17
8707.1436 5.62291e-17
8708.3467 5.2644e-17
8709.5488 5.53684e-17
8710.752 5.29825e-17
8711.9551 5.26771e-17
8713.1572 4.83287e-17
8714.3604 5.11784e-17
8715.5635 5.37966e-17
8716.7656 5.70034e-17
8717.9688 4.9644e-17
8719.1719 4.85217e-17
8720.374 5.28953e-17
8721.5771 5.56081e-17
8722.7803 5.24752e-17
8723.9824 4.72509e-17
8725.1855 5.52384e-17
8726.3877 5.2451e-17
8727.5908 4.93759e-17
8728.7939 5.33463e-17
8729.9961 4.93642e-17
8731.1992 5.10966e-17
8732.4014 5.48696e-17
8733.6045 5.64658e-17
8734.8076 5.30497e-17
8736.0098 5.02415e-17
8737.2129 5.18989e-17
8738.415 5.48006e-17
8739.6182 5.03238e-17
8740.8203 4.53615e-17
8742.0234 5.57065e-17
8743.2266 5.40892e-17
8744.4287 4.9619e-17
8745.6318 4.93204e-17
8746.834 5.83452e-17
8748.0371 5.19197e-17
8749.2393 4.81904e-17
8750.4424 4.30695e-17
8751.6445 4.78929e-17
8752.8477 4.59224e-17
8754.0498 5.12244e-17
8755.2529 4.905e-17
8756.4551 4.18559e-17
8757.6582 4.05191e-17
8758.8604 5.90594e-17
8760.0635 5.63502e-17
8761.2656 4.2833e-17
8762.4688 4.70799e-17
8763.6709 7.46199e-17
8764.874 3.90592e-17
8766.0762 4.82474e-17
8767.2793 6.83558e-17
8768.4814 6.09108e-17
8769.6846 6.75803e-17
8770.8867 5.6112e-17
8772.0898 4.60691e-17
8773.292 6.04905e-17
8774.4951 6.69388e-17
8775.6973 5.1864e-17
8776.8994 7.28373e-17
8778.1025 4.54752e-17
8779.3047 5.66162e-17
8780.5078 5.39604e-17
8781.71 5.31164e-17
8782.9131 4.63945e-17
8784.1152 4.72908e-17
8785.3184 4.46602e-17
8786.5205 4.97367e-17
8787.7227 4.91251e-17
8788.9258 4.60243e-17
8790.1279 5.30656e-17
8791.3311 5.13495e-17
8792.5332 5.19887e-17
8793.7354 4.7454e-17
8794.9385 5.49652e-17
8796.1406 4.79778e-17
8797.3428 4.67241e-17
8798.5459 4.58673e-17
8799.748 4.89738e-17
8800.9502 4.64199e-17
8802.1533 5.47979e-17
8803.3555 5.2707e-17
8804.5576 5.16138e-17
8805.7607 4.95538e-17
8806.9629 4.9043e-17
8808.165 5.65858e-17
8809.3682 4.10338e-17
8810.5703 4.35239e-17
8811.7725 5.24546e-17
8812.9756 4.71101e-17
8814.1777 4.94183e-17
8815.3799 4.99382e-17
8816.582 4.95518e-17
8817.7852 5.0396e-17
8818.9873 4.70307e-17
8820.1895 5.08754e-17
8821.3926 5.12879e-17
8822.5947 4.56546e-17
8823.7969 4.84141e-17
8824.999 4.85717e-17
8826.2021 4.67555e-17
8827.4043 6.4954e-17
8828.6064 4.88258e-17
8829.8086 3.72794e-17
8831.0107 4.1478e-17
8832.2139 4.77765e-17
8833.416 4.40963e-17
8834.6182 5.50532e-17
8835.8203 4.96254e-17
8837.0225 3.61297e-17
8838.2256 4.02756e-17
8839.4277 4.64086e-17
8840.6299 5.03574e-17
8841.832 4.95476e-17
8843.0342 4.2812e-17
8844.2363 4.80118e-17
8845.4395 4.67967e-17
8846.6416 4.02002e-17
8847.8438 4.85356e-17
8849.0459 5.04933e-17
8850.248 4.37536e-17
8851.4502 4.32554e-17
8852.6523 4.74966e-17
8853.8555 5.6597e-17
8855.0576 5.13978e-17
8856.2598 5.41085e-17
8857.4619 5.45845e-17
8858.6641 5.16847e-17
8859.8662 4.87377e-17
8861.0684 5.18442e-17
8862.2705 4.35852e-17
8863.4727 4.91633e-17
8864.6748 4.59557e-17
8865.877 5.55721e-17
8867.0791 3.69311e-17
8868.2812 6.52126e-17
8869.4834 5.33393e-17
8870.6855 4.32005e-17
8871.8877 4.2907e-17
8873.0898 5.34167e-17
8874.292 4.47374e-17
8875.4941 5.21229e-17
8876.6963 4.96773e-17
8877.8984 4.95886e-17
8879.1006 4.90107e-17
8880.3027 4.88875e-17
8881.5049 4.7846e-17
8882.707 4.60035e-17
8883.9092 5.50069e-17
8885.1113 5.2626e-17
8886.3135 4.21871e-17
8887.5156 2.47289e-17
8888.7178 2.03009e-17
8889.9199 4.70032e-17
8891.1221 4.42932e-17
8892.3242 4.86133e-17
8893.5264 4.31421e-17
8894.7285 4.93694e-17
8895.9307 4.74667e-17
8897.1318 4.41317e-17
8898.334 5.15257e-17
8899.5361 4.75357e-17
8900.7383 5.07189e-17
8901.9404 5.10403e-17
8903.1426 4.43141e-17
8904.3447 5.16399e-17
8905.5459 4.79013e-17
8906.748 4.55138e-17
8907.9502 4.92597e-17
8909.1523 5.64284e-17
8910.3545 5.25419e-17
8911.5557 4.71771e-17
8912.7578 4.48294e-17
8913.96 5.00545e-17
8915.1621 4.12017e-17
8916.3643 5.31444e-17
8917.5654 3.64385e-17
8918.7676 3.29028e-17
8919.9697 5.96598e-17
8921.1719 4.88263e-17
8922.373 6.01658e-17
8923.5752 4.80941e-17
8924.7773 5.61188e-17
8925.9795 4.12599e-17
8927.1807 4.40024e-17
8928.3828 4.62711e-17
8929.585 4.35172e-17
8930.7861 4.95184e-17
8931.9883 4.97463e-17
8933.1904 4.78681e-17
8934.3926 4.86056e-17
8935.5938 4.87312e-17
8936.7959 4.73981e-17
8937.9971 5.0526e-17
8939.1992 4.85265e-17
8940.4014 4.4426e-17
8941.6025 5.05313e-17
8942.8047 4.5116e-17
8944.0068 4.30044e-17
8945.208 5.12354e-17
8946.4102 4.51797e-17
8947.6113 4.68365e-17
8948.8135 5.0674e-17
8950.0156 4.96276e-17
8951.2168 4.79469e-17
8952.4189 4.7018e-17
8953.6201 4.79401e-17
8954.8223 4.83186e-17
8956.0234 3.97359e-17
8957.2256 5.78112e-17
8958.4268 6.59637e-17
8959.6289 7.00203e-17
8960.8301 5.95853e-17
8962.0322 5.91404e-17
8963.2334 4.54554e-17
8964.4355 4.99735e-17
8965.6367 5.55476e-17
8966.8389 4.44281e-17
8968.04 4.50296e-17
8969.2422 4.73647e-17
8970.4434 5.23096e-17
8971.6455 4.91157e-17
8972.8467 6.08728e-17
8974.0488 4.65943e-17
8975.25 5.11624e-17
8976.4512 5.60987e-17
8977.6533 4.7703e-17
8978.8545 5.13051e-17
8980.0566 4.52729e-17
8981.2578 5.59099e-17
8982.459 5.25749e-17
8983.6611 4.74959e-17
8984.8623 5.61502e-17
8986.0635 4.74874e-17
8987.2656 4.81986e-17
8988.4668 5.5955e-17
8989.668 4.79513e-17
8990.8701 5.23708e-17
8992.0713 5.30276e-17
8993.2725 5.06112e-17
8994.4746 5.6458e-17
8995.6758 5.70169e-17
8996.877 5.08674e-17
8998.0781 5.1429e-17
8999.2803 3.9445e-17
9000.4814 6.86009e-17
9001.6826 4.93498e-17
9002.8838 4.59964e-17
9004.0859 6.16844e-17
9005.2871 5.6776e-17
9006.4883 5.51466e-17
9007.6895 5.11217e-17
9008.8906 5.66548e-17
9010.0928 5.02819e-17
9011.2939 4.81142e-17
9012.4951 5.74518e-17
9013.6963 5.10663e-17
9014.8975 5.54556e-17
9016.0986 5.41643e-17
9017.3008 5.43369e-17
9018.502 5.19349e-17
9019.7031 5.34817e-17
9020.9043 5.00164e-17
9022.1055 4.57682e-17
9023.3066 5.72773e-17
9024.5078 4.54065e-17
9025.709 5.24654e-17
9026.9102 5.60508e-17
9028.1113 5.11626e-17
9029.3135 5.43087e-17
9030.5146 4.79858e-17
9031.7158 5.79166e-17
9032.917 5.87053e-17
9034.1182 5.74934e-17
9035.3193 5.86713e-17
9036.5205 4.82964e-17
9037.7217 5.58426e-17
9038.9229 5.21341e-17
9040.124 5.47186e-17
9041.3242 4.65413e-17
9042.5254 5.19608e-17
9043.7266 5.05278e-17
9044.9277 5.32049e-17
9046.1289 5.10738e-17
9047.3301 5.42423e-17
9048.5312 6.21947e-17
9049.7324 5.73127e-17
9050.9336 5.94081e-17
9052.1348 4.84423e-17
9053.3359 5.79655e-17
9054.5361 5.55569e-17
9055.7373 5.39041e-17
9056.9385 4.98338e-17
9058.1396 5.15914e-17
9059.3408 5.12769e-17
9060.542 4.52891e-17
9061.7432 5.11364e-17
9062.9434 5.17944e-17
9064.1445 5.17259e-17
9065.3457 5.36942e-17
9066.5469 5.80692e-17
9067.7471 5.28075e-17
9068.9482 5.58017e-17
9070.1494 4.89304e-17
9071.3506 5.91997e-17
9072.5508 5.40905e-17
9073.752 5.05106e-17
9074.9531 5.01208e-17
9076.1533 5.14104e-17
9077.3545 5.88978e-17
9078.5557 5.2774e-17
9079.7568 5.33035e-17
9080.957 5.43316e-17
9082.1582 4.94699e-17
9083.3594 4.98269e-17
9084.5596 5.59584e-17
9085.7607 5.48123e-17
9086.9609 5.13256e-17
9088.1621 5.23707e-17
9089.3633 5.57268e-17
9090.5635 5.15725e-17
9091.7646 4.61476e-17
9092.9648 5.20074e-17
9094.166 5.26605e-17
9095.3662 5.05623e-17
9096.5674 4.52031e-17
9097.7686 5.32794e-17
9098.9688 5.87022e-17
9100.1699 5.18149e-17
9101.3701 5.55038e-17
9102.5703 4.82151e-17
9103.7715 5.82291e-17
9104.9717 5.79914e-17
9106.1729 4.81842e-17
9107.373 5.15576e-17
9108.5742 4.93647e-17
9109.7744 4.91745e-17
9110.9756 5.99682e-17
9112.1758 5.49271e-17
9113.377 5.24355e-17
9114.5771 5.149e-17
9115.7773 5.0719e-17
9116.9785 5.80503e-17
9118.1787 5.59594e-17
9119.3789 4.70971e-17
9120.5801 4.82024e-17
9121.7803 5.26631e-17
9122.9805 4.93022e-17
9124.1816 5.01976e-17
9125.3818 5.04931e-17
9126.582 5.70518e-17
9127.7832 4.93735e-17
9128.9834 4.78904e-17
9130.1836 5.24464e-17
9131.3838 5.51954e-17
9132.585 5.19895e-17
9133.7852 5.43832e-17
9134.9854 5.48973e-17
9136.1855 5.20232e-17
9137.3867 5.04549e-17
9138.5869 5.51261e-17
9139.7871 5.70071e-17
9140.9873 5.49511e-17
9142.1875 5.7451e-17
9143.3877 5.6856e-17
9144.5889 5.04559e-17
9145.7891 5.18504e-17
9146.9893 5.5361e-17
9148.1895 5.09818e-17
9149.3896 5.76363e-17
9150.5898 5.25173e-17
9151.79 5.37187e-17
9152.9902 4.69366e-17
9154.1904 5.66474e-17
9155.3906 4.90647e-17
9156.5908 5.21369e-17
9157.791 4.98955e-17
9158.9922 5.15114e-17
9160.1924 4.94217e-17
9161.3926 5.58657e-17
9162.5928 5.05355e-17
9163.793 5.96221e-17
9164.9932 5.18779e-17
9166.1924 5.24027e-17
9167.3926 5.48451e-17
9168.5928 4.91765e-17
9169.793 5.26637e-17
9170.9932 4.7553e-17
9172.1934 4.91285e-17
9173.3936 5.04435e-17
9174.5938 4.49824e-17
9175.7939 5.17108e-17
9176.9941 4.71468e-17
9178.1934 5.11271e-17
9179.3936 5.20436e-17
9180.5938 5.18504e-17
9181.7939 4.96407e-17
9182.9941 5.40433e-17
9184.1943 4.71138e-17
9185.3936 5.25267e-17
9186.5938 5.17105e-17
9187.7939 4.74419e-17
9188.9941 4.4468e-17
9190.1934 5.42014e-17
9191.3936 5.08303e-17
9192.5938 5.28223e-17
9193.7939 4.85513e-17
9194.9932 4.3033e-17
9196.1934 5.20046e-17
9197.3936 4.84773e-17
9198.5928 5.46279e-17
9199.793 5.33168e-17
9200.9932 4.94647e-17
9202.1924 4.95575e-17
9203.3926 5.83638e-17
9204.5928 4.5786e-17
9205.792 5.35621e-17
9206.9922 5.13769e-17
9208.1914 4.49366e-17
9209.3916 5.06898e-17
9210.5908 4.99707e-17
9211.791 4.76332e-17
9212.9912 4.73475e-17
9214.1904 4.68062e-17
9215.3906 4.76484e-17
9216.5898 5.20609e-17
9217.79 5.16813e-17
9218.9893 5.06085e-17
9220.1895 4.91892e-17
9221.3887 5.05919e-17
9222.5889 5.11441e-17
9223.7881 5.16765e-17
9224.9873 4.76791e-17
9226.1875 4.39299e-17
9227.3867 4.76198e-17
9228.5869 4.57517e-17
9229.7861 4.83756e-17
9230.9854 4.72487e-17
9232.1855 4.89115e-17
9233.3848 5.24491e-17
9234.585 4.17636e-17
9235.7842 4.98391e-17
9236.9834 5.167e-17
9238.1826 4.37236e-17
9239.3828 4.4209e-17
9240.582 4.8956e-17
9241.7812 4.56962e-17
9242.9814 4.73181e-17
9244.1807 4.61805e-17
9245.3799 4.84469e-17
9246.5791 4.43468e-17
9247.7783 5.13515e-17
9248.9785 4.97085e-17
9250.1777 4.37579e-17
9251.377 4.68865e-17
9252.5762 4.66399e-17
9253.7754 4.85657e-17
9254.9756 4.55324e-17
9256.1748 4.98548e-17
9257.374 4.77525e-17
9258.5732 4.55317e-17
9259.7725 4.4874e-17
9260.9717 4.5865e-17
9262.1709 4.76128e-17
9263.3701 5.29235e-17
9264.5693 5.10634e-17
9265.7686 4.79311e-17
9266.9678 4.12481e-17
9268.168 4.10801e-17
9269.3672 4.78041e-17
9270.5654 4.29951e-17
9271.7646 4.62945e-17
9272.9639 4.64045e-17
9274.1631 4.64551e-17
9275.3623 4.80508e-17
9276.5615 4.09961e-17
9277.7607 4.32366e-17
9278.96 4.82644e-17
9280.1592 4.5571e-17
9281.3584 4.94134e-17
9282.5576 4.75467e-17
9283.7568 5.31332e-17
9284.9561 4.9433e-17
9286.1543 5.00105e-17
9287.3535 4.04204e-17
9288.5527 4.19497e-17
9289.752 4.50743e-17
9290.9512 3.61546e-17
9292.1494 5.23526e-17
9293.3486 5.21957e-17
9294.5479 4.69177e-17
9295.7471 4.52398e-17
9296.9463 4.67389e-17
9298.1445 4.61516e-17
9299.3438 5.39555e-17
9300.543 4.59567e-17
9301.7412 4.56136e-17
9302.9404 5.24123e-17
9304.1396 6.81735e-17
9305.3379 4.54342e-17
9306.5371 4.53891e-17
9307.7363 5.66388e-17
9308.9346 5.03248e-17
9310.1338 4.6622e-17
9311.333 4.01666e-17
9312.5312 5.75944e-17
9313.7305 4.50022e-17
9314.9287 2.89532e-17
9316.1279 3.5668e-17
9317.3262 4.25676e-17
9318.5254 4.52575e-17
9319.7236 5.13202e-17
9320.9229 6.1784e-17
9322.1211 4.47034e-17
9323.3203 3.30601e-17
9324.5186 6.2078e-17
9325.7178 3.08455e-17
9326.916 5.38241e-17
9328.1152 4.4192e-17
9329.3135 5.95339e-17
9330.5127 4.94894e-17
9331.7109 4.69289e-17
9332.9092 4.23333e-17
9334.1084 4.65261e-17
9335.3066 4.38207e-17
9336.5049 4.80987e-17
9337.7041 3.11009e-17
9338.9023 3.64323e-17
9340.1006 5.4492e-17
9341.2998 5.07793e-17
9342.498 5.22677e-17
9343.6963 5.0971e-17
9344.8945 4.76065e-17
9346.0938 4.31384e-17
9347.292 5.24033e-17
9348.4902 5.3345e-17
9349.6885 4.21212e-17
9350.8877 4.89299e-17
9352.0859 5.08887e-17
9353.2842 4.42804e-17
9354.4824 4.84688e-17
9355.6807 4.94488e-17
9356.8799 4.22571e-17
9358.0781 4.69887e-17
9359.2764 3.91865e-17
9360.4746 5.02919e-17
9361.6729 4.9644e-17
9362.8711 4.8278e-17
9364.0693 3.89468e-17
9365.2676 4.81814e-17
9366.4658 5.16463e-17
9367.6641 3.96069e-17
9368.8623 4.81171e-17
9370.0605 3.94474e-17
9371.2588 2.9662e-17
9372.457 6.74409e-17
9373.6553 3.32367e-17
9374.8535 5.32561e-18
9376.0518 4.82173e-17
9377.25 5.39703e-17
9378.4482 4.60232e-17
9379.6465 4.74958e-17
9380.8447 4.84703e-17
9382.043 5.18654e-17
9383.2402 3.93915e-17
9384.4385 3.94494e-17
9385.6367 4.41758e-17
9386.835 4.9183e-17
9388.0332 3.88122e-17
9389.2314 4.0956e-17
9390.4287 3.10468e-17
9391.627 4.51756e-17
9392.8252 3.97823e-17
9394.0234 4.45807e-17
9395.2207 4.26309e-17
9396.4189 4.51261e-17
9397.6172 4.12853e-17
9398.8145 4.12021e-17
9400.0127 5.07919e-17
9401.2109 3.94962e-17
9402.4092 4.66299e-17
9403.6064 4.21861e-17
9404.8047 4.24812e-17
9406.002 4.99787e-17
9407.2002 4.5119e-17
9408.3984 3.74478e-17
9409.5957 4.43911e-17
9410.7939 4.12933e-17
9411.9912 4.22316e-17
9413.1895 4.39383e-17
9414.3867 4.06943e-17
9415.585 5.29672e-17
9416.7822 4.88471e-17
9417.9805 4.77255e-17
9419.1777 2.04898e-17
9420.376 2.04235e-17
9421.5732 3.1021e-17
9422.7715 5.10469e-17
9423.9688 4.62484e-17
9425.167 4.15381e-17
9426.3643 4.18585e-17
9427.5615 4.41751e-17
9428.7598 3.88177e-17
9429.957 3.77674e-17
9431.1553 3.91471e-17
9432.3525 4.05755e-17
9433.5498 4.65129e-17
9434.748 4.0851e-17
9435.9453 6.18036e-17
9437.1426 5.90173e-17
9438.3408 6.34757e-17
9439.5381 1.74297e-17
9440.7354 4.23322e-17
9441.9326 4.56714e-17
9443.1309 3.0219e-17
9444.3281 3.55898e-17
9445.5254 4.02856e-17
9446.7227 5.34784e-17
9447.9199 3.76656e-17
9449.1182 4.28487e-17
9450.3154 4.42668e-17
9451.5127 4.55799e-17
9452.71 4.64583e-17
9453.9072 4.3086e-17
9455.1045 4.54296e-17
9456.3018 4.76852e-17
9457.499 5.32572e-17
9458.6963 4.37862e-17
9459.8936 5.17802e-17
9461.0908 3.96415e-17
9462.2881 4.25774e-17
9463.4854 3.75033e-17
9464.6826 3.92085e-17
9465.8799 4.3087e-17
9467.0771 4.06623e-17
9468.2744 3.3145e-17
9469.4717 3.67316e-17
9470.6689 4.5386e-17
9471.8662 4.30679e-17
9473.0635 4.67597e-17
9474.2607 3.97546e-17
9475.458 2.65923e-17
9476.6553 3.78421e-17
9477.8525 4.8985e-17
9479.0488 1.55879e-17
9480.2461 2.77591e-17
9481.4434 3.63272e-17
9482.6406 3.33601e-17
9483.8379 4.29185e-17
9485.0342 4.22076e-17
9486.2314 3.68546e-17
9487.4287 3.99524e-17
9488.626 3.53183e-17
9489.8223 4.38866e-17
9491.0195 4.21989e-17
9492.2168 4.39908e-17
9493.4131 3.41054e-17
9494.6104 4.12672e-17
9495.8076 4.2216e-17
9497.0039 4.05652e-17
9498.2012 3.42838e-17
9499.3984 5.2713e-17
9500.5947 6.04713e-17
9501.792 1.71773e-17
9502.9883 1.26266e-17
9504.1855 3.48974e-17
9505.3828 4.31767e-17
9506.5791 2.98323e-17
9507.7764 3.234e-17
9508.9727 4.06582e-17
9510.1699 3.06669e-17
9511.3662 4.09525e-17
9512.5635 4.15039e-17
9513.7598 2.99364e-17
9514.9561 3.26012e-17
9516.1533 5.86453e-17
9517.3496 3.01404e-17
9518.5469 4.05939e-17
9519.7432 4.69052e-17
9520.9404 4.61131e-17
9522.1367 3.85183e-17
9523.333 3.07166e-17
9524.5303 3.31238e-17
9525.7266 4.69235e-17
9526.9229 3.65179e-17
9528.1191 4.9479e-17
9529.3164 3.58212e-17
9530.5127 3.45387e-17
9531.709 3.4936e-17
9532.9062 3.88941e-17
9534.1025 3.32997e-17
9535.2988 3.51315e-17
9536.4951 3.40537e-17
9537.6914 4.21086e-17
9538.8887 3.25739e-17
9540.085 3.78587e-17
9541.2812 4.38149e-17
9542.4775 3.4091e-17
9543.6738 3.61482e-17
9544.8701 3.88693e-17
9546.0664 3.63454e-17
9547.2637 3.71802e-17
9548.46 3.95893e-17
9549.6562 3.73089e-17
9550.8525 3.71189e-17
9552.0488 3.0651e-17
9553.2451 3.62786e-17
9554.4414 4.91734e-17
9555.6377 2.37239e-17
9556.834 3.63535e-17
9558.0303 3.61432e-17
9559.2266 4.09835e-17
9560.4229 3.73049e-17
9561.6191 3.87207e-17
9562.8145 3.38779e-17
9564.0107 3.93024e-17
9565.207 2.8844e-17
9566.4033 3.87155e-17
9567.5996 1.1582e-17
9568.7959 3.3016e-17
9569.9922 2.69213e-17
9571.1875 3.8818e-17
9572.3838 3.61318e-17
9573.5801 3.08287e-17
9574.7764 3.19647e-17
9575.9727 3.15724e-17
9577.168 3.9571e-17
9578.3643 3.59595e-17
9579.5605 3.836e-17
9580.7568 3.43978e-17
9581.9521 2.80923e-17
9583.1484 3.2586e-17
9584.3447 3.1746e-17
9585.54 4.00229e-17
9586.7363 3.58134e-17
9587.9326 3.88606e-17
9589.1279 3.8981e-17
9590.3242 3.58961e-17
9591.5195 3.16569e-17
9592.7158 3.87161e-17
9593.9111 3.63055e-17
9595.1074 3.50174e-17
9596.3037 3.95451e-17
9597.499 2.38782e-17
9598.6953 3.45877e-17
9599.8906 3.21151e-17
9601.0869 3.06052e-17
9602.2822 3.68226e-17
9603.4785 3.29858e-17
9604.6738 3.27326e-17
9605.8691 4.46476e-17
9607.0654 3.2448e-17
9608.2607 2.54203e-17
9609.457 4.63897e-17
9610.6523 3.27233e-17
9611.8477 3.30112e-17
9613.0439 3.49891e-17
9614.2393 3.20099e-17
9615.4346 4.01534e-17
9616.6309 3.27412e-17
9617.8262 4.45051e-17
9619.0215 2.85493e-17
9620.2178 4.85957e-17
9621.4131 3.62612e-17
9622.6084 2.37878e-17
9623.8037 2.506e-17
9625.0 4.23529e-17
9626.1953 2.94835e-17
9627.3906 3.36161e-17
9628.5859 3.21376e-17
9629.7812 3.15426e-17
9630.9766 3.80481e-17
9632.1729 3.3224e-17
9633.3682 3.36241e-17
9634.5635 3.58595e-17
9635.7588 2.6652e-17
9636.9541 3.97602e-17
9638.1494 3.58839e-17
9639.3447 3.13712e-17
9640.54 3.24061e-17
9641.7354 3.72776e-17
9642.9307 3.29001e-17
9644.126 3.48816e-17
9645.3213 3.56811e-17
9646.5166 3.40593e-17
9647.7119 3.67065e-17
9648.9072 3.58551e-17
9650.1025 3.92071e-17
9651.2979 3.76863e-17
9652.4932 3.81134e-17
9653.6885 3.42796e-17
9654.8838 4.17176e-17
9656.0781 3.27799e-17
9657.2734 3.37623e-17
9658.4688 4.57623e-17
9659.6641 3.79952e-17
9660.8594 3.54041e-17
9662.0547 3.19031e-17
9663.249 3.61939e-17
9664.4443 3.12488e-17
9665.6396 3.93772e-17
9666.835 3.26233e-17
9668.0303 4.5036e-17
9669.2246 3.772e-17
9670.4199 4.13935e-17
9671.6152 3.31678e-17
9672.8096 3.17327e-17
9674.0049 3.52913e-17
9675.2002 4.34043e-17
9676.3945 3.05306e-17
9677.5898 4.20789e-17
9678.7852 2.80392e-17
9679.9795 3.06327e-17
9681.1748 4.32706e-17
9682.3691 4.31502e-17
9683.5645 3.78375e-17
9684.7588 3.08968e-17
9685.9541 4.38826e-17
9687.1484 3.7007e-17
9688.3438 3.46973e-17
9689.5391 3.82505e-17
9690.7334 4.11711e-17
9691.9277 4.33355e-17
9693.123 3.96727e-17
9694.3174 4.17654e-17
9695.5127 5.15128e-17
9696.707 3.33208e-17
9697.9023 3.92684e-17
9699.0967 2.16551e-17
9700.291 5.75208e-17
9701.4863 4.27908e-17
9702.6807 4.20522e-17
9703.875 3.33311e-17
9705.0703 3.7394e-17
9706.2646 4.00816e-17
9707.459 4.17037e-17
9708.6543 3.42807e-17
9709.8486 3.60779e-17
9711.043 3.68803e-17
9712.2373 3.64391e-17
9713.4326 4.131e-17
9714.627 4.24078e-17
9715.8213 3.9653e-17
9717.0156 3.04427e-17
9718.21 3.10607e-17
9719.4053 4.25979e-17
9720.5996 7.01993e-17
9721.7939 4.37768e-17
9722.9883 5.29303e-17
9724.1826 3.82964e-17
9725.377 4.58625e-17
9726.5713 3.69261e-17
9727.7656 3.80975e-17
9728.96 3.86208e-17
9730.1553 2.74562e-17
9731.3496 3.4991e-17
9732.5439 2.78779e-17
9733.7383 4.39295e-17
9734.9326 2.98385e-17
9736.127 2.43456e-17
9737.3213 2.48748e-17
9738.5146 4.53733e-17
9739.709 5.44355e-17
9740.9033 3.18103e-17
9742.0977 2.76217e-17
9743.292 2.48532e-17
9744.4863 3.16769e-17
9745.6807 3.55214e-17
9746.875 3.48226e-17
9748.0693 3.78653e-17
9749.2637 3.38525e-17
9750.457 3.68614e-17
9751.6514 3.89946e-17
9752.8457 3.69621e-17
9754.04 3.20199e-17
9755.2344 3.51091e-17
9756.4277 3.56437e-17
9757.6221 3.69004e-17
9758.8164 3.3255e-17
9760.0098 3.71666e-17
9761.2041 3.83033e-17
9762.3984 3.22056e-17
9763.5928 2.88452e-17
9764.7861 3.35798e-17
9765.9805 3.81548e-17
9767.1738 3.46341e-17
9768.3682 3.13625e-17
9769.5625 4.27868e-17
9770.7559 3.4377e-17
9771.9502 4.06187e-17
9773.1445 3.68628e-17
9774.3379 3.6383e-17
9775.5322 4.45552e-17
9776.7256 3.81795e-17
9777.9199 3.45089e-17
9779.1133 3.36642e-17
9780.3076 3.59956e-17
9781.501 3.49348e-17
9782.6953 4.2463e-17
9783.8887 2.97624e-17
9785.083 4.00507e-17
9786.2764 3.56112e-17
9787.4697 1.53713e-17
9788.6641 1.94057e-17
9789.8574 2.47644e-17
9791.0518 3.86125e-17
9792.2451 1.56971e-17
9793.4385 1.85243e-17
9794.6328 3.8073e-17
9795.8262 4.59092e-17
9797.0195 5.2426e-17
9798.2139 3.65522e-17
9799.4072 3.65003e-17
9800.6006 3.52643e-17
9801.7949 2.43049e-17
9802.9883 4.10713e-17
9804.1816 3.30702e-17
9805.375 3.60873e-17
9806.5684 3.29176e-17
9807.7627 4.21993e-17
9808.9561 3.83287e-17
9810.1494 2.77692e-17
9811.3428 2.75755e-17
9812.5361 4.86478e-17
9813.7305 4.68533e-17
9814.9238 2.25459e-17
9816.1172 4.79709e-17
9817.3105 4.07299e-17
9818.5039 3.31973e-17
9819.6973 4.09812e-17
9820.8906 3.64179e-17
9822.084 3.92272e-17
9823.2773 3.31668e-17
9824.4707 4.48693e-17
9825.6641 3.48133e-17
9826.8574 3.79166e-17
9828.0508 4.53873e-17
9829.2441 3.70494e-17
9830.4375 3.36078e-17
9831.6309 3.89733e-17
9832.8242 2.731e-17
9834.0176 3.50792e-17
9835.2109 3.01815e-17
9836.4043 2.56209e-17
9837.5977 4.05186e-17
9838.791 3.94773e-17
9839.9834 3.55277e-17
9841.1768 4.19017e-17
9842.3701 3.27314e-17
9843.5635 4.20474e-17
9844.7568 3.95222e-17
9845.9502 3.15882e-17
9847.1426 5.26583e-17
9848.3359 1.89408e-17
9849.5293 3.90649e-17
9850.7227 4.92736e-17
9851.915 4.33479e-17
9853.1084 2.95855e-17
9854.3018 3.54148e-17
9855.4951 3.36447e-17
9856.6875 3.70178e-17
9857.8809 4.06253e-17
9859.0742 3.81285e-17
9860.2666 3.41772e-17
9861.46 3.7396e-17
9862.6523 3.38783e-17
9863.8457 3.99337e-17
9865.0391 3.26874e-17
9866.2314 3.54727e-17
9867.4248 2.59803e-17
9868.6172 2.35509e-17
9869.8105 3.16342e-17
9871.0039 3.18607e-17
9872.1963 2.42237e-17
9873.3896 3.26276e-17
9874.582 2.34067e-17
9875.7754 4.48726e-17
9876.9678 3.64847e-17
9878.1611 4.10671e-17
9879.3535 3.53364e-17
9880.5469 4.96054e-17
9881.7393 3.80287e-17
9882.9316 3.54092e-17
9884.125 3.19282e-17
9885.3174 3.91119e-17
9886.5107 2.85825e-17
9887.7031 4.40273e-17
9888.8955 3.15035e-17
9890.0889 3.09743e-17
9891.2812 4.274e-17
9892.4736 2.59965e-17
9893.667 4.96426e-17
9894.8594 2.47895e-17
9896.0518 3.68248e-17
9897.2441 2.33023e-17
9898.4375 2.66977e-17
9899.6299 3.7891e-17
9900.8223 3.39258e-17
9902.0146 3.69122e-17
9903.208 2.90437e-17
9904.4004 4.12828e-17
9905.5928 3.68274e-17
9906.7852 3.23293e-17
9907.9775 3.53226e-17
9909.1709 3.50234e-17
9910.3633 5.12478e-17
9911.5557 3.2407e-17
9912.748 2.31645e-17
9913.9404 2.55574e-18
9915.1328 5.81405e-17
9916.3252 2.75713e-18
9917.5176 3.95554e-17
9918.71 2.15613e-17
9919.9023 4.49872e-17
9921.0947 3.99772e-17
9922.2881 3.05553e-17
9923.4805 3.3198e-17
9924.6729 3.69446e-17
9925.8652 3.50331e-17
9927.0576 3.91728e-17
9928.25 3.17395e-17
9929.4424 3.53437e-17
9930.6338 3.35422e-17
9931.8262 2.97496e-17
9933.0186 3.22172e-17
9934.2109 3.63258e-17
9935.4033 3.73077e-17
9936.5957 3.47837e-17
9937.7881 2.76727e-17
9938.9805 5.25345e-17
9940.1729 5.03477e-17
9941.3643 4.12329e-17
9942.5566 2.2438e-17
9943.749 2.89832e-17
9944.9414 3.67502e-17
9946.1338 3.95145e-17
9947.3262 2.34091e-17
9948.5176 3.66548e-17
9949.71 4.58424e-17
9950.9023 5.55917e-17
9952.0947 3.79312e-17
9953.2861 5.24653e-17
9954.4785 2.94251e-18
9955.6709 3.59177e-17
9956.8623 3.12758e-17
9958.0547 2.96695e-17
9959.2471 4.00911e-17
9960.4385 4.11416e-17
9961.6309 1.90882e-17
9962.8232 7.859e-17
9964.0146 1.37763e-17
9965.207 2.9286e-17
9966.3994 4.17015e-17
9967.5908 3.45618e-17
9968.7832 4.59327e-17
9969.9746 3.93356e-17
9971.167 3.35993e-17
9972.3594 2.47545e-17
9973.5508 4.18031e-17
9974.7432 4.90177e-17
9975.9346 2.82601e-17
9977.127 2.63351e-17
9978.3184 3.96254e-17
9979.5107 3.89961e-17
9980.7021 2.48271e-17
9981.8945 3.37688e-17
9983.0859 3.50592e-17
9984.2773 3.34166e-17
9985.4697 4.15308e-17
9986.6611 4.63953e-17
9987.8535 3.91449e-17
9989.0449 3.2432e-17
9990.2373 3.19307e-17
9991.4287 3.67589e-17
9992.6201 2.62004e-17
9993.8125 2.68557e-17
9995.0039 2.12995e-17
9996.1953 3.1484e-17
9997.3877 3.47677e-17
9998.5791 3.59192e-17
9999.7705 5.53122e-17
10000.962 2.2149e-17
10002.154 4.47822e-17
10003.346 3.62967e-17
10004.538 2.86423e-17
10005.729 3.49109e-17
10006.921 3.32527e-17
10008.112 3.52026e-17
10009.304 2.91984e-17
10010.496 2.80318e-17
10011.687 3.50642e-17
10012.879 5.33507e-17
10014.07 2.22576e-17
10015.262 1.66861e-17
10016.454 3.06615e-18
10017.645 4.29653e-17
10018.837 2.29588e-17
10020.028 4.1564e-17
10021.22 2.39062e-17
10022.411 3.82671e-17
10023.603 5.83128e-17
10024.794 4.10798e-17
10025.986 2.657e-17
10027.177 2.01425e-17
10028.369 2.56949e-17
10029.56 1.60815e-17
10030.752 3.70925e-17
10031.943 4.74786e-17
10033.134 3.23223e-17
10034.326 3.09166e-17
10035.517 3.20029e-17
10036.709 3.01031e-17
10037.9 2.95466e-17
10039.091 4.34706e-17
10040.283 2.98568e-17
10041.474 1.85747e-17
10042.665 2.46723e-17
10043.857 2.48051e-17
10045.048 2.76014e-17
10046.239 4.30286e-17
10047.431 4.33228e-17
10048.622 2.48279e-17
10049.813 2.58648e-17
10051.005 4.00371e-17
10052.196 2.70519e-17
10053.387 4.10456e-17
10054.578 2.99497e-17
10055.77 3.77595e-17
10056.961 3.9012e-17
10058.152 2.96786e-17
10059.343 2.70483e-17
10060.535 3.03271e-17
10061.726 1.51198e-17
10062.917 2.43862e-17
10064.108 3.09327e-17
10065.299 2.82035e-17
10066.49 4.46971e-17
10067.682 9.98881e-18
10068.873 3.1644e-17
10070.064 2.88609e-17
10071.255 4.05081e-17
10072.446 2.85136e-17
10073.637 1.74413e-17
10074.828 2.91022e-17
10076.019 3.30387e-17
10077.21 3.43892e-17
10078.401 2.20303e-17
10079.593 4.47294e-17
10080.784 5.48928e-17
10081.975 6.6902e-17
10083.166 5.0475e-17
10084.357 2.02333e-17
10085.548 2.02307e-17
10086.739 4.1027e-17
10087.93 3.57571e-17
10089.121 4.00134e-17
10090.312 3.37643e-17
10091.503 3.34634e-17
10092.694 2.65117e-17
10093.885 2.88446e-17
10095.076 3.70936e-17
10096.266 2.18664e-17
10097.457 2.36818e-17
10098.648 2.32495e-17
10099.839 4.57687e-17
10101.03 1.24218e-17
10102.221 1.602e-17
10103.412 8.73009e-18
10104.603 2.27718e-17
10105.794 4.32645e-17
10106.984 1.8697e-17
10108.175 3.74747e-17
10109.366 5.94377e-17
10110.557 2.78597e-17
10111.748 3.80433e-17
10112.939 3.21346e-17
10114.129 2.23239e-17
10115.32 2.88265e-17
10116.511 4.12263e-17
10117.702 2.21634e-17
10118.893 3.15251e-17
10120.083 3.16749e-17
10121.274 4.50378e-18
10122.465 3.43359e-17
10123.656 3.84944e-17
10124.846 2.45291e-17
10126.037 3.60762e-17
10127.228 5.36951e-17
10128.418 5.38325e-17
10129.609 3.71463e-17
10130.8 3.92465e-17
10131.991 4.10876e-17
10133.181 1.75846e-17
10134.372 3.38118e-17
10135.563 2.94734e-17
10136.753 3.24442e-17
10137.944 2.95204e-17
10139.135 1.56311e-17
10140.325 3.47408e-17
10141.516 4.55141e-17
10142.706 3.18112e-17
10143.897 1.73003e-17
10145.088 2.36635e-17
10146.278 4.24764e-17
10147.469 4.50957e-17
10148.659 4.24522e-17
10149.85 5.07756e-17
10151.041 1.62997e-17
10152.231 1.71952e-17
10153.422 2.44635e-17
10154.612 1.71239e-17
10155.803 3.87892e-17
10156.993 5.70196e-18
10158.184 3.72459e-17
10159.374 2.38187e-17
10160.565 3.93806e-17
10161.755 2.56249e-17
10162.946 4.30949e-17
10164.136 4.72111e-17
10165.327 4.52044e-17
10166.517 2.72728e-17
10167.708 3.32044e-17
10168.898 4.80886e-17
10170.089 2.68979e-17
10171.279 8.05781e-18
10172.469 -4.89727e-18
10173.66 7.14355e-17
10174.85 -4.49981e-18
10176.041 2.83341e-17
10177.231 6.30305e-18
10178.421 3.99435e-17
10179.612 2.745e-17
10180.802 1.67222e-17
10181.993 2.33463e-17
10183.183 5.34256e-17
10184.373 2.58993e-17
10185.564 4.52023e-17
10186.754 3.05847e-17
10187.944 3.15265e-17
10189.135 1.77633e-17
10190.325 3.37698e-17
10191.515 5.7223e-17
10192.706 2.92289e-17
10193.896 3.73682e-17
10195.086 3.93157e-17
10196.277 2.32569e-17
10197.467 2.19928e-17
10198.657 1.97973e-17
10199.848 4.45081e-17
10201.038 3.54598e-17
10202.228 4.25759e-17
10203.418 6.62707e-17
10204.609 -8.63105e-19
10205.799 1.59155e-17
10206.989 5.523e-17
10208.179 2.81253e-17
10209.37 1.28161e-17
10210.56 4.41883e-17
10211.75 1.87959e-17
10212.94 7.54302e-18
10214.13 2.63232e-17
10215.321 7.97109e-18
10216.511 4.59406e-17
10217.701 4.20855e-17
10218.891 4.58382e-17
10220.081 3.732e-17
10221.272 3.45182e-17
10222.462 6.49976e-17
10223.652 4.56335e-17
10224.842 3.48361e-17
10226.032 2.78594e-17
10227.222 2.37967e-17
10228.412 2.31852e-17
10229.603 -1.9203e-17
10230.793 3.86144e-17
10231.983 2.39445e-17
10233.173 -4.52315e-18
10234.363 2.80351e-17
10235.553 2.78068e-17
10236.743 4.36211e-17
10237.933 2.23862e-17
10239.123 4.21867e-17
10240.314 4.28743e-17
10241.504 3.74773e-17
10242.694 3.06937e-17
10243.884 2.92003e-17
10245.074 2.03994e-17
10246.264 2.09419e-17
10247.454 3.3192e-17
10248.644 3.57617e-17
10249.834 3.11485e-17
10251.024 2.87668e-17
10252.214 2.9722e-17
10253.404 3.75932e-17
10254.594 4.54365e-17
10255.784 2.53494e-17
10256.974 2.96234e-17
10258.164 3.95058e-17
10259.354 1.61374e-17
10260.544 3.26594e-17
10261.734 1.45633e-17
10262.924 2.70903e-17
10264.114 2.07859e-17
10265.304 3.07115e-17
10266.494 3.71906e-17
10267.684 3.8268e-17
10268.874 4.29366e-17
10270.064 5.91473e-17
10271.254 3.41743e-17
10272.444 3.81338e-17
10273.634 2.89221e-17
10274.824 1.06073e-17
10276.014 4.05147e-17
10277.204 2.5838e-17
10278.394 4.8199e-17
10279.584 2.71437e-17
10280.774 5.37369e-17
10281.963 1.02171e-16
10283.153 4.89247e-17
10284.343 4.25946e-17
10285.533 7.63525e-17
10286.723 8.02267e-17
10287.913 4.62065e-18
10289.103 1.26214e-16
10290.293 -4.00009e-17
10291.483 -8.52203e-17
10292.673 1.74201e-17
10293.862 5.28874e-17
10295.052 6.68681e-17
10296.242 5.8819e-17
10297.432 3.04425e-17
10298.622 3.33644e-17
10299.812 3.6957e-17
10301.002 1.20901e-17
10302.192 3.26506e-17
10303.381 2.9551e-17
10304.571 3.57116e-17
10305.761 1.57504e-17
10306.951 1.4976e-17
10308.141 9.38866e-18
10309.331 6.64776e-17
10310.52 1.4454e-17
